DTS Sentinel unit serial number:	SN409020Multiplexer serial number:	ORYXHardware model number:	OX4-SRSoftware version number:	ORYX F/W v3.00 Oryx Data Collector v3.7.2.0data status	okinstallation	HaddamTimeLapsedifferential loss correction	single-endedforward channel	channel 3reverse channel	N/Adate	2011/06/21time	20:11:17forward acquisition time	30.00reverse acquisition time	0.00gamma	498.7831k internal	0.1783k external	0.1783temperature offset calibration	1.0074default loss term (dB/km)	0.3790temperature slope calibration	1.3530multiplexer offset coefficient	1.0000multiplexer slope coefficient	1.0000fibre end	0.00T internal ref (°C)	31.56T ext. ref 1 (°C)	23.09T ext. ref 2 (°C)	0.02length (m)	temperature (°C)	Stokes	anti-Stokes-747.200	144.037	-0.138	-0.241
-746.185	-41.632	0.231	0.154
-745.171	-58.260	0.140	-0.079
-744.156	-62.544	0.129	0.070
-743.142	258.356	-0.132	-0.297
-742.127	316.138	0.192	0.476
-741.112	168.203	0.223	-0.416
-740.098	-80.889	0.277	0.119
-739.083	79.631	0.200	-0.280
-738.069	-200.000	-0.009	0.395
-737.054	-55.714	0.371	0.216
-736.039	-102.844	-0.467	0.144
-735.025	14.924	0.120	0.122
-734.010	-113.578	0.048	0.012
-732.996	-200.000	-0.027	0.405
-731.981	84.651	0.409	0.585
-730.966	-106.635	-0.338	0.098
-729.952	-200.000	0.020	-0.266
-728.937	-22.667	-0.096	-0.075
-727.923	47.453	-0.207	-0.252
-726.908	-93.382	-0.347	-0.125
-725.894	-200.000	0.380	0.002
-724.879	-59.656	-0.241	-0.134
-723.864	636.091	-0.071	0.238
-722.850	89.688	0.159	0.231
-721.835	188.042	-0.190	-0.371
-720.821	-132.727	-0.258	0.043
-719.806	168.380	-0.248	-0.462
-718.791	-200.000	0.030	-0.236
-717.777	800.000	0.142	0.590
-716.762	389.306	-0.177	-0.479
-715.748	40.092	-0.051	0.059
-714.733	-19.949	0.216	-0.174
-713.718	-200.000	0.009	-0.092
-712.704	800.000	-0.021	-0.098
-711.689	20.525	0.353	-0.372
-710.675	-161.391	0.497	0.033
-709.660	-200.000	-0.050	0.308
-708.645	2.105	0.288	0.270
-707.631	-185.257	0.104	-0.002
-706.616	303.189	-0.170	-0.412
-705.602	-200.000	0.034	-0.303
-704.587	130.202	-0.298	-0.499
-703.572	18.854	0.107	-0.112
-702.558	56.528	0.175	-0.222
-701.543	-38.764	-0.144	0.099
-700.529	178.779	0.286	-0.546
-699.514	-117.442	0.335	0.078
-698.499	800.000	-0.059	0.300
-697.485	-200.000	0.019	-0.515
-696.470	-135.147	0.347	0.054
-695.456	107.453	0.283	0.440
-694.441	3.926	0.273	0.260
-693.426	89.060	-0.034	0.050
-692.412	-154.968	-0.383	-0.032
-691.397	-119.298	0.447	0.101
-690.383	15.946	-0.180	-0.184
-689.368	-38.473	-0.573	-0.394
-688.354	707.645	0.208	-0.718
-687.339	-90.823	-0.465	-0.174
-686.324	-128.210	0.279	-0.051
-685.310	-130.054	-0.087	-0.015
-684.295	19.024	0.174	0.182
-683.281	-96.470	0.390	-0.133
-682.266	-92.613	0.201	-0.073
-681.251	175.398	0.236	0.447
-680.237	-182.975	0.305	0.007
-679.222	-136.117	0.272	-0.041
-678.208	48.067	-0.224	0.273
-677.193	-66.633	0.170	0.088
-676.178	-100.960	0.279	0.089
-675.164	-52.531	-0.333	0.200
-674.149	39.504	-0.496	0.578
-673.135	-200.000	-0.043	0.350
-672.120	-32.275	0.422	0.306
-671.105	-135.759	0.403	-0.061
-670.091	-70.072	0.274	0.135
-669.076	68.010	-0.124	-0.165
-668.062	-200.000	0.021	0.138
-667.047	623.172	0.082	-0.271
-666.032	109.130	-0.315	0.492
-665.018	-143.104	-0.133	0.017
-664.003	-26.380	0.202	0.154
-662.989	24.854	-0.196	-0.212
-661.974	-56.156	-0.100	-0.058
-660.959	-180.457	-0.215	0.006
-659.945	17.533	-0.327	-0.338
-658.930	-200.000	-0.006	-0.124
-657.916	65.761	-0.119	-0.157
-656.901	-59.553	0.468	-0.260
-655.886	252.710	-0.316	-0.703
-654.872	311.339	-0.112	0.274
-653.857	-200.000	0.027	0.436
-652.843	24.880	-0.148	-0.160
-651.828	-26.100	0.395	-0.301
-650.814	-81.693	0.037	-0.016
-649.799	-6.059	-0.161	-0.143
-648.784	-90.379	0.012	-0.005
-647.770	-91.604	-0.291	-0.107
-646.755	800.000	-0.134	-0.537
-645.741	-200.000	0.012	0.188
-644.726	-29.533	-0.170	-0.126
-643.711	800.000	0.038	0.162
-642.697	112.054	-0.136	-0.214
-641.682	601.501	0.037	-0.121
-640.668	-21.347	-0.195	0.155
-639.653	-83.219	-0.294	-0.122
-638.638	-60.928	-0.422	-0.231
-637.624	-144.940	0.251	-0.029
-636.609	-58.876	-0.335	0.187
-635.595	191.268	0.150	-0.294
-634.580	-78.350	-0.048	0.021
-633.565	172.841	-0.272	0.509
-632.551	-34.201	0.252	0.179
-631.536	-43.490	-0.371	-0.243
-630.522	-35.081	-0.380	0.269
-629.507	68.775	0.123	0.165
-628.492	377.207	0.087	-0.232
-627.478	-138.727	-0.281	-0.039
-626.463	765.829	0.097	-0.345
-625.449	243.693	-0.090	-0.196
-624.434	-119.498	-0.196	-0.044
-623.419	191.811	0.183	-0.359
-622.405	-72.934	0.277	-0.132
-621.390	-27.311	0.016	0.012
-620.376	75.302	0.375	-0.515
-619.361	-126.884	0.166	-0.031
-618.346	-99.422	0.189	-0.062
-617.332	-83.811	-0.167	-0.069
-616.317	-73.074	0.347	0.164
-615.303	-112.985	0.279	0.071
-614.288	-87.070	-0.445	-0.175
-613.273	-193.639	-0.186	0.002
-612.259	356.937	-0.116	0.302
-611.244	-33.429	-0.519	-0.371
-610.230	-37.253	-0.259	0.179
-609.215	250.849	-0.097	0.215
-608.201	16.918	-0.047	0.048
-607.186	-174.512	-0.310	-0.011
-606.171	-155.069	0.484	-0.041
-605.157	-95.551	-0.246	-0.085
-604.142	-103.709	0.235	-0.071
-603.128	381.044	-0.082	0.219
-602.113	14.947	-0.280	0.284
-601.098	-47.470	-0.337	-0.212
-600.084	29.905	-0.017	0.019
-599.069	-104.309	0.514	-0.154
-598.055	-62.106	0.164	-0.089
-597.040	-135.086	0.423	-0.065
-596.025	-0.711	-0.226	0.207
-595.011	91.667	0.276	-0.403
-593.996	-49.687	-0.261	0.160
-592.982	800.000	0.014	0.068
-591.967	32.106	0.090	0.101
-590.952	-20.477	-0.239	0.190
-589.938	-148.669	-0.219	-0.023
-588.923	56.057	0.057	-0.071
-587.909	-27.329	0.059	0.045
-586.894	-200.000	-0.069	0.525
-585.879	-19.757	0.327	0.261
-584.865	-40.465	0.244	-0.164
-583.850	714.103	-0.122	0.423
-582.836	-160.546	-0.236	-0.016
-581.821	-38.558	0.172	0.118
-580.806	-164.639	0.574	0.033
-579.792	31.646	-0.256	0.285
-578.777	-156.364	-0.545	-0.044
-577.763	-200.000	-0.057	0.513
-576.748	-200.000	0.007	0.193
-575.733	-74.427	-0.322	0.150
-574.719	-153.391	0.022	-0.002
-573.704	-106.727	0.143	0.041
-572.690	14.452	-0.218	0.220
-571.675	-200.000	0.009	0.137
-570.661	-134.942	0.789	-0.122
-569.646	-26.505	-0.156	-0.118
-568.631	800.000	0.103	0.416
-567.617	-25.897	0.508	-0.387
-566.602	-200.000	0.065	0.514
-565.588	267.181	-0.113	0.258
-564.573	-200.000	-0.005	0.282
-563.558	47.025	-0.015	0.018
-562.544	-43.704	-0.053	-0.034
-561.529	284.063	-0.109	-0.255
-560.515	-119.666	-0.117	-0.026
-559.500	-106.467	-0.278	-0.080
-558.485	-11.523	-0.204	-0.173
-557.471	-65.262	0.321	0.167
-556.456	105.829	-0.237	0.364
-555.442	-50.744	0.481	-0.293
-554.427	44.154	-0.110	-0.131
-553.412	-59.516	-0.476	-0.264
-552.398	22.408	-0.297	0.315
-551.383	-200.000	-0.005	-0.664
-550.369	-141.309	0.377	-0.049
-549.354	800.000	-0.126	-0.511
-548.339	-163.279	-0.220	-0.013
-547.325	463.238	0.073	-0.213
-546.310	396.599	-0.123	0.335
-545.296	105.110	-0.225	-0.344
-544.281	74.381	0.110	0.149
-543.266	55.747	-0.317	0.398
-542.252	400.248	0.242	0.659
-541.237	-28.636	-0.235	0.175
-540.223	-46.333	0.062	-0.039
-539.208	-69.844	0.177	-0.087
-538.193	-46.801	-0.401	-0.253
-537.179	175.275	-0.220	-0.414
-536.164	-57.285	-0.340	-0.193
-535.150	466.780	-0.064	-0.188
-534.135	-79.133	0.495	-0.217
-533.121	800.000	0.052	-0.226
-532.106	-162.154	-0.280	-0.018
-531.091	-58.615	0.410	-0.229
-530.077	137.351	0.158	0.268
-529.062	-200.000	0.004	0.064
-528.048	-33.645	0.057	-0.041
-527.033	49.637	0.108	0.132
-526.018	-200.000	-0.045	0.318
-525.004	-58.477	-0.197	-0.110
-523.989	-44.176	0.180	-0.116
-522.975	485.202	0.041	0.121
-521.960	196.468	-0.342	-0.676
-520.945	-200.000	0.015	-0.262
-519.931	225.290	0.163	-0.342
-518.916	-144.082	-0.188	0.022
-517.902	-111.428	-0.108	0.028
-516.887	-178.370	-0.398	-0.012
-515.872	-92.260	0.437	0.158
-514.858	-79.491	-0.117	-0.051
-513.843	-200.000	-0.002	0.256
-512.829	227.879	-0.210	-0.444
-511.814	-200.000	-0.003	0.330
-510.799	-141.321	0.228	0.030
-509.785	717.653	-0.058	-0.201
-508.770	-120.128	0.256	0.056
-507.756	-26.248	0.256	-0.194
-506.741	213.096	-0.155	0.317
-505.726	800.000	-0.046	0.253
-504.712	2.117	-0.209	-0.195
-503.697	-153.562	0.274	-0.024
-502.683	489.725	0.053	0.159
-501.668	-200.000	-0.004	0.163
-500.653	-57.269	-0.084	0.048
-499.639	-11.421	-0.121	-0.103
-498.624	273.873	-0.009	0.020
-497.610	117.257	0.247	-0.393
-496.595	-1.062	0.204	-0.187
-495.581	-7.079	-0.283	-0.248
-494.566	-130.818	0.250	0.043
-493.551	29.629	0.149	0.164
-492.537	743.151	0.092	0.321
-491.522	-45.324	0.083	-0.053
-490.508	-200.000	-0.039	-0.243
-489.493	-22.375	-0.359	0.281
-488.478	-109.727	0.547	-0.147
-487.464	113.693	0.323	-0.507
-486.449	-200.000	0.013	0.172
-485.435	97.632	0.304	0.452
-484.420	-105.801	0.290	-0.084
-483.405	-46.082	-0.294	-0.186
-482.391	-11.628	-0.254	0.215
-481.376	-120.125	-0.485	0.106
-480.362	607.589	-0.089	-0.287
-479.347	-54.782	-0.351	0.204
-478.332	-90.928	-0.302	0.112
-477.318	-87.057	0.269	0.105
-476.303	157.033	-0.125	0.224
-475.289	-176.436	-0.372	0.012
-474.274	-121.081	0.346	0.074
-473.259	566.760	-0.078	-0.245
-472.245	160.663	0.160	0.290
-471.230	-72.069	-0.257	0.123
-470.216	168.532	-0.133	0.245
-469.201	-12.209	0.099	0.084
-468.186	94.236	-0.038	-0.055
-467.172	800.000	-0.063	-0.343
-466.157	-64.946	-0.244	0.127
-465.143	-200.000	-0.059	-0.384
-464.128	-73.360	0.489	0.230
-463.113	227.166	0.085	-0.179
-462.099	-165.183	0.432	0.024
-461.084	-200.000	0.016	-0.208
-460.070	-200.000	0.006	-0.184
-459.055	-86.404	0.311	-0.123
-458.040	181.084	0.136	-0.259
-457.026	-100.414	-0.341	-0.108
-456.011	4.000	-0.104	-0.098
-454.997	-17.428	-0.287	-0.233
-453.982	176.461	-0.271	0.510
-452.968	117.742	-0.094	0.150
-451.953	302.299	-0.146	-0.349
-450.938	127.778	0.409	-0.672
-449.924	-150.190	-0.427	-0.042
-448.909	-15.212	-0.119	-0.098
-447.895	203.795	0.158	0.316
-446.880	-97.331	-0.247	0.083
-445.865	66.338	0.150	-0.196
-444.851	22.122	-0.114	-0.120
-443.836	683.971	-0.133	-0.451
-442.822	-200.000	0.046	0.306
-441.807	-200.000	-0.004	-0.253
-440.792	-150.451	-0.170	-0.017
-439.778	-188.215	0.282	0.005
-438.763	-147.594	-0.155	-0.017
-437.749	341.673	0.085	-0.215
-436.734	216.951	-0.183	-0.377
-435.719	-176.111	-0.417	-0.014
-434.705	25.255	0.066	-0.071
-433.690	-49.133	0.179	0.110
-432.676	-39.032	-0.224	0.151
-431.661	-124.691	0.281	0.056
-430.646	800.000	0.072	0.260
-429.632	-139.711	-0.120	-0.016
-428.617	80.716	-0.176	-0.244
-427.603	342.020	-0.062	0.158
-426.588	-136.261	0.263	-0.039
-425.573	10.563	0.438	0.430
-424.559	631.612	-0.100	0.329
-423.544	143.344	-0.234	0.403
-422.530	39.893	0.202	0.234
-421.515	-46.596	0.345	-0.217
-420.500	177.654	-0.145	0.273
-419.486	-108.541	0.366	-0.101
-418.471	-16.007	0.412	-0.337
-417.457	17.783	0.231	0.237
-416.442	428.399	0.158	-0.441
-415.428	-87.920	-0.455	-0.175
-414.413	-139.415	-0.442	0.060
-413.398	-97.448	-0.442	-0.147
-412.384	-90.232	0.306	-0.114
-411.369	200.532	0.221	-0.438
-410.355	800.000	0.023	-0.123
-409.340	-80.672	0.206	-0.088
-408.325	-83.150	0.470	0.194
-407.311	500.779	0.097	-0.289
-406.296	101.943	0.209	-0.314
-405.282	-18.954	-0.357	-0.286
-404.267	170.713	0.348	-0.644
-403.252	800.000	-0.063	0.255
-402.238	-168.781	-0.230	-0.011
-401.223	800.000	0.117	-0.526
-400.209	219.489	0.209	-0.433
-399.194	-163.811	0.132	0.008
-398.179	46.136	0.364	-0.435
-397.165	-182.991	0.596	-0.013
-396.150	-96.936	0.280	-0.094
-395.136	-50.068	0.672	-0.409
-394.121	-200.000	0.018	-0.553
-393.106	-109.813	0.156	0.042
-392.092	88.784	0.095	-0.136
-391.077	248.978	-0.084	-0.185
-390.063	-56.009	-0.360	-0.206
-389.048	-88.816	-0.234	0.089
-388.033	-200.000	-0.015	0.294
-387.019	-18.416	-0.027	-0.021
-386.004	-181.156	-0.178	0.004
-384.990	57.184	-0.183	-0.229
-383.975	-81.661	-0.128	0.054
-382.960	-121.201	0.562	-0.120
-381.946	19.159	-0.047	-0.049
-380.931	-200.000	0.017	0.359
-379.917	52.481	0.211	0.259
-378.902	-64.251	-0.270	0.141
-377.888	-137.970	0.238	-0.034
-376.873	48.263	0.130	0.157
-375.858	17.395	0.155	0.158
-374.844	-137.671	0.373	0.053
-373.829	55.189	-0.145	-0.181
-372.815	22.285	-0.415	0.436
-371.800	-117.655	-0.273	-0.063
-370.785	735.853	0.028	0.097
-369.771	-47.392	0.204	-0.127
-368.756	-200.000	-0.017	0.345
-367.742	-200.000	0.025	0.523
-366.727	-92.958	0.263	0.094
-365.712	800.000	0.041	0.156
-364.698	-200.000	0.001	0.172
-363.683	26.002	-0.281	-0.301
-362.669	-129.395	0.229	0.040
-361.654	-77.345	0.316	0.140
-360.639	-200.000	-0.029	-0.284
-359.625	800.000	0.120	0.454
-358.610	-106.326	-0.304	0.087
-357.596	191.243	0.140	-0.272
-356.581	247.975	-0.208	-0.454
-355.566	20.534	0.355	-0.369
-354.552	-107.490	-0.345	-0.096
-353.537	77.520	-0.151	-0.207
-352.523	206.978	-0.110	0.221
-351.508	21.341	0.251	0.262
-350.493	466.924	0.144	-0.416
-349.479	298.485	-0.148	-0.352
-348.464	-68.172	-0.249	-0.124
-347.450	260.933	0.093	-0.207
-346.435	444.544	0.072	0.203
-345.420	138.563	-0.387	-0.654
-344.406	800.000	-0.172	-0.633
-343.391	183.644	0.324	0.618
-342.377	-34.411	0.017	-0.012
-341.362	-200.000	0.043	0.318
-340.348	157.445	0.180	-0.321
-339.333	-38.928	-0.537	-0.362
-338.318	-78.876	-0.302	0.132
-337.304	-185.668	0.163	-0.003
-336.289	-109.128	0.269	0.073
-335.275	-200.000	-0.025	-0.278
-334.260	4.121	0.143	0.134
-333.245	92.355	-0.298	0.432
-332.231	-129.104	-0.305	0.054
-331.216	-200.000	0.053	0.000
-330.202	281.522	-0.121	0.279
-329.187	204.816	0.299	0.598
-328.172	-12.725	0.145	0.121
-327.158	-7.369	-0.263	0.229
-326.143	-200.000	-0.002	-0.328
-325.129	-132.967	0.406	-0.066
-324.114	-135.807	-0.074	-0.011
-323.099	-200.000	0.005	-0.152
-322.085	-46.607	0.249	-0.156
-321.070	1.163	0.346	0.319
-320.056	-200.000	-0.029	0.513
-319.041	-200.000	0.034	0.380
-318.026	115.361	0.244	0.383
-317.012	-128.628	0.369	-0.066
-315.997	800.000	0.058	-0.214
-314.983	-31.184	-0.180	0.130
-313.968	800.000	0.070	0.276
-312.953	-52.750	-0.274	-0.162
-311.939	-82.538	-0.426	0.176
-310.924	-61.835	-0.237	0.127
-309.910	80.515	-0.096	0.133
-308.895	-200.000	0.073	-0.510
-307.880	-185.696	0.161	-0.003
-306.866	-66.150	0.090	-0.046
-305.851	96.145	0.204	0.299
-304.837	-186.348	0.107	-0.002
-303.822	-200.000	0.080	0.455
-302.807	-3.196	-0.013	0.012
-301.793	720.678	0.171	0.586
-300.778	188.690	0.258	0.497
-299.764	-200.000	0.062	0.452
-298.749	123.154	0.134	-0.216
-297.735	193.437	-0.099	-0.192
-296.720	-169.630	-0.258	-0.012
-295.705	-4.427	-0.072	0.064
-294.691	91.998	0.226	0.326
-293.676	212.925	-0.088	0.179
-292.662	461.255	-0.110	-0.315
-291.647	-200.000	-0.008	-0.216
-290.632	-39.078	-0.116	0.078
-289.618	-200.000	-0.003	0.040
-288.603	-116.156	-0.220	0.052
-287.589	258.676	0.118	-0.262
-286.574	-61.239	0.175	0.094
-285.559	-143.921	0.380	-0.045
-284.545	-73.157	-0.181	-0.085
-283.530	-24.002	-0.479	-0.366
-282.516	800.000	-0.073	-0.411
-281.501	60.813	0.035	-0.044
-280.486	118.511	-0.087	0.138
-279.472	-77.436	0.441	-0.195
-278.457	203.812	0.080	-0.159
-277.443	34.610	0.251	-0.281
-276.428	-154.088	-0.309	-0.026
-275.413	68.471	-0.209	-0.274
-274.399	-97.096	0.365	-0.122
-273.384	204.554	0.182	-0.362
-272.370	-200.000	-0.109	0.786
-271.355	-200.000	-0.007	0.465
-270.340	95.088	-0.104	0.151
-269.326	-200.000	0.003	-0.140
-268.311	148.426	0.072	-0.124
-267.297	-34.352	0.329	-0.230
-266.282	-29.713	-0.422	0.308
-265.267	-109.177	-0.127	0.034
-264.253	235.437	-0.158	-0.336
-263.238	-164.903	0.311	-0.018
-262.224	210.151	0.067	0.135
-261.209	91.689	-0.319	0.459
-260.195	90.290	-0.346	0.496
-259.180	-77.622	0.288	0.127
-258.165	-52.669	0.702	-0.414
-257.151	-147.482	-0.380	-0.041
-256.136	-200.000	-0.000	0.072
-255.122	-124.801	-0.160	0.031
-254.107	-89.210	0.298	0.112
-253.092	12.824	0.289	0.285
-252.078	553.313	0.170	0.525
-251.063	-46.962	-0.546	0.340
-250.049	-3.846	0.266	0.236
-249.034	433.105	0.143	0.399
-248.019	79.982	-0.167	-0.230
-247.005	-84.470	0.122	-0.049
-245.990	-70.575	0.156	0.075
-244.976	-133.813	-0.139	0.022
-243.961	-123.354	0.213	0.043
-242.946	269.524	0.117	0.263
-241.932	-50.955	0.565	0.338
-240.917	-70.541	0.283	0.136
-239.903	-93.004	-0.440	0.156
-238.888	-53.610	-0.351	-0.205
-237.873	-200.000	-0.015	0.135
-236.859	-30.803	-0.393	0.283
-235.844	-57.050	-0.303	-0.171
-234.830	800.000	-0.156	0.555
-233.815	-128.250	0.423	-0.077
-232.800	-200.000	-0.000	-0.012
-231.786	-200.000	-0.004	0.144
-230.771	54.139	0.567	-0.699
-229.757	54.284	0.383	-0.472
-228.742	-84.655	-0.386	0.155
-227.727	800.000	0.108	-0.437
-226.713	-99.256	0.441	-0.142
-225.698	5.761	-0.083	-0.079
-224.684	-122.940	0.399	-0.081
-223.669	-47.253	0.138	-0.085
-222.655	-55.691	0.591	0.337
-221.640	438.171	-0.058	0.162
-220.625	8.667	-0.272	0.261
-219.611	41.611	-0.174	0.201
-218.596	72.165	0.169	-0.225
-217.582	-177.142	0.590	0.018
-216.567	46.756	0.219	0.260
-215.552	204.989	0.098	-0.195
-214.538	59.648	0.218	-0.276
-213.523	72.456	0.110	-0.147
-212.509	-131.085	-0.499	-0.084
-211.494	-118.360	-0.259	0.058
-210.479	-80.280	0.204	0.087
-209.465	-127.758	-0.607	0.111
-208.450	96.867	-0.227	0.333
-207.436	17.146	-0.341	0.345
-206.421	31.458	0.469	-0.515
-205.406	-54.117	-0.329	-0.191
-204.392	681.708	-0.033	-0.112
-203.377	-200.000	0.023	-0.192
-202.363	-153.720	-0.470	-0.041
-201.348	314.231	-0.085	0.204
-200.333	200.836	0.024	0.047
-199.319	-200.000	-0.029	0.178
-198.304	-39.355	0.333	0.223
-197.290	-26.712	0.378	0.282
-196.275	-44.731	-0.354	-0.225
-195.260	-200.000	-0.046	-0.328
-194.246	8.574	-0.278	-0.267
-193.231	338.899	0.098	0.244
-192.217	-147.156	-0.726	0.078
-191.202	329.190	-0.169	-0.417
-190.187	-75.591	-0.435	0.197
-189.173	158.646	-0.038	0.068
-188.158	-14.096	0.190	0.157
-187.144	-104.822	-0.351	-0.102
-186.129	113.304	-0.132	0.205
-185.114	663.782	-0.161	-0.534
-184.100	-172.353	-0.377	-0.015
-183.085	800.000	0.139	0.563
-182.071	658.965	0.107	-0.354
-181.056	-62.965	-0.256	0.135
-180.042	-158.496	0.232	0.017
-179.027	-200.000	0.145	0.000
-178.012	87.583	-0.218	-0.308
-176.998	-114.978	-0.331	0.080
-175.983	-73.397	0.390	-0.181
-174.969	-24.999	-0.126	0.095
-173.954	109.382	0.075	-0.115
-172.939	-134.289	0.244	0.038
-171.925	-122.316	-0.422	0.087
-170.910	-127.024	0.272	-0.051
-169.896	374.495	0.023	-0.059
-168.881	-155.051	0.384	-0.032
-167.866	367.851	-0.044	-0.115
-166.852	295.341	-0.242	0.566
-165.837	-103.074	0.346	0.104
-164.823	736.103	0.104	0.356
-163.808	-159.043	-0.602	-0.043
-162.793	-200.000	-0.003	-0.164
-161.779	-26.890	-0.405	0.301
-160.764	106.709	0.167	-0.253
-159.750	-89.036	-0.278	-0.105
-158.735	40.966	-0.201	0.231
-157.720	-179.020	0.301	0.008
-156.706	429.957	0.119	0.330
-155.691	6.723	0.384	0.364
-154.677	800.000	-0.071	0.268
-153.662	50.111	0.110	0.132
-152.647	800.000	-0.044	-0.195
-151.633	-44.156	0.025	0.016
-150.618	-129.098	0.582	0.103
-149.604	-120.919	-0.096	-0.020
-148.589	208.112	-0.094	0.188
-147.574	-131.600	-0.126	-0.021
-146.560	-129.798	0.116	-0.020
-145.545	261.543	-0.145	0.321
-144.531	-24.455	-0.232	0.176
-143.516	70.636	-0.053	-0.071
-142.502	51.317	-0.253	-0.307
-141.487	13.543	0.100	-0.098
-140.472	18.674	0.072	-0.073
-139.458	12.420	-0.255	0.251
-138.443	800.000	0.037	0.148
-137.429	-89.634	-0.285	-0.106
-136.414	-15.807	-0.211	0.171
-135.399	-151.972	-0.491	0.045
-134.385	58.864	0.247	0.310
-133.370	-129.267	0.348	0.061
-132.356	116.736	-0.135	-0.211
-131.341	-0.242	0.401	-0.363
-130.326	-132.103	0.107	-0.018
-129.312	-95.155	-0.260	0.089
-128.297	-200.000	0.020	0.537
-127.283	172.481	-0.154	0.283
-126.268	321.117	-0.116	-0.282
-125.253	51.158	-0.187	-0.226
-124.239	-184.439	0.128	-0.003
-123.224	126.971	-0.219	-0.354
-122.210	-122.893	-0.144	0.029
