DTS Sentinel unit serial number:	SN409020Multiplexer serial number:	ORYXHardware model number:	OX4-SRSoftware version number:	ORYX F/W v3.00 Oryx Data Collector v3.7.2.0data status	okinstallation	HaddamTimeLapsedifferential loss correction	single-endedforward channel	channel 3reverse channel	N/Adate	2011/06/22time	08:31:17forward acquisition time	30.00reverse acquisition time	0.00gamma	498.7831k internal	0.1781k external	0.1781temperature offset calibration	1.0074default loss term (dB/km)	0.3790temperature slope calibration	1.3530multiplexer offset coefficient	1.0000multiplexer slope coefficient	1.0000fibre end	0.00T internal ref (°C)	25.87T ext. ref 1 (°C)	23.57T ext. ref 2 (°C)	0.17length (m)	temperature (°C)	Stokes	anti-Stokes-747.200	108.622	-0.147	0.229
-746.185	171.317	0.263	0.495
-745.171	325.491	-0.173	0.433
-744.156	607.700	-0.113	0.369
-743.142	-165.147	-0.438	-0.025
-742.127	584.502	-0.209	0.675
-741.112	-81.968	0.344	-0.146
-740.098	483.820	-0.082	0.246
-739.083	113.450	-0.318	-0.506
-738.069	84.402	-0.240	-0.343
-737.054	342.098	0.214	-0.549
-736.039	358.418	-0.084	-0.221
-735.025	-17.142	-0.214	0.176
-734.010	-54.042	0.337	0.200
-732.996	18.499	-0.356	-0.371
-731.981	-200.000	-0.055	-0.325
-730.966	-78.389	-0.050	0.022
-729.952	-200.000	-0.018	-0.168
-728.937	800.000	-0.025	-0.117
-727.923	19.504	-0.123	-0.129
-726.908	-200.000	-0.021	-0.138
-725.894	-81.566	0.123	-0.052
-724.879	-69.609	-0.389	-0.194
-723.864	447.865	0.061	0.175
-722.850	131.667	0.181	-0.304
-721.835	-63.901	0.306	0.163
-720.821	-200.000	0.014	-0.275
-719.806	49.774	-0.086	0.106
-718.791	800.000	-0.025	0.139
-717.777	184.984	-0.114	-0.221
-716.762	722.347	0.091	-0.319
-715.748	-83.626	0.209	0.087
-714.733	-103.306	-0.511	0.156
-713.718	-200.000	-0.010	0.131
-712.704	157.664	-0.098	-0.178
-711.689	428.562	0.103	0.293
-710.675	450.951	-0.102	0.295
-709.660	800.000	0.030	0.123
-708.645	-97.112	0.175	0.059
-707.631	589.081	-0.126	0.406
-706.616	-200.000	0.029	0.230
-705.602	800.000	0.029	0.129
-704.587	800.000	-0.106	0.608
-703.572	7.292	0.265	0.258
-702.558	-91.624	0.155	-0.057
-701.543	-48.808	0.856	0.534
-700.529	-75.995	-0.229	-0.105
-699.514	-155.899	0.638	0.052
-698.499	510.483	0.087	0.266
-697.485	-168.755	0.374	0.018
-696.470	13.675	0.227	0.230
-695.456	782.180	0.014	-0.051
-694.441	-143.282	0.646	-0.080
-693.426	-176.607	0.837	-0.028
-692.412	800.000	0.142	-0.543
-691.397	-200.000	0.052	0.364
-690.383	-200.000	-0.028	0.235
-689.368	-51.273	0.247	0.150
-688.354	-108.451	0.057	0.016
-687.339	29.435	-0.161	-0.179
-686.324	-15.177	-0.149	0.124
-685.310	-153.505	0.312	0.028
-684.295	-80.403	-0.207	-0.090
-683.281	191.448	-0.180	-0.354
-682.266	-24.817	0.081	0.063
-681.251	-200.000	0.020	-0.216
-680.237	658.890	0.095	0.320
-679.222	688.173	-0.133	-0.457
-678.208	523.372	0.185	-0.569
-677.193	-46.629	-0.315	-0.200
-676.178	161.371	-0.227	-0.415
-675.164	156.889	-0.115	-0.207
-674.149	-149.920	-0.563	-0.057
-673.135	-200.000	0.023	-0.164
-672.120	178.971	-0.162	-0.310
-671.105	-200.000	-0.014	-0.389
-670.091	-82.072	-0.305	0.129
-669.076	207.037	0.113	-0.231
-668.062	579.196	0.129	-0.413
-667.047	-15.332	0.227	-0.188
-666.032	-33.781	0.296	0.212
-665.018	-40.257	-0.269	-0.182
-664.003	-42.468	-0.040	0.027
-662.989	36.360	-0.037	-0.043
-661.974	33.545	-0.118	-0.133
-660.959	-121.462	-0.058	-0.012
-659.945	-20.546	-0.378	0.302
-658.930	-55.388	0.344	-0.200
-657.916	-63.664	-0.359	-0.191
-656.901	-96.969	0.361	0.123
-655.886	-98.142	0.310	-0.103
-654.872	-87.086	-0.183	-0.072
-653.857	-12.757	-0.222	-0.188
-652.843	-27.513	-0.353	-0.266
-651.828	800.000	-0.065	0.303
-650.814	-6.553	0.171	-0.152
-649.799	-65.052	-0.308	0.161
-648.784	-61.930	0.472	0.256
-647.770	-61.175	-0.581	0.318
-646.755	-88.284	-0.332	0.128
-645.741	-99.806	-0.228	-0.074
-644.726	-114.610	0.138	0.034
-643.711	138.435	-0.146	0.250
-642.697	-31.530	-0.265	-0.194
-641.682	-163.705	0.542	0.033
-640.668	-124.702	0.436	-0.087
-639.653	-40.508	-0.192	0.129
-638.638	-88.821	-0.245	0.094
-637.624	83.074	0.262	0.372
-636.609	17.235	0.271	0.279
-635.595	129.290	-0.084	-0.140
-634.580	-147.645	0.355	-0.038
-633.565	599.315	0.186	0.604
-632.551	72.171	0.483	-0.655
-631.536	116.174	0.119	-0.190
-630.522	22.566	-0.136	-0.144
-629.507	8.216	-0.208	0.203
-628.492	-25.964	0.188	-0.143
-627.478	-200.000	-0.021	0.280
-626.463	51.809	0.181	-0.224
-625.449	263.130	0.106	0.241
-624.434	143.865	0.119	0.207
-623.419	377.977	-0.067	-0.178
-622.405	-179.250	-0.250	0.007
-621.390	-108.932	-0.318	-0.088
-620.376	151.581	0.351	0.623
-619.361	-60.936	-0.544	0.298
-618.346	-200.000	0.021	0.847
-617.332	-200.000	0.002	0.597
-616.317	499.087	-0.153	0.461
-615.303	673.732	-0.100	0.339
-614.288	62.577	-0.457	0.594
-613.273	-200.000	-0.032	0.296
-612.259	-67.430	-0.382	-0.194
-611.244	-200.000	-0.049	-0.423
-610.230	-80.981	-0.311	-0.133
-609.215	13.453	-0.171	-0.173
-608.201	-102.474	0.229	-0.071
-607.186	-135.973	-0.376	0.057
-606.171	800.000	0.086	0.319
-605.157	1.709	0.351	0.328
-604.142	20.927	-0.298	0.314
-603.128	163.228	-0.133	0.243
-602.113	17.053	-0.072	-0.074
-601.098	-18.871	0.144	-0.116
-600.084	800.000	-0.057	-0.309
-599.069	736.025	-0.060	-0.211
-598.055	459.388	-0.024	0.070
-597.040	668.499	0.216	-0.729
-596.025	-124.709	0.286	0.057
-595.011	62.122	-0.097	0.126
-593.996	-200.000	0.007	-0.471
-592.982	-200.000	0.010	0.158
-591.967	800.000	-0.110	-0.472
-590.952	-66.824	-0.681	0.348
-589.938	-0.921	0.052	-0.048
-588.923	-11.926	-0.358	0.305
-587.909	23.281	-0.383	0.408
-586.894	223.025	0.158	0.332
-585.879	124.515	-0.343	0.562
-584.865	274.501	-0.210	0.485
-583.850	1.928	-0.237	0.222
-582.836	299.024	-0.165	-0.395
-581.821	-95.548	0.919	0.318
-580.806	800.000	-0.058	0.316
-579.792	279.552	-0.171	-0.397
-578.777	-146.613	-0.330	-0.037
-577.763	85.429	-0.400	0.571
-576.748	-41.833	0.251	-0.167
-575.733	-83.705	0.542	0.223
-574.719	-62.752	-0.204	0.109
-573.704	249.119	0.256	-0.565
-572.690	0.859	-0.405	-0.376
-571.675	-200.000	-0.034	-0.256
-570.661	-13.054	0.042	0.035
-569.646	-35.641	0.395	-0.277
-568.631	-86.306	0.202	-0.080
-567.617	25.768	0.141	0.153
-566.602	-34.519	-0.356	-0.252
-565.588	-37.721	0.288	0.198
-564.573	-200.000	-0.096	0.624
-563.558	-46.158	-0.104	-0.066
-562.544	202.306	-0.118	0.238
-561.529	-146.465	0.439	0.049
-560.515	-12.036	0.038	0.032
-559.500	-58.527	0.189	0.106
-558.485	49.729	0.301	0.368
-557.471	630.542	0.095	0.313
-556.456	-176.794	-0.517	0.017
-555.442	-141.467	0.381	-0.049
-554.427	-28.334	0.169	0.126
-553.412	409.173	0.172	-0.475
-552.398	-62.770	0.418	-0.224
-551.383	69.166	-0.238	-0.318
-550.369	12.959	0.141	-0.141
-549.354	-200.000	-0.010	0.362
-548.339	114.604	0.226	0.357
-547.325	-35.009	0.272	-0.192
-546.310	-51.590	-0.331	0.199
-545.296	-200.000	0.041	-0.421
-544.281	-144.616	0.403	0.048
-543.266	-112.362	-0.510	-0.131
-542.252	-198.032	-0.031	-0.000
-541.237	-77.697	0.563	0.251
-540.223	800.000	-0.050	-0.241
-539.208	-140.704	-0.711	0.094
-538.193	42.795	0.134	-0.158
-537.179	-149.058	0.272	0.028
-536.164	-4.968	0.197	0.176
-535.150	-38.884	0.571	0.389
-534.135	800.000	-0.056	-0.230
-533.121	225.193	0.184	0.387
-532.106	-144.802	0.477	0.056
-531.091	-200.000	-0.004	-0.440
-530.077	214.595	0.144	-0.296
-529.062	144.338	-0.273	0.474
-528.048	800.000	0.060	-0.225
-527.033	495.943	-0.061	-0.183
-526.018	313.116	-0.089	-0.217
-525.004	195.388	0.174	-0.344
-523.989	-55.297	-0.176	0.102
-522.975	173.334	0.200	-0.374
-521.960	-105.686	0.213	0.062
-520.945	84.799	0.246	-0.349
-519.931	-86.932	-0.275	-0.108
-518.916	45.650	-0.321	-0.384
-517.902	782.728	0.149	-0.531
-516.887	-90.785	-0.231	-0.086
-515.872	413.155	-0.108	0.300
-514.858	-132.985	-0.703	-0.114
-513.843	-102.378	-0.210	0.065
-512.829	8.797	0.426	0.416
-511.814	-200.000	0.033	0.392
-510.799	0.486	-0.362	-0.334
-509.785	-104.184	0.349	-0.104
-508.770	-34.834	0.264	-0.186
-507.756	6.084	-0.290	-0.278
-506.741	-57.652	0.075	0.042
-505.726	-161.241	0.121	0.008
-504.712	204.933	-0.139	-0.281
-503.697	-92.543	0.193	0.070
-502.683	-151.203	0.809	0.077
-501.668	-111.956	0.277	-0.072
-500.653	16.854	-0.218	-0.223
-499.639	-200.000	-0.028	-0.241
-498.624	-150.082	0.239	0.024
-497.610	-18.693	-0.221	0.178
-496.595	75.587	-0.200	0.274
-495.581	-54.180	0.449	0.263
-494.566	185.037	-0.111	0.213
-493.551	-11.840	-0.380	-0.322
-492.537	-56.007	0.194	-0.112
-491.522	28.756	-0.107	-0.117
-490.508	35.588	-0.339	0.386
-489.493	447.732	0.063	0.180
-488.478	399.144	-0.109	0.296
-487.464	177.429	0.177	0.335
-486.449	-50.318	0.209	0.128
-485.435	-71.476	0.610	-0.294
-484.420	-11.125	-0.122	0.104
-483.405	116.196	0.153	0.243
-482.391	-57.883	-0.363	0.205
-481.376	-124.007	-0.278	-0.056
-480.362	-7.655	-0.140	-0.123
-479.347	55.416	-0.105	-0.131
-478.332	-200.000	-0.010	0.140
-477.318	800.000	-0.071	-0.334
-476.303	234.994	-0.072	0.154
-475.289	576.895	-0.280	0.891
-474.274	92.998	-0.485	0.709
-473.259	-182.180	-0.239	-0.006
-472.245	43.433	-0.368	0.434
-471.230	-86.924	-0.395	0.155
-470.216	178.352	-0.054	-0.103
-469.201	-200.000	-0.044	0.352
-468.186	58.011	-0.180	0.228
-467.172	-17.816	-0.204	-0.165
-466.157	-200.000	0.042	-0.680
-465.143	-93.703	0.067	-0.024
-464.128	209.770	0.043	-0.087
-463.113	-154.557	0.748	0.064
-462.099	-6.550	0.270	0.237
-461.084	800.000	-0.095	-0.510
-460.070	-70.041	-0.245	0.120
-459.055	800.000	0.088	0.338
-458.040	-86.369	0.228	-0.090
-457.026	-56.729	-0.199	-0.113
-456.011	-107.578	-0.329	-0.092
-454.997	800.000	-0.106	0.441
-453.982	-200.000	0.017	0.377
-452.968	171.533	0.067	0.125
-451.953	-23.139	-0.352	-0.273
-450.938	-200.000	0.035	-0.256
-449.924	-133.074	0.474	-0.077
-448.909	800.000	-0.126	-0.509
-447.895	70.585	0.145	0.194
-446.880	-134.583	0.205	0.032
-445.865	-31.190	-0.280	-0.203
-444.851	-200.000	0.082	0.537
-443.836	172.910	-0.057	0.106
-442.822	-200.000	0.001	0.207
-441.807	-42.702	-0.073	-0.048
-440.792	43.930	0.320	-0.379
-439.778	-12.079	-0.195	-0.165
-438.763	269.638	0.202	-0.460
-437.749	45.058	-0.360	0.428
-436.734	-23.327	0.289	0.224
-435.719	-43.871	-0.187	-0.121
-434.705	77.667	-0.143	0.197
-433.690	800.000	0.067	-0.263
-432.676	-10.784	0.217	-0.185
-431.661	-200.000	0.018	-0.401
-430.646	355.508	0.205	-0.529
-429.632	-110.683	-0.072	-0.019
-428.617	224.580	0.073	-0.153
-427.603	-156.229	0.078	0.006
-426.588	-106.899	-0.361	-0.102
-425.573	800.000	-0.031	0.124
-424.559	210.802	0.084	-0.172
-423.544	616.107	-0.115	-0.375
-422.530	-59.191	0.217	-0.120
-421.515	565.516	0.147	0.463
-420.500	-89.900	0.219	-0.082
-419.486	705.097	-0.164	-0.561
-418.471	800.000	-0.160	-0.753
-417.457	-21.388	-0.360	-0.283
-416.442	181.712	-0.126	0.239
-415.428	159.406	0.118	-0.213
-414.413	107.541	0.096	-0.147
-413.398	-17.340	0.344	-0.279
-412.384	387.367	-0.215	-0.575
-411.369	-200.000	-0.029	0.443
-410.355	-25.097	0.044	0.034
-409.340	-51.225	0.549	-0.331
-408.325	-200.000	-0.007	0.087
-407.311	-137.749	-0.288	0.041
-406.296	-64.577	-0.230	-0.120
-405.282	56.591	0.098	-0.123
-404.267	-140.928	0.494	0.065
-403.252	159.048	0.116	0.209
-402.238	-67.031	-0.184	0.093
-401.223	-200.000	0.014	0.236
-400.209	-96.023	-0.337	0.115
-399.194	87.926	0.127	0.181
-398.179	-120.919	0.113	-0.024
-397.165	-36.394	-0.151	-0.104
-396.150	373.898	-0.028	0.074
-395.136	270.723	0.211	0.480
-394.121	-91.449	0.326	-0.119
-393.106	17.711	0.147	-0.151
-392.092	-124.714	-0.224	-0.044
-391.077	446.415	-0.161	-0.458
-390.063	-86.027	-0.408	-0.161
-389.048	41.735	0.100	-0.117
-388.033	159.304	-0.149	0.268
-387.019	-141.070	-0.544	-0.071
-386.004	136.517	-0.089	0.149
-384.990	-164.546	0.366	0.021
-383.975	-200.000	0.017	-0.178
-382.960	9.267	-0.045	-0.043
-381.946	-5.527	-0.146	-0.129
-380.931	125.104	-0.231	0.376
-379.917	-176.819	0.490	0.016
-378.902	-200.000	-0.006	-0.428
-377.888	-52.397	0.403	0.239
-376.873	0.727	-0.111	0.102
-375.858	-200.000	-0.007	0.119
-374.844	363.426	0.184	0.478
-373.829	800.000	-0.114	-0.408
-372.815	262.576	-0.188	-0.423
-371.800	-166.653	0.515	-0.027
-370.785	-30.633	-0.129	-0.094
-369.771	800.000	0.067	0.282
-368.756	-134.487	0.325	0.051
-367.742	-115.227	0.487	-0.118
-366.727	-16.891	0.275	0.224
-365.712	-146.867	-0.156	0.017
-364.698	326.178	0.136	-0.335
-363.683	-68.003	-0.580	-0.290
-362.669	-160.413	-0.198	-0.014
-361.654	-28.251	-0.122	-0.090
-360.639	-55.783	-0.184	0.106
-359.625	-190.293	0.243	-0.003
-358.610	-44.756	0.245	-0.157
-357.596	-172.241	0.140	-0.006
-356.581	-200.000	-0.039	0.316
-355.566	-89.783	-0.420	-0.157
-354.552	165.945	0.099	0.180
-353.537	-34.131	-0.212	0.149
-352.523	-200.000	0.044	0.426
-351.508	59.210	0.094	0.119
-350.493	-200.000	0.053	0.404
-349.479	-0.263	-0.199	-0.182
-348.464	446.572	0.010	0.028
-347.450	-25.903	0.228	-0.172
-346.435	-109.608	-0.518	0.140
-345.420	-38.426	0.338	0.229
-344.406	-129.841	-0.408	-0.071
-343.391	526.441	-0.083	0.254
-342.377	-52.387	-0.193	0.114
-341.362	115.858	-0.080	-0.126
-340.348	800.000	-0.046	-0.226
-339.333	-200.000	-0.033	-0.273
-338.318	25.205	0.074	0.079
-337.304	-64.367	-0.492	-0.257
-336.289	-165.957	0.155	-0.008
-335.275	85.380	0.122	-0.173
-334.260	-35.453	-0.220	0.153
-333.245	-116.206	-0.270	0.064
-332.231	291.532	-0.030	0.070
-331.216	302.070	-0.109	0.261
-330.202	133.732	0.260	0.434
-329.187	-0.859	0.315	0.286
-328.172	-117.047	-0.145	0.034
-327.158	800.000	-0.063	-0.290
-326.143	205.714	0.059	0.119
-325.129	-139.723	0.386	-0.052
-324.114	223.687	0.188	-0.392
-323.099	21.162	0.273	-0.284
-322.085	120.629	0.099	0.158
-321.070	-199.933	0.385	0.002
-320.056	20.420	-0.283	-0.294
-319.041	-34.191	0.154	-0.109
-318.026	-36.097	-0.684	0.474
-317.012	-200.000	-0.028	0.550
-315.997	-200.000	-0.005	-0.363
-314.983	66.687	0.172	-0.225
-313.968	-142.561	0.345	0.043
-312.953	4.700	0.320	0.301
-311.939	-15.991	0.212	-0.173
-310.924	800.000	-0.060	-0.244
-309.910	-23.653	-0.148	0.113
-308.895	-46.857	0.427	-0.268
-307.880	-169.002	-0.314	0.015
-306.866	186.025	0.175	0.336
-305.851	-200.000	0.158	-0.000
-304.837	106.700	0.248	-0.379
-303.822	42.956	0.131	0.154
-302.807	99.120	0.096	0.142
-301.793	-200.000	0.005	0.129
-300.778	106.989	-0.093	-0.143
-299.764	-200.000	-0.015	-0.281
-298.749	-200.000	-0.023	-0.196
-297.735	800.000	-0.091	-0.417
-296.720	204.970	0.183	-0.367
-295.705	-78.184	0.222	0.098
-294.691	-79.939	0.271	0.116
-293.676	-200.000	-0.029	-0.293
-292.662	-200.000	-0.048	0.473
-291.647	-91.901	-0.477	0.172
-290.632	-200.000	0.042	-0.472
-289.618	-51.751	0.424	0.253
-288.603	-200.000	0.005	0.328
-287.589	224.129	-0.145	0.303
-286.574	93.575	0.100	0.145
-285.559	-30.334	-0.214	-0.155
-284.545	-121.417	-0.646	-0.137
-283.530	800.000	-0.077	-0.359
-282.516	-33.454	0.513	-0.363
-281.501	-34.218	-0.214	0.151
-280.486	-15.269	-0.380	-0.311
-279.472	29.118	-0.254	-0.277
-278.457	-109.498	0.292	-0.079
-277.443	-60.200	-0.239	-0.130
-276.428	99.698	-0.123	-0.183
-275.413	800.000	-0.196	-0.760
-274.399	97.556	0.309	0.456
-273.384	273.378	0.118	-0.267
-272.370	255.650	-0.135	0.298
-271.355	134.568	0.083	0.138
-270.340	-118.740	0.308	-0.069
-269.326	-16.179	-0.256	-0.209
-268.311	-103.008	-0.128	0.039
-267.297	-43.238	-0.410	-0.265
-266.282	-113.540	0.278	0.069
-265.267	80.126	0.178	0.245
-264.253	443.618	-0.073	0.207
-263.238	311.794	-0.055	-0.134
-262.224	-125.889	0.239	-0.046
-261.209	64.571	-0.072	-0.093
-260.195	134.269	0.242	-0.404
-259.180	635.877	0.144	0.473
-258.165	88.119	0.374	0.533
-257.151	-133.976	0.297	-0.047
-256.136	-73.290	0.227	0.106
-255.122	-127.973	0.252	-0.046
-254.107	42.714	0.066	0.077
-253.092	800.000	0.094	-0.371
-252.078	-200.000	0.622	0.003
-251.063	384.420	-0.113	0.300
-250.049	-71.383	-0.581	-0.278
-249.034	-113.423	0.235	-0.059
-248.019	172.300	-0.121	0.223
-247.005	20.847	0.066	-0.069
-245.990	-17.510	-0.036	-0.029
-244.976	60.884	-0.168	-0.213
-243.961	324.525	-0.041	0.101
-242.946	550.289	-0.110	0.339
-241.932	-68.146	-0.320	0.159
-240.917	-101.052	-0.250	0.078
-239.903	36.457	-0.200	-0.226
-238.888	-76.319	-0.164	-0.073
-237.873	-112.676	-0.254	0.064
-236.859	41.587	0.132	0.153
-235.844	-23.422	-0.233	0.179
-234.830	-157.167	0.054	-0.004
-233.815	-200.000	-0.029	-0.316
-232.800	-106.037	-0.236	0.068
-231.786	33.455	0.032	-0.036
-230.771	-200.000	0.011	-0.457
-229.757	-87.479	-0.256	-0.099
-228.742	340.169	-0.150	0.376
-227.727	-156.349	-0.295	-0.023
-226.713	-94.387	-0.459	0.160
-225.698	-200.000	-0.168	-0.000
-224.684	-148.718	0.279	0.029
-223.669	-130.049	-0.017	-0.003
-222.655	-119.049	0.371	-0.082
-221.640	-200.000	-0.004	-0.547
-220.625	-9.888	0.104	0.089
-219.611	-200.000	-0.003	-0.097
-218.596	-173.498	-0.083	-0.003
-217.582	-200.000	0.011	-0.112
-216.567	16.485	-0.122	-0.123
-215.552	-53.195	-0.273	-0.160
-214.538	259.872	-0.059	0.130
-213.523	-191.629	-0.206	0.003
-212.509	438.468	-0.023	0.063
-211.494	-93.792	-0.054	-0.019
-210.479	-200.000	-0.025	-0.436
-209.465	407.022	-0.177	-0.481
-208.450	-200.000	0.084	-0.483
-207.436	-1.922	0.449	0.403
-206.421	800.000	0.021	-0.082
-205.406	83.184	-0.282	-0.393
-204.392	-200.000	-0.033	-0.187
-203.377	-63.398	-0.604	-0.317
-202.363	-109.691	-0.233	0.062
-201.348	-157.871	-0.420	-0.031
-200.333	91.243	0.068	0.098
-199.319	-200.000	0.012	0.246
-198.304	11.486	0.217	0.212
-197.290	-200.000	0.009	0.236
-196.275	-167.770	-0.239	-0.012
-195.260	161.896	-0.111	0.199
-194.246	-6.046	0.132	-0.115
-193.231	18.779	-0.276	0.283
-192.217	16.165	-0.298	-0.301
-191.202	90.536	-0.024	0.034
-190.187	-62.669	0.325	-0.171
-189.173	14.954	0.078	0.078
-188.158	-31.899	0.350	0.250
-187.144	-20.808	0.241	-0.188
-186.129	-111.963	-0.167	-0.043
-185.114	199.482	0.070	0.137
-184.100	526.760	-0.038	0.114
-183.085	372.156	0.013	-0.033
-182.071	-145.404	-0.087	-0.010
-181.056	-198.635	-0.245	-0.002
-180.042	-29.788	0.276	0.201
-179.027	-121.899	0.412	0.086
-178.012	-93.972	0.067	0.024
-176.998	291.495	0.061	-0.143
-175.983	-104.294	0.293	0.086
-174.969	-200.000	0.035	-0.346
-173.954	800.000	-0.117	-0.606
-172.939	469.113	0.103	-0.297
-171.925	-38.876	0.131	-0.088
-170.910	-56.511	0.093	0.052
-169.896	-85.656	-0.290	-0.115
-168.881	372.466	0.101	0.263
-167.866	191.801	-0.160	-0.309
-166.852	94.494	0.104	-0.150
-165.837	159.808	0.039	-0.070
-164.823	-49.719	0.254	-0.154
-163.808	341.479	-0.133	0.335
-162.793	-8.260	-0.362	0.311
-161.779	-9.120	0.225	0.192
-160.764	-142.747	0.243	-0.030
-159.750	-18.871	0.336	-0.267
-158.735	718.971	-0.161	-0.550
-157.720	-200.000	0.071	-0.519
-156.706	800.000	-0.051	0.213
-155.691	-110.692	0.460	0.121
-154.677	346.109	0.172	0.432
-153.662	76.971	0.287	0.389
-152.647	95.347	0.057	-0.083
-151.633	-59.924	0.262	0.142
-150.618	-136.077	-0.343	0.051
-149.604	-122.649	0.499	0.102
-148.589	-200.000	-0.013	0.171
-147.574	209.625	0.268	-0.539
-146.560	-200.000	0.020	0.235
-145.545	-174.036	-0.175	-0.006
-144.531	518.526	-0.097	-0.293
-143.516	493.188	-0.162	-0.475
-142.502	-119.286	-0.266	0.059
-141.487	-67.738	0.476	0.237
-140.472	93.013	0.108	0.155
-139.458	-0.247	0.318	0.289
-138.443	19.824	0.109	0.112
-137.429	-87.475	-0.316	-0.121
-136.414	800.000	-0.086	-0.392
-135.399	-63.860	0.264	-0.137
-134.385	-58.025	0.282	-0.156
-133.370	564.561	-0.152	-0.472
-132.356	-63.371	0.246	-0.129
-131.341	-68.029	0.084	0.042
-130.326	600.709	-0.059	0.188
-129.312	11.087	0.102	0.100
-128.297	165.864	0.247	-0.448
-127.283	-125.935	0.424	0.081
-126.268	-168.560	-0.205	0.010
-125.253	800.000	0.005	0.020
-124.239	-46.709	-0.333	-0.207
-123.224	-140.389	0.498	0.066
-122.210	-53.171	-0.360	-0.210
-121.195	-62.383	0.347	0.184
