DTS Sentinel unit serial number:	SN409020Multiplexer serial number:	ORYXHardware model number:	OX4-SRSoftware version number:	ORYX F/W v3.00 Oryx Data Collector v3.7.2.0data status	okinstallation	HaddamTimeLapsedifferential loss correction	single-endedforward channel	channel 3reverse channel	N/Adate	2011/06/21time	13:41:17forward acquisition time	30.00reverse acquisition time	0.00gamma	498.7831k internal	0.1814k external	0.1814temperature offset calibration	1.0074default loss term (dB/km)	0.3790temperature slope calibration	1.3530multiplexer offset coefficient	1.0000multiplexer slope coefficient	1.0000fibre end	0.00T internal ref (°C)	34.97T ext. ref 1 (°C)	30.18T ext. ref 2 (°C)	0.22length (m)	temperature (°C)	Stokes	anti-Stokes-747.200	62.740	-0.150	-0.193
-746.185	-123.812	-0.457	0.092
-745.171	-132.541	-0.651	0.106
-744.156	111.562	-0.097	0.150
-743.142	-200.000	0.019	0.405
-742.127	168.820	-0.122	0.224
-741.112	800.000	-0.032	-0.158
-740.098	113.186	-0.093	0.145
-739.083	-14.803	-0.204	-0.167
-738.069	138.557	0.107	-0.180
-737.054	-66.077	0.427	-0.217
-736.039	-200.000	-0.029	0.204
-735.025	-5.345	-0.384	0.338
-734.010	315.287	-0.192	-0.466
-732.996	-39.015	0.104	-0.070
-731.981	-148.877	0.254	-0.026
-730.966	-149.777	0.250	0.025
-729.952	800.000	-0.079	0.323
-728.937	11.673	0.112	0.110
-727.923	-87.493	-0.610	-0.235
-726.908	-21.439	-0.239	0.186
-725.894	-200.000	-0.052	0.370
-724.879	-12.841	0.126	-0.105
-723.864	81.357	0.211	-0.292
-722.850	-63.822	0.154	0.081
-721.835	341.996	0.106	-0.268
-720.821	173.008	-0.311	-0.575
-719.806	-69.435	-0.236	0.116
-718.791	745.472	-0.084	0.292
-717.777	165.065	-0.208	0.378
-716.762	800.000	-0.140	0.672
-715.748	-178.813	0.306	0.009
-714.733	-200.000	0.012	-0.406
-713.718	67.663	0.271	0.355
-712.704	-141.828	-0.188	0.024
-711.689	-96.331	0.654	0.220
-710.675	16.567	0.081	-0.082
-709.660	-75.174	-0.022	-0.010
-708.645	-41.612	0.445	0.292
-707.631	326.873	-0.207	-0.509
-706.616	464.062	-0.150	-0.431
-705.602	-200.000	-0.111	-0.659
-704.587	12.254	-0.175	-0.172
-703.572	-200.000	-0.043	-0.352
-702.558	-109.481	-0.351	0.094
-701.543	114.280	0.150	-0.234
-700.529	-200.000	-0.006	0.037
-699.514	-2.431	-0.127	0.113
-698.499	-200.000	-0.033	-0.316
-697.485	60.742	-0.129	-0.164
-696.470	300.250	0.042	-0.099
-695.456	-74.624	0.360	-0.165
-694.441	74.331	-0.298	-0.401
-693.426	-81.254	-0.284	0.119
-692.412	-56.264	-0.206	0.117
-691.397	68.933	0.148	0.194
-690.383	-200.000	-0.009	0.278
-689.368	265.462	-0.048	0.107
-688.354	-83.007	-0.207	-0.085
-687.339	457.028	0.109	0.310
-686.324	45.006	-0.277	0.327
-685.310	730.340	-0.157	0.541
-684.295	587.324	-0.083	-0.262
-683.281	72.659	-0.012	0.016
-682.266	-30.485	0.353	0.256
-681.251	48.480	-0.193	0.232
-680.237	154.551	0.168	-0.296
-679.222	-139.054	-0.272	0.037
-678.208	-200.000	-0.035	0.364
-677.193	-95.875	0.151	-0.051
-676.178	-91.238	-0.299	-0.109
-675.164	-13.350	-0.152	0.126
-674.149	293.288	0.162	0.379
-673.135	-5.707	0.258	-0.226
-672.120	-73.233	0.292	-0.136
-671.105	368.005	0.043	0.111
-670.091	-60.335	0.626	0.340
-669.076	-132.673	0.089	0.015
-668.062	-47.233	-0.200	0.124
-667.047	-28.393	0.433	-0.319
-666.032	-110.709	-0.239	-0.063
-665.018	-87.373	0.162	0.063
-664.003	-200.000	-0.043	0.508
-662.989	-200.000	0.034	0.237
-661.974	-30.022	0.183	-0.133
-660.959	-14.658	-0.210	0.173
-659.945	20.219	-0.126	0.130
-658.930	42.159	0.380	0.442
-657.916	-117.706	0.476	0.109
-656.901	-96.968	0.303	-0.101
-655.886	-51.461	-0.199	0.118
-654.872	-87.957	-0.619	-0.236
-653.857	-200.000	0.015	0.502
-652.843	102.898	-0.101	0.152
-651.828	-24.795	-0.553	0.419
-650.814	-200.000	0.038	-0.322
-649.799	-47.588	0.101	0.062
-648.784	391.136	0.149	-0.398
-647.770	-37.054	0.246	0.168
-646.755	-144.283	0.095	-0.011
-645.741	7.096	-0.280	-0.267
-644.726	-74.445	-0.133	0.061
-643.711	623.351	-0.092	-0.299
-642.697	-6.664	0.254	-0.221
-641.682	-101.754	0.142	-0.044
-640.668	407.743	-0.077	-0.208
-639.653	59.672	-0.174	0.220
-638.638	223.714	0.075	0.155
-637.624	103.798	0.195	-0.292
-636.609	-200.000	-0.012	-0.303
-635.595	579.773	0.078	-0.244
-634.580	-200.000	0.034	0.343
-633.565	-171.859	0.252	0.010
-632.551	179.762	-0.272	0.511
-631.536	123.868	0.201	0.323
-630.522	-125.248	0.355	-0.069
-629.507	-200.000	-0.038	-0.246
-628.492	800.000	-0.028	-0.116
-627.478	-200.000	-0.065	0.436
-626.463	-152.381	-0.365	-0.033
-625.449	-200.000	-0.027	-0.332
-624.434	-15.849	-0.199	0.162
-623.419	-42.145	0.231	-0.151
-622.405	1.279	0.173	-0.158
-621.390	-200.000	0.049	0.561
-620.376	87.842	0.206	-0.292
-619.361	-60.472	0.104	0.056
-618.346	-21.982	-0.377	-0.292
-617.332	-200.000	-0.016	0.208
-616.317	-58.167	-0.389	-0.215
-615.303	342.654	-0.085	-0.213
-614.288	-69.452	0.156	-0.076
-613.273	-24.945	-0.375	-0.283
-612.259	136.573	0.247	-0.413
-611.244	-200.000	-0.021	0.262
-610.230	-64.182	-0.160	0.083
-609.215	58.129	0.107	-0.134
-608.201	-4.507	-0.391	-0.344
-607.186	-38.322	0.267	-0.180
-606.171	283.024	0.135	-0.310
-605.157	319.470	0.070	-0.171
-604.142	332.475	0.093	0.231
-603.128	85.518	0.244	-0.342
-602.113	-200.000	0.071	-0.488
-601.098	63.316	0.163	0.208
-600.084	66.311	-0.150	-0.195
-599.069	94.615	-0.198	-0.287
-598.055	-37.069	-0.272	-0.185
-597.040	-77.324	0.161	0.071
-596.025	77.500	0.200	-0.271
-595.011	-79.615	-0.482	-0.206
-593.996	-141.920	-0.331	0.042
-592.982	-31.165	-0.532	-0.381
-591.967	154.801	0.159	0.279
-590.952	-200.000	0.072	-0.519
-589.938	800.000	-0.178	-0.651
-588.923	440.405	-0.116	-0.326
-587.909	75.963	-0.262	-0.353
-586.894	347.699	-0.080	-0.203
-585.879	-113.337	0.592	0.147
-584.865	649.010	0.111	0.365
-583.850	-200.000	-0.033	0.401
-582.836	-72.826	0.311	-0.145
-581.821	5.148	0.385	0.361
-580.806	159.923	-0.173	-0.307
-579.792	188.512	0.112	0.213
-578.777	65.229	-0.220	0.284
-577.763	-200.000	-0.021	0.196
-576.748	-200.000	-0.020	0.216
-575.733	-35.096	-0.070	-0.048
-574.719	-63.463	0.294	0.153
-573.704	607.978	0.103	0.330
-572.690	-35.706	0.118	0.081
-571.675	-2.380	-0.035	-0.031
-570.661	59.127	-0.067	0.085
-569.646	121.273	0.348	-0.553
-568.631	-67.187	0.745	0.372
-567.617	366.606	0.096	-0.249
-566.602	-138.648	0.249	0.034
-565.588	-200.000	0.006	0.310
-564.573	800.000	0.058	-0.231
-563.558	182.392	0.101	-0.191
-562.544	800.000	0.011	-0.048
-561.529	-84.092	-0.327	-0.131
-560.515	-200.000	0.039	0.229
-559.500	-112.909	0.215	0.054
-558.485	137.152	0.137	-0.229
-557.471	79.730	-0.208	0.284
-556.456	385.428	0.081	0.214
-555.442	-200.000	-0.028	-0.503
-554.427	-112.000	-0.073	-0.019
-553.412	-139.669	-0.302	0.041
-552.398	287.449	-0.170	-0.393
-551.383	-64.249	-0.443	-0.229
-550.369	295.473	0.191	0.446
-549.354	800.000	0.078	-0.281
-548.339	70.950	0.201	-0.266
-547.325	-25.039	-0.141	-0.107
-546.310	-47.783	-0.466	0.287
-545.296	-15.527	0.375	0.304
-544.281	-200.000	0.014	0.242
-543.266	2.024	0.305	-0.279
-542.252	-80.809	-0.234	0.098
-541.237	15.922	0.278	0.278
-540.223	-56.853	-0.310	0.174
-539.208	266.143	-0.282	0.628
-538.193	-152.921	-0.396	-0.035
-537.179	152.023	0.117	-0.203
-536.164	642.050	-0.073	-0.239
-535.150	103.044	0.135	0.202
-534.135	157.554	-0.032	-0.056
-533.121	214.889	0.196	-0.396
-532.106	-123.479	-0.176	-0.035
-531.091	278.694	0.068	-0.154
-530.077	79.652	-0.296	-0.405
-529.062	51.672	0.171	0.207
-528.048	-97.575	-0.556	-0.183
-527.033	-167.538	0.488	-0.024
-526.018	21.281	-0.366	0.378
-525.004	-41.888	-0.321	0.209
-523.989	-200.000	-0.044	0.464
-522.975	0.012	-0.472	0.427
-521.960	-200.000	0.001	0.100
-520.945	-116.729	-0.208	-0.048
-519.931	-163.176	0.216	0.013
-518.916	29.093	0.199	-0.215
-517.902	153.246	0.194	-0.339
-516.887	-88.781	-0.375	0.141
-515.872	314.124	-0.206	-0.496
-514.858	-200.000	-0.022	-0.481
-513.843	-86.854	-0.704	-0.272
-512.829	131.604	0.262	-0.429
-511.814	401.198	-0.086	-0.230
-510.799	-148.233	0.635	0.066
-509.785	6.526	0.323	0.305
-508.770	-13.849	0.192	0.158
-507.756	74.157	0.020	0.027
-506.741	-83.146	0.324	0.132
-505.726	800.000	0.065	-0.228
-504.712	-61.141	-0.359	-0.192
-503.697	-79.238	0.248	-0.106
-502.683	192.814	-0.190	-0.365
-501.668	148.281	0.073	0.126
-500.653	335.293	0.148	0.367
-499.639	91.836	0.107	0.153
-498.624	-121.308	-0.070	0.015
-497.610	217.767	0.181	0.368
-496.595	-119.504	-0.357	-0.078
-495.581	-61.865	0.260	0.138
-494.566	-146.366	0.498	0.055
-493.551	257.971	-0.035	0.076
-492.537	-42.333	0.110	-0.071
-491.522	385.792	-0.089	-0.234
-490.508	-26.196	0.302	-0.225
-489.493	296.712	-0.075	-0.174
-488.478	2.149	0.237	-0.217
-487.464	-102.346	0.090	-0.027
-486.449	92.708	-0.133	-0.191
-485.435	800.000	0.069	-0.314
-484.420	275.508	0.045	-0.101
-483.405	97.510	0.149	-0.218
-482.391	-54.944	0.433	0.247
-481.376	800.000	-0.025	0.125
-480.362	-81.373	0.426	-0.177
-479.347	-22.313	0.294	0.226
-478.332	-1.503	-0.207	0.185
-477.318	-111.860	-0.278	0.071
-476.303	-200.000	0.002	0.072
-475.289	-200.000	0.027	0.207
-474.274	49.436	-0.140	-0.167
-473.259	325.133	-0.174	0.423
-472.245	-85.862	-0.208	0.081
-471.230	-132.002	-0.564	-0.092
-470.216	-111.066	-0.027	0.007
-469.201	555.313	-0.131	0.403
-468.186	292.463	-0.044	0.103
-467.172	800.000	-0.153	-0.595
-466.157	-56.365	-0.236	-0.132
-465.143	-140.873	-0.195	-0.025
-464.128	-89.514	0.305	0.113
-463.113	717.855	0.092	-0.311
-462.099	-91.355	0.051	0.018
-461.084	800.000	0.035	-0.185
-460.070	-200.000	0.021	0.305
-459.055	-108.296	0.190	-0.052
-458.040	362.631	-0.060	0.154
-457.026	693.703	-0.120	0.403
-456.011	27.589	-0.414	0.442
-454.997	-200.000	-0.002	-0.041
-453.982	-200.000	0.082	0.541
-452.968	-200.000	-0.042	0.256
-451.953	90.286	-0.102	-0.145
-450.938	-47.076	-0.077	0.047
-449.924	0.810	-0.161	0.146
-448.909	208.516	-0.175	-0.348
-447.895	19.847	0.022	-0.023
-446.880	800.000	0.036	-0.166
-445.865	-200.000	0.049	-0.325
-444.851	137.386	-0.060	-0.100
-443.836	-72.144	0.253	-0.118
-442.822	-9.525	0.248	-0.209
-441.807	-114.775	0.203	0.049
-440.792	69.638	0.222	-0.290
-439.778	-200.000	-0.008	-0.257
-438.763	-102.334	-0.681	-0.206
-437.749	102.622	-0.269	-0.400
-436.734	-17.116	-0.210	0.168
-435.719	-66.816	-0.362	0.181
-434.705	122.128	-0.090	-0.142
-433.690	800.000	-0.087	0.370
-432.676	87.878	0.049	-0.069
-431.661	86.181	0.204	-0.285
-430.646	800.000	0.075	-0.294
-429.632	609.865	0.040	-0.126
-428.617	343.447	-0.116	-0.290
-427.603	28.942	-0.108	0.116
-426.588	800.000	0.050	-0.188
-425.573	97.910	-0.111	-0.162
-424.559	-200.000	0.007	-0.225
-423.544	16.371	0.223	0.222
-422.530	24.322	0.327	-0.342
-421.515	-20.307	-0.183	0.143
-420.500	-23.148	-0.224	0.170
-419.486	36.229	0.192	-0.214
-418.471	-28.675	-0.315	0.229
-417.457	83.830	-0.196	-0.272
-416.442	188.562	0.155	-0.294
-415.428	-107.208	0.285	0.079
-414.413	-62.235	-0.324	-0.170
-413.398	-46.325	-0.059	-0.037
-412.384	-200.000	-0.012	0.302
-411.369	-136.904	-0.142	0.020
-410.355	96.138	0.419	0.607
-409.340	-200.000	-0.111	0.774
-408.325	-143.595	-0.365	0.043
-407.311	98.906	-0.247	0.361
-406.296	800.000	0.073	0.321
-405.282	217.812	-0.268	-0.543
-404.267	800.000	0.046	0.193
-403.252	-70.013	0.161	-0.077
-402.238	-144.297	-0.400	-0.047
-401.223	128.655	-0.099	-0.160
-400.209	676.924	0.139	0.458
-399.194	-71.647	0.193	-0.091
-398.179	583.721	-0.135	-0.423
-397.165	-200.000	-0.003	0.178
-396.150	-25.375	0.431	-0.322
-395.136	493.212	-0.124	0.362
-394.121	-200.000	0.020	0.289
-393.106	176.353	0.128	0.236
-392.092	-97.217	-0.161	0.053
-391.077	453.195	-0.081	0.229
-390.063	-35.727	0.307	-0.210
-389.048	77.085	0.071	-0.096
-388.033	69.740	0.225	-0.293
-387.019	-85.769	-0.301	-0.118
-386.004	-55.169	-0.221	-0.126
-384.990	-144.006	0.133	-0.016
-383.975	-76.636	0.490	-0.216
-382.960	-87.595	-0.215	0.082
-381.946	-200.000	-0.024	0.192
-380.931	14.287	0.379	0.373
-379.917	32.515	0.396	0.432
-378.902	-194.822	0.153	-0.001
-377.888	800.000	-0.059	0.237
-376.873	78.880	-0.073	-0.099
-375.858	93.527	-0.177	-0.253
-374.844	139.395	0.156	-0.261
-373.829	336.844	0.061	0.150
-372.815	15.563	-0.262	-0.260
-371.800	-95.020	-0.150	-0.051
-370.785	-200.000	-0.040	-0.378
-369.771	800.000	-0.067	0.318
-368.756	33.363	-0.406	0.445
-367.742	-62.778	-0.307	0.160
-366.727	800.000	-0.034	0.155
-365.712	-5.028	0.404	0.351
-364.698	800.000	-0.105	-0.475
-363.683	57.123	0.117	-0.144
-362.669	-49.325	0.328	0.197
-361.654	800.000	0.018	-0.080
-360.639	-54.887	0.367	0.209
-359.625	-8.281	0.224	0.191
-358.610	-79.548	0.462	-0.196
-357.596	-200.000	-0.036	0.223
-356.581	-200.000	0.063	-0.380
-355.566	-200.000	0.030	-0.276
-354.552	166.059	-0.182	-0.326
-353.537	-113.334	-0.231	0.057
-352.523	46.186	-0.053	0.062
-351.508	10.597	0.272	0.262
-350.493	485.967	-0.093	0.269
-349.479	-85.461	-0.129	-0.050
-348.464	-151.233	-0.574	-0.054
-347.450	-118.420	0.501	0.111
-346.435	11.235	0.164	-0.159
-345.420	-28.800	0.040	0.029
-344.406	800.000	-0.022	-0.081
-343.391	-8.827	-0.321	-0.271
-342.377	-81.624	0.158	0.065
-341.362	-200.000	0.011	-0.148
-340.348	-188.579	-0.193	-0.003
-339.333	18.401	-0.046	0.046
-338.318	432.909	0.081	-0.222
-337.304	-4.858	-0.159	-0.138
-336.289	-101.884	0.164	-0.050
-335.275	-73.769	0.371	0.170
-334.260	-161.135	0.444	0.029
-333.245	-200.000	0.001	-0.025
-332.231	800.000	0.055	-0.245
-331.216	439.484	0.038	0.106
-330.202	-129.157	-0.378	-0.066
-329.187	28.084	-0.120	0.128
-328.172	-46.347	0.116	-0.072
-327.158	131.196	0.158	0.257
-326.143	-166.849	-0.467	-0.024
-325.129	800.000	-0.021	-0.087
-324.114	-140.633	0.070	0.009
-323.099	800.000	-0.058	-0.228
-322.085	-158.438	-0.180	-0.013
-321.070	-170.520	-0.382	-0.017
-320.056	271.950	-0.100	-0.223
-319.041	152.719	0.134	0.231
-318.026	81.180	-0.061	0.083
-317.012	-4.700	-0.113	0.098
-315.997	-102.473	0.227	0.068
-314.983	-123.548	0.468	0.093
-313.968	-21.325	-0.296	-0.227
-312.953	89.927	0.195	-0.275
-311.939	118.216	-0.336	0.524
-310.924	-91.422	0.040	0.014
-309.910	-200.000	-0.001	0.149
-308.895	-19.422	-0.332	0.259
-307.880	-118.965	-0.059	-0.013
-306.866	-70.883	-0.315	0.149
-305.851	800.000	-0.018	0.070
-304.837	61.070	0.196	0.246
-303.822	-200.000	0.012	-0.231
-302.807	78.233	0.161	-0.217
-301.793	-200.000	0.008	0.074
-300.778	-43.990	0.453	0.286
-299.764	-50.546	0.383	-0.227
-298.749	-48.234	0.263	0.159
-297.735	229.877	-0.201	0.415
-296.720	184.056	-0.263	-0.492
-295.705	486.649	0.068	-0.197
-294.691	-22.228	-0.279	0.213
-293.676	2.849	-0.343	0.314
-292.662	-82.414	0.423	-0.172
-291.647	-200.000	-0.012	-0.544
-290.632	-199.533	0.446	-0.003
-289.618	-113.545	0.187	0.046
-288.603	-93.690	0.180	0.062
-287.589	-135.999	-0.079	-0.012
-286.574	168.230	0.090	-0.162
-285.559	-183.548	-0.132	0.003
-284.545	-200.000	-0.009	-0.374
-283.530	-56.347	-0.533	0.297
-282.516	-155.880	-0.264	0.021
-281.501	303.460	0.229	0.538
-280.486	68.100	0.286	-0.370
-279.472	507.523	-0.173	-0.507
-278.457	-134.057	0.253	-0.039
-277.443	-92.867	0.152	-0.053
-276.428	34.304	0.253	0.278
-275.413	40.063	0.204	0.231
-274.399	-0.796	0.067	-0.060
-273.384	-122.989	-0.313	0.063
-272.370	-3.467	0.120	-0.105
-271.355	412.130	-0.051	-0.138
-270.340	-183.347	-0.216	-0.005
-269.326	800.000	0.113	0.501
-268.311	92.416	0.205	0.291
-267.297	800.000	0.031	0.112
-266.282	447.984	-0.243	0.676
-265.267	309.028	0.180	0.424
-264.253	52.459	-0.193	-0.232
-263.238	666.148	0.071	0.231
-262.224	-110.109	0.391	0.102
-261.209	800.000	-0.047	0.166
-260.195	-142.810	0.274	0.033
-259.180	-14.858	0.032	0.026
-258.165	48.447	0.127	0.150
-257.151	119.543	-0.137	0.214
-256.136	-200.000	0.028	-0.199
-255.122	252.441	0.041	0.088
-254.107	378.874	0.081	-0.209
-253.092	-83.186	-0.297	0.119
-252.078	73.418	-0.057	0.075
-251.063	800.000	-0.020	-0.076
-250.049	58.459	-0.148	0.183
-249.034	800.000	0.066	0.365
-248.019	123.641	0.076	0.119
-247.005	-18.441	-0.090	0.071
-245.990	341.740	-0.117	-0.288
-244.976	193.497	0.090	0.172
-243.961	800.000	-0.102	-0.556
-242.946	800.000	-0.064	-0.346
-241.932	-0.030	-0.189	0.169
-240.917	-49.563	0.267	-0.159
-239.903	128.932	-0.096	0.154
-238.888	-12.416	-0.243	-0.199
-237.873	-27.559	0.203	0.148
-236.859	-161.424	0.420	0.027
-235.844	56.928	-0.122	0.150
-234.830	-200.000	0.027	0.259
-233.815	-168.722	0.267	0.012
-232.800	-58.936	-0.080	-0.043
-231.786	-200.000	-0.027	-0.208
-230.771	-96.648	-0.125	0.041
-229.757	-174.298	0.363	0.013
-228.742	17.048	0.348	-0.346
-227.727	238.576	0.085	-0.179
-226.713	-200.000	0.012	0.323
-225.698	263.174	-0.167	0.366
-224.684	-152.558	-0.048	0.004
-223.669	-6.718	-0.450	0.384
-222.655	-90.317	-0.028	-0.010
-221.640	76.613	0.184	0.245
-220.625	-176.268	0.271	0.009
-219.611	-134.587	-0.239	0.036
-218.596	246.169	0.060	-0.128
-217.582	25.718	0.141	0.147
-216.567	27.734	-0.393	-0.416
-215.552	-78.627	-0.231	-0.099
-214.538	-169.870	-0.067	-0.003
-213.523	800.000	0.075	0.364
-212.509	-11.271	-0.213	-0.176
-211.494	-27.089	0.224	-0.164
-210.479	-30.247	-0.234	-0.167
-209.465	-200.000	-0.085	-0.538
-208.450	-129.731	0.120	-0.021
-207.436	-51.101	-0.593	-0.348
-206.421	-21.545	0.101	0.077
-205.406	-75.383	-0.452	0.201
-204.392	223.422	0.107	-0.217
-203.377	-46.862	0.230	-0.141
-202.363	100.148	-0.108	0.157
-201.348	108.433	-0.198	-0.297
-200.333	-33.479	0.388	-0.268
-199.319	39.815	0.333	0.375
-198.304	800.000	-0.089	0.388
-197.290	14.553	-0.125	-0.122
-196.275	-178.454	-0.650	-0.019
-195.260	-135.392	-0.257	-0.038
-194.246	12.831	-0.269	-0.261
-193.231	-53.765	0.419	-0.239
-192.217	265.443	0.188	0.414
-191.202	-200.000	-0.535	0.001
-190.187	-43.792	-0.105	0.066
-189.173	22.694	-0.122	0.125
-188.158	58.364	0.159	0.195
-187.144	-178.084	0.377	0.011
-186.129	-86.844	-0.205	-0.078
-185.114	800.000	-0.063	0.248
-184.100	46.950	-0.247	0.288
-183.085	-58.056	-0.693	0.378
-182.071	14.096	-0.090	0.087
-181.056	-43.026	0.090	0.057
-180.042	266.964	-0.066	0.145
-179.027	170.191	-0.208	-0.374
-178.012	-89.626	0.249	-0.091
-176.998	800.000	-0.092	0.392
-175.983	-77.420	0.108	0.047
-174.969	350.030	-0.110	-0.273
-173.954	-200.000	-0.345	0.000
-172.939	2.321	0.298	0.270
-171.925	-200.000	0.071	0.605
-170.910	-118.806	0.033	-0.007
-169.896	-110.040	0.320	0.083
-168.881	421.735	0.154	0.416
-167.866	92.197	-0.111	0.157
-166.852	-28.653	0.071	-0.051
-165.837	-110.466	0.880	0.227
-164.823	-200.000	0.014	0.083
-163.808	2.031	-0.261	0.236
-162.793	25.046	-0.134	-0.140
-161.779	89.914	0.139	-0.195
-160.764	-118.640	0.266	0.058
-159.750	-182.444	-0.203	-0.005
-158.735	251.688	0.141	0.302
-157.720	40.266	0.204	0.230
-156.706	-57.583	-0.121	0.066
-155.691	-0.270	0.407	-0.362
-154.677	103.642	-0.201	-0.297
-153.662	-26.246	-0.201	-0.148
-152.647	325.573	0.133	0.320
-151.633	228.062	0.275	0.562
-150.618	175.867	0.152	0.277
-149.604	93.764	0.234	-0.333
-148.589	-17.425	0.351	-0.276
-147.574	68.769	-0.295	0.380
-146.560	-200.000	-0.022	-0.458
-145.545	-61.032	-0.122	0.064
-144.531	72.556	0.097	-0.127
-143.516	50.568	0.239	-0.283
-142.502	15.495	0.168	-0.166
-141.487	-77.990	-0.275	-0.118
-140.472	-105.030	-0.334	0.095
-139.458	-135.811	-0.342	0.050
-138.443	-200.000	0.013	0.122
-137.429	-74.156	-0.172	0.078
-136.414	12.735	-0.335	0.324
-135.399	-97.596	0.367	0.119
-134.385	49.744	0.162	0.191
-133.370	96.267	0.049	-0.071
-132.356	-200.000	0.036	0.306
-131.341	800.000	0.042	0.222
-130.326	-88.631	0.037	0.014
-129.312	-58.424	0.423	0.229
-128.297	-200.000	0.051	0.455
-127.283	-115.209	0.051	-0.012
-126.268	-86.041	-0.321	-0.123
-125.253	-123.013	-0.651	0.130
-124.239	-12.974	0.410	-0.334
-123.224	77.000	0.211	-0.281
-122.210	-200.000	-0.032	-0.204
-121.195	-43.426	-0.278	0.175
-120.180	-93.560	0.139	0.048
-119.166	494.484	0.034	0.098
