DTS Sentinel unit serial number:	SN409020Multiplexer serial number:	ORYXHardware model number:	OX4-SRSoftware version number:	ORYX F/W v3.00 Oryx Data Collector v3.7.2.0data status	okinstallation	HaddamTimeLapsedifferential loss correction	single-endedforward channel	channel 3reverse channel	N/Adate	2011/06/21time	13:56:17forward acquisition time	30.00reverse acquisition time	0.00gamma	498.7831k internal	0.1816k external	0.1816temperature offset calibration	1.0074default loss term (dB/km)	0.3790temperature slope calibration	1.3530multiplexer offset coefficient	1.0000multiplexer slope coefficient	1.0000fibre end	0.00T internal ref (°C)	36.62T ext. ref 1 (°C)	33.07T ext. ref 2 (°C)	0.23length (m)	temperature (°C)	Stokes	anti-Stokes-747.200	-128.832	-0.178	-0.032
-746.185	731.897	-0.117	0.402
-745.171	-68.123	-0.164	0.082
-744.156	-200.000	0.037	0.333
-743.142	114.084	-0.203	-0.316
-742.127	-96.546	-0.314	0.105
-741.112	-17.085	-0.403	0.325
-740.098	-200.000	-0.016	-0.323
-739.083	-134.683	-0.488	-0.075
-738.069	3.901	-0.356	0.333
-737.054	165.494	0.139	-0.252
-736.039	21.447	-0.225	-0.234
-735.025	-35.570	0.368	0.255
-734.010	449.883	0.073	0.207
-732.996	-49.731	0.031	-0.019
-731.981	9.769	0.079	0.077
-730.966	743.310	0.192	-0.667
-729.952	181.842	-0.370	-0.699
-728.937	800.000	-0.107	-0.538
-727.923	800.000	0.021	0.080
-726.908	-134.686	0.309	0.048
-725.894	-113.365	0.293	-0.073
-724.879	-126.492	0.457	-0.086
-723.864	-130.016	-0.166	-0.029
-722.850	-95.582	-0.167	0.057
-721.835	-174.335	0.376	0.014
-720.821	-183.813	-0.279	-0.006
-719.806	-117.944	-0.490	0.112
-718.791	-118.225	-0.487	0.110
-717.777	-129.376	0.232	0.041
-716.762	-200.000	-0.036	-0.256
-715.748	-200.000	0.066	0.516
-714.733	800.000	0.038	-0.170
-713.718	-174.662	0.586	0.021
-712.704	45.183	-0.144	-0.170
-711.689	-200.000	-0.007	-0.109
-710.675	-104.672	0.314	0.092
-709.660	800.000	0.085	-0.443
-708.645	-54.096	0.439	-0.255
-707.631	-156.836	0.255	0.020
-706.616	-200.000	0.041	0.336
-705.602	362.665	0.107	-0.275
-704.587	-53.141	-0.418	-0.245
-703.572	-174.566	0.271	0.010
-702.558	482.939	-0.087	-0.254
-701.543	-66.359	-0.251	0.127
-700.529	-200.000	-0.010	-0.109
-699.514	-120.711	0.245	-0.053
-698.499	54.552	-0.175	-0.216
-697.485	53.782	-0.273	0.336
-696.470	189.234	-0.246	-0.473
-695.456	-200.000	-0.001	-0.248
-694.441	52.814	0.106	0.130
-693.426	-9.378	-0.259	0.221
-692.412	177.995	0.305	-0.571
-691.397	-200.000	-0.065	0.411
-690.383	15.855	-0.121	0.122
-689.368	418.861	-0.102	-0.279
-688.354	24.913	0.209	-0.221
-687.339	-101.366	-0.190	-0.059
-686.324	-200.000	-0.015	-0.130
-685.310	-71.177	-0.149	-0.071
-684.295	-67.889	0.454	-0.226
-683.281	-83.737	-0.047	-0.019
-682.266	800.000	0.035	0.158
-681.251	-126.170	-0.671	-0.127
-680.237	69.080	-0.258	-0.339
-679.222	-3.507	-0.190	0.168
-678.208	243.652	0.081	0.174
-677.193	-75.777	-0.515	0.232
-676.178	164.726	-0.129	0.233
-675.164	360.400	-0.081	0.209
-674.149	29.047	-0.351	-0.380
-673.135	-84.290	0.236	-0.095
-672.120	800.000	-0.043	-0.202
-671.105	-72.395	0.348	-0.164
-670.091	675.903	0.176	-0.588
-669.076	307.551	0.194	-0.463
-668.062	-93.518	0.120	0.042
-667.047	-200.000	-0.417	0.000
-666.032	800.000	-0.064	0.228
-665.018	614.090	-0.056	-0.182
-664.003	-104.367	-0.399	-0.117
-662.989	608.220	-0.071	-0.228
-661.974	148.330	0.143	-0.247
-660.959	-36.265	-0.212	-0.146
-659.945	213.051	0.060	0.122
-658.930	53.927	0.377	0.463
-657.916	-200.000	-0.006	-0.152
-656.901	-81.639	-0.351	-0.146
-655.886	-73.659	-0.382	0.177
-654.872	-1.806	-0.283	0.254
-653.857	-84.504	-0.268	-0.108
-652.843	-136.467	-0.443	0.065
-651.828	-196.243	0.286	0.002
-650.814	800.000	0.063	-0.306
-649.799	47.714	-0.246	-0.293
-648.784	-200.000	-0.016	0.236
-647.770	800.000	0.082	0.305
-646.755	-74.655	-0.170	-0.078
-645.741	-200.000	0.007	-0.174
-644.726	-66.299	-0.368	0.186
-643.711	-80.436	0.061	0.026
-642.697	-200.000	-0.039	0.234
-641.682	-200.000	0.317	-0.002
-640.668	647.671	-0.102	-0.336
-639.653	62.045	0.328	-0.417
-638.638	25.836	-0.287	0.305
-637.624	272.894	-0.102	-0.232
-636.609	146.328	-0.092	0.157
-635.595	276.097	-0.025	0.057
-634.580	-200.000	0.027	-0.197
-633.565	614.439	0.101	-0.325
-632.551	-200.000	0.042	-0.462
-631.536	-200.000	-0.041	-0.530
-630.522	72.482	0.172	-0.230
-629.507	196.123	-0.235	0.457
-628.492	-55.785	0.381	-0.216
-627.478	94.692	0.270	-0.393
-626.463	-48.005	-0.306	0.188
-625.449	158.855	-0.240	0.427
-624.434	800.000	-0.035	0.154
-623.419	12.475	-0.238	0.234
-622.405	-168.775	-0.588	-0.028
-621.390	-200.000	-0.023	0.414
-620.376	656.195	-0.134	-0.442
-619.361	273.289	-0.100	-0.226
-618.346	-106.535	0.241	0.068
-617.332	46.739	-0.409	-0.484
-616.317	-57.650	-0.233	0.130
-615.303	-114.865	-0.143	0.035
-614.288	-112.040	-0.233	0.059
-613.273	-135.430	0.080	0.012
-612.259	414.315	0.062	0.168
-611.244	-51.098	-0.250	0.149
-610.230	-71.031	-0.569	0.272
-609.215	-110.742	-0.265	-0.069
-608.201	302.796	-0.084	0.198
-607.186	-178.838	0.226	-0.006
-606.171	-116.032	0.365	0.086
-605.157	-79.805	-0.230	0.098
-604.142	-200.000	0.008	0.085
-603.128	80.925	-0.083	-0.115
-602.113	800.000	-0.021	0.099
-601.098	-57.028	0.152	0.085
-600.084	800.000	-0.157	-0.678
-599.069	521.691	0.095	-0.285
-598.055	2.676	0.406	0.374
-597.040	-168.822	-0.279	-0.013
-596.025	-6.828	-0.166	-0.143
-595.011	800.000	-0.093	-0.425
-593.996	346.661	-0.192	0.483
-592.982	800.000	0.046	0.201
-591.967	251.840	0.032	0.071
-590.952	-200.000	-0.073	0.489
-589.938	559.458	-0.170	0.526
-588.923	9.574	-0.247	0.238
-587.909	-44.341	-0.203	0.129
-586.894	6.952	0.160	-0.151
-585.879	800.000	-0.074	-0.331
-584.865	0.999	-0.627	-0.572
-583.850	119.454	0.200	-0.316
-582.836	-200.000	0.007	0.094
-581.821	239.486	0.150	0.318
-580.806	553.018	0.200	0.616
-579.792	208.399	0.256	0.511
-578.777	18.867	0.585	0.596
-577.763	119.579	0.051	0.081
-576.748	-113.713	-0.470	-0.116
-575.733	-62.605	-0.179	0.094
-574.719	-200.000	0.041	0.602
-573.704	-37.785	0.103	-0.070
-572.690	94.345	-0.222	0.322
-571.675	411.709	0.056	-0.153
-570.661	-76.384	0.360	-0.160
-569.646	124.320	-0.210	-0.337
-568.631	67.676	0.319	-0.415
-567.617	-3.675	0.388	-0.343
-566.602	479.760	0.081	-0.235
-565.588	-43.467	-0.604	-0.387
-564.573	41.009	0.046	-0.053
-563.558	-74.528	-0.407	0.186
-562.544	-149.487	-0.483	0.048
-561.529	-100.374	0.132	-0.042
-560.515	-82.597	0.132	0.054
-559.500	-2.874	-0.152	-0.135
-558.485	-200.000	-0.001	0.178
-557.471	-200.000	-0.013	-0.283
-556.456	281.542	-0.114	-0.261
-555.442	307.795	-0.163	-0.388
-554.427	-157.279	-0.195	-0.015
-553.412	-160.752	-0.236	0.016
-552.398	-137.423	0.339	-0.048
-551.383	9.626	0.227	0.219
-550.369	183.247	-0.108	0.204
-549.354	221.100	0.164	0.335
-548.339	25.852	0.220	0.233
-547.325	-142.694	0.149	0.018
-546.310	-200.000	-0.056	0.556
-545.296	-84.260	0.612	0.245
-544.281	-104.180	-0.113	0.033
-543.266	-125.325	-0.073	0.014
-542.252	392.933	0.080	-0.212
-541.237	-40.317	-0.126	0.083
-540.223	88.579	0.266	-0.376
-539.208	800.000	0.023	-0.112
-538.193	124.531	0.095	0.152
-537.179	-42.596	-0.416	-0.268
-536.164	-200.000	-0.016	-0.138
-535.150	29.392	-0.285	0.308
-534.135	2.818	-0.251	0.231
-533.121	-116.124	-0.396	0.093
-532.106	13.705	0.312	-0.307
-531.091	-128.166	0.043	-0.008
-530.077	321.897	0.097	0.235
-529.062	376.524	0.135	-0.351
-528.048	781.756	0.136	0.477
-527.033	-200.000	-0.027	-0.340
-526.018	-200.000	-0.038	0.238
-525.004	783.090	-0.176	0.615
-523.989	-12.970	-0.110	-0.091
-522.975	-29.323	-0.057	0.041
-521.960	-162.012	-0.156	0.010
-520.945	-90.842	0.503	-0.183
-519.931	-81.560	0.356	-0.148
-518.916	-133.967	0.249	-0.039
-517.902	254.208	0.087	0.189
-516.887	-200.000	0.001	-0.219
-515.872	44.628	0.273	0.319
-514.858	-192.738	-0.261	-0.003
-513.843	-84.073	-0.422	0.169
-512.829	284.903	-0.032	-0.073
-511.814	27.774	-0.131	-0.141
-510.799	62.344	-0.242	0.307
-509.785	-107.914	-0.085	0.023
-508.770	-133.217	-0.311	-0.049
-507.756	800.000	-0.077	0.395
-506.741	-106.556	0.070	-0.020
-505.726	18.669	0.268	-0.272
-504.712	-20.864	-0.183	0.142
-503.697	440.022	0.068	0.189
-502.683	-109.618	-0.481	-0.128
-501.668	-53.540	-0.360	-0.208
-500.653	22.406	-0.178	-0.184
-499.639	-200.000	0.017	-0.110
-498.624	52.712	0.249	-0.302
-497.610	-63.101	0.155	-0.081
-496.595	-170.141	0.168	-0.007
-495.581	-200.000	-0.087	-0.569
-494.566	-65.793	-0.269	-0.136
-493.551	94.097	-0.088	0.126
-492.537	76.017	-0.169	0.227
-491.522	-134.433	0.601	-0.092
-490.508	-120.743	-0.328	0.070
-489.493	-200.000	0.007	-0.399
-488.478	-68.758	0.391	-0.191
-487.464	-14.914	0.483	0.392
-486.449	-20.727	-0.396	0.308
-485.435	-200.000	-0.033	0.395
-484.420	800.000	0.045	-0.173
-483.405	800.000	0.121	-0.428
-482.391	301.977	0.161	-0.380
-481.376	-200.000	0.010	-0.291
-480.362	247.260	0.238	-0.511
-479.347	-65.143	-0.162	-0.083
-478.332	-140.948	-0.246	0.032
-477.318	-79.604	0.087	0.037
-476.303	-60.203	-0.598	-0.322
-475.289	0.942	-0.361	-0.327
-474.274	152.505	-0.285	0.495
-473.259	671.220	-0.068	0.226
-472.245	20.976	0.787	-0.809
-471.230	-36.708	-0.094	-0.064
-470.216	-200.000	0.015	-0.604
-469.201	800.000	0.059	-0.288
-468.186	-126.916	-0.089	0.016
-467.172	187.939	-0.106	0.202
-466.157	-47.642	-0.399	-0.245
-465.143	254.091	-0.086	0.188
-464.128	-114.665	-0.048	-0.012
-463.113	-75.068	0.263	0.119
-462.099	-57.519	0.422	-0.234
-461.084	614.684	0.150	-0.479
-460.070	-14.658	0.483	-0.392
-459.055	-200.000	-0.004	0.096
-458.040	800.000	-0.043	0.173
-457.026	-152.597	-0.354	0.032
-456.011	-56.775	0.382	-0.213
-454.997	800.000	0.122	0.494
-453.982	-75.235	-0.177	0.080
-452.968	37.870	0.090	0.101
-451.953	-60.279	0.241	-0.130
-450.938	-50.768	-0.256	-0.152
-449.924	194.227	-0.114	-0.219
-448.909	-106.066	-0.208	-0.059
-447.895	-30.832	0.069	-0.049
-446.880	39.966	-0.367	0.418
-445.865	-200.000	0.026	0.305
-444.851	800.000	-0.024	0.121
-443.836	-75.427	-0.166	-0.075
-442.822	205.190	0.087	0.171
-441.807	241.611	-0.208	-0.441
-440.792	-200.000	-0.032	0.209
-439.778	-54.508	-0.202	0.115
-438.763	23.809	-0.116	0.121
-437.749	800.000	0.047	0.184
-436.734	211.305	0.355	0.710
-435.719	800.000	0.151	-0.620
-434.705	406.652	0.090	-0.243
-433.690	9.103	-0.701	-0.670
-432.676	66.882	0.182	-0.235
-431.661	-89.211	0.302	-0.112
-430.646	691.534	-0.042	-0.141
-429.632	-49.309	0.177	-0.107
-428.617	-200.000	-0.011	0.306
-427.603	-118.603	-0.276	0.061
-426.588	-64.087	-0.296	0.152
-425.573	149.265	0.293	-0.503
-424.559	72.793	-0.172	-0.228
-423.544	-104.558	-0.230	0.067
-422.530	-75.626	-0.237	0.106
-421.515	-60.305	0.325	0.175
-420.500	95.586	0.099	0.144
-419.486	-127.574	0.179	0.032
-418.471	-41.995	0.178	0.115
-417.457	186.023	-0.249	0.469
-416.442	168.073	0.155	0.279
-415.428	-170.284	-0.180	0.008
-414.413	77.992	0.140	-0.188
-413.398	-59.553	0.265	-0.143
-412.384	800.000	-0.041	-0.213
-411.369	791.344	0.030	0.104
-410.355	24.247	-0.279	-0.292
-409.340	800.000	0.116	0.415
-408.325	800.000	-0.042	-0.186
-407.311	-200.000	0.031	0.172
-406.296	-200.000	-0.019	-0.301
-405.282	-48.926	-0.254	0.154
-404.267	-13.800	-0.282	0.231
-403.252	32.576	0.115	0.126
-402.238	-200.000	0.011	-0.073
-401.223	-40.800	-0.289	-0.189
-400.209	-58.322	-0.248	-0.136
-399.194	-86.972	0.388	-0.149
-398.179	-132.182	0.365	0.059
-397.165	-187.732	-0.132	0.002
-396.150	800.000	0.063	0.228
-395.136	104.226	0.134	0.199
-394.121	-1.901	0.356	-0.316
-393.106	-136.722	0.065	0.009
-392.092	226.048	-0.111	-0.228
-391.077	35.137	0.271	-0.301
-390.063	-131.897	0.195	-0.032
-389.048	-52.638	-0.331	-0.192
-388.033	171.075	-0.228	0.413
-387.019	-135.638	-0.493	-0.073
-386.004	96.227	-0.158	0.229
-384.990	-10.090	-0.423	0.355
-383.975	178.068	0.196	0.362
-382.960	-29.970	0.342	-0.246
-381.946	5.417	0.034	0.032
-380.931	-99.259	0.417	0.132
-379.917	411.505	-0.073	0.197
-378.902	-200.000	-0.030	-0.209
-377.888	38.960	-0.095	0.107
-376.873	-10.242	0.077	0.064
-375.858	-200.000	0.016	-0.173
-374.844	0.790	-0.293	0.265
-373.829	-200.000	-0.057	-0.335
-372.815	604.491	-0.013	-0.040
-371.800	400.949	-0.062	0.165
-370.785	497.643	0.101	-0.295
-369.771	-66.725	-0.275	0.137
-368.756	-46.262	0.542	-0.336
-367.742	474.956	0.223	-0.637
-366.727	10.571	-0.579	-0.557
-365.712	-129.528	-0.217	-0.038
-364.698	-7.522	0.287	-0.245
-363.683	800.000	-0.059	-0.314
-362.669	113.159	0.281	-0.431
-361.654	-20.839	0.309	-0.238
-360.639	-200.000	-0.010	-0.189
-359.625	-59.179	-0.406	0.220
-358.610	207.246	0.221	-0.437
-357.596	-5.988	-0.020	0.017
-356.581	-200.000	0.042	0.326
-355.566	59.725	-0.277	0.345
-354.552	-109.158	0.297	-0.079
-353.537	-165.703	0.111	-0.006
-352.523	43.701	0.054	0.062
-351.508	-93.363	0.450	-0.156
-350.493	800.000	0.067	-0.340
-349.479	-144.232	-0.311	-0.036
-348.464	138.553	0.116	0.193
-347.450	222.790	0.184	0.374
-346.435	-154.639	0.264	-0.022
-345.420	-51.069	-0.490	-0.289
-344.406	380.146	-0.071	-0.186
-343.391	149.355	0.106	-0.181
-342.377	75.712	-0.195	0.260
-341.362	124.861	0.198	0.315
-340.348	-134.665	0.257	-0.039
-339.333	5.032	-0.195	-0.181
-338.318	-68.611	0.249	-0.121
-337.304	-200.000	-0.016	0.126
-336.289	-3.478	0.129	-0.113
-335.275	-92.562	-0.399	0.140
-334.260	148.640	0.143	0.244
-333.245	-80.090	-0.412	-0.173
-332.231	91.959	-0.034	-0.048
-331.216	92.303	0.357	0.507
-330.202	800.000	0.039	0.208
-329.187	-148.706	-0.041	-0.004
-328.172	153.990	0.306	0.531
-327.158	141.035	-0.225	-0.376
-326.143	-195.778	-0.037	0.000
-325.129	-200.000	-0.081	0.475
-324.114	-118.430	0.308	0.068
-323.099	31.449	0.466	-0.505
-322.085	-200.000	0.030	0.443
-321.070	21.734	0.131	0.134
-320.056	-67.815	-0.421	0.207
-319.041	-127.206	0.123	-0.022
-318.026	794.526	0.120	-0.417
-317.012	-200.000	0.058	-0.604
-315.997	-160.915	-0.138	-0.009
-314.983	260.464	-0.094	-0.206
-313.968	-116.619	0.173	-0.040
-312.953	165.887	-0.073	-0.131
-311.939	-127.188	-0.519	-0.095
-310.924	-145.468	-0.261	-0.029
-309.910	202.973	-0.103	0.201
-308.895	658.026	-0.164	0.535
-307.880	388.473	0.135	-0.355
-306.866	-200.000	0.032	-0.327
-305.851	11.299	0.141	0.136
-304.837	192.675	-0.056	-0.106
-303.822	-154.033	-0.281	-0.024
-302.807	-186.384	0.269	0.005
-301.793	112.251	-0.203	0.310
-300.778	60.159	-0.351	0.437
-299.764	13.655	-0.342	0.335
-298.749	271.437	0.129	-0.288
-297.735	-12.414	0.201	0.165
-296.720	-99.189	-0.596	0.189
-295.705	800.000	0.172	0.625
-294.691	-72.497	0.184	0.085
-293.676	462.537	-0.034	-0.097
-292.662	256.599	0.077	-0.168
-291.647	-59.038	0.340	-0.184
-290.632	-135.452	-0.081	0.012
-289.618	-113.241	-0.155	-0.038
-288.603	-1.324	0.247	-0.219
-287.589	-66.370	0.473	-0.236
-286.574	-108.073	0.303	0.082
-285.559	-16.614	0.559	0.445
-284.545	442.926	-0.178	0.492
-283.530	412.555	-0.083	-0.223
-282.516	657.121	-0.070	0.229
-281.501	-70.751	-0.033	0.016
-280.486	9.997	0.385	-0.368
-279.472	708.559	0.075	-0.252
-278.457	-93.250	0.134	0.047
-277.443	-0.424	-0.247	-0.221
-276.428	800.000	-0.076	-0.396
-275.413	-27.523	0.617	-0.450
-274.399	69.208	0.147	-0.190
-273.384	800.000	0.104	0.381
-272.370	-90.581	0.510	-0.184
-271.355	-200.000	-0.015	-0.266
-270.340	466.849	-0.050	-0.142
-269.326	800.000	0.058	0.203
-268.311	-45.062	-0.116	0.073
-267.297	382.267	0.089	0.230
-266.282	-115.576	-0.178	0.042
-265.267	112.448	0.108	-0.165
-264.253	-33.633	0.175	0.121
-263.238	-169.664	-0.489	-0.022
-262.224	-68.671	0.172	-0.083
-261.209	-31.425	0.301	-0.212
-260.195	-91.249	0.253	0.091
-259.180	-184.650	-0.191	0.004
-258.165	-73.075	0.503	-0.231
-257.151	800.000	-0.092	0.360
-256.136	-11.554	-0.288	-0.238
-255.122	166.673	-0.188	0.337
-254.107	-49.607	0.255	-0.152
-253.092	52.366	0.133	0.159
-252.078	57.063	0.212	0.260
-251.063	515.498	0.180	0.532
-250.049	800.000	0.046	-0.213
-249.034	10.565	0.089	0.085
-248.019	44.770	-0.268	0.309
-247.005	800.000	0.069	-0.371
-245.990	-200.000	0.133	-0.786
-244.976	-148.558	0.085	0.009
-243.961	-23.608	-0.204	-0.153
-242.946	55.421	0.166	0.202
-241.932	-122.497	-0.141	0.029
-240.917	-12.805	-0.334	-0.273
-239.903	-50.094	0.249	0.148
-238.888	-200.000	0.091	0.636
-237.873	-200.000	0.004	0.042
-236.859	211.331	-0.110	-0.218
-235.844	-68.740	0.542	0.262
-234.830	-185.137	0.446	0.009
-233.815	-62.054	-0.159	-0.083
-232.800	434.269	-0.093	0.255
-231.786	-128.200	0.221	0.039
-230.771	-158.634	0.405	-0.029
-229.757	23.873	0.216	-0.224
-228.742	800.000	-0.044	0.159
-227.727	800.000	0.210	-0.809
-226.713	-54.570	0.491	0.278
-225.698	-70.219	-0.229	-0.109
-224.684	-93.086	0.199	-0.069
-223.669	-129.851	0.470	0.080
-222.655	204.459	0.249	-0.486
-221.640	-200.000	-0.029	-0.400
-220.625	390.818	0.067	-0.176
-219.611	485.765	-0.164	0.473
-218.596	-57.249	0.186	0.102
-217.582	32.273	-0.104	-0.112
-216.567	-167.890	0.523	-0.025
-215.552	-97.601	0.380	0.123
-214.538	-57.577	-0.225	0.123
-213.523	277.659	-0.104	-0.233
-212.509	-200.000	0.008	0.110
-211.494	-175.044	0.259	0.009
-210.479	-153.744	0.525	0.045
-209.465	-64.037	0.359	0.183
-208.450	800.000	0.054	0.222
-207.436	742.569	0.180	0.609
-206.421	-70.745	-0.136	0.064
-205.406	-117.325	-0.369	-0.083
-204.392	49.677	-0.269	0.318
-203.377	-200.000	0.006	-0.087
-202.363	-39.154	-0.193	0.127
-201.348	-74.606	-0.273	0.123
-200.333	151.748	-0.210	0.359
-199.319	-166.304	-0.275	0.014
-198.304	-200.000	-0.436	-0.001
-197.290	-200.000	0.026	0.295
-196.275	-161.738	-0.170	0.011
-195.260	-80.107	-0.248	-0.104
-194.246	28.985	-0.118	0.125
-193.231	800.000	0.096	0.425
-192.217	-200.000	0.058	0.558
-191.202	-68.248	-0.210	-0.102
-190.187	-54.536	0.330	-0.187
-189.173	-162.735	-0.193	0.012
-188.158	-64.593	0.472	-0.239
-187.144	101.720	0.046	0.067
-186.129	49.429	0.250	0.294
-185.114	-66.759	-0.040	0.020
-184.100	24.522	0.093	-0.097
-183.085	-200.000	0.025	-0.349
-182.071	124.158	-0.162	0.255
-181.056	216.853	0.196	0.393
-180.042	800.000	0.058	0.287
-179.027	-23.379	-0.471	0.354
-178.012	257.320	-0.225	0.487
-176.998	256.688	0.176	0.381
-175.983	-45.218	-0.436	0.271
-174.969	113.300	0.182	0.278
-173.954	-75.371	-0.168	0.075
-172.939	-82.292	0.205	-0.083
-171.925	290.306	-0.219	-0.499
-170.910	-111.900	-0.821	-0.206
-169.896	67.140	0.272	0.348
-168.881	-200.000	-0.010	-0.128
-167.866	200.037	0.040	-0.077
-166.852	800.000	0.081	-0.306
-165.837	-53.093	0.187	-0.108
-164.823	3.499	-0.174	-0.158
-163.808	47.985	-0.323	0.378
-162.793	489.042	-0.031	-0.088
-161.779	800.000	-0.043	-0.218
-160.764	-112.414	0.304	-0.076
-159.750	-200.000	0.009	-0.107
-158.735	-200.000	-0.000	-0.119
-157.720	15.042	-0.190	0.186
-156.706	-96.185	0.707	0.233
-155.691	-39.592	-0.144	0.094
-154.677	-140.818	0.065	-0.008
-153.662	2.186	-0.355	0.321
-152.647	-20.904	-0.230	-0.176
-151.633	-121.435	0.351	0.072
-150.618	-6.848	0.450	-0.383
-149.604	-96.233	0.244	-0.080
-148.589	-103.558	-0.347	0.101
-147.574	-200.000	0.041	-0.331
-146.560	213.829	-0.134	0.266
-145.545	-166.848	-0.510	0.026
-144.531	31.559	0.318	-0.342
-143.516	800.000	-0.073	0.300
-142.502	-27.815	0.186	-0.135
-141.487	-200.000	0.018	0.465
-140.472	-87.628	0.017	-0.006
-139.458	244.700	0.074	0.157
-138.443	800.000	-0.078	0.285
-137.429	252.065	0.040	-0.086
-136.414	-64.330	0.451	-0.229
-135.399	143.953	-0.181	0.303
-134.385	42.827	-0.066	0.075
-133.370	-41.856	0.402	0.257
-132.356	-200.000	0.467	0.001
-131.341	-69.458	0.140	0.067
-130.326	-44.136	-0.154	-0.097
-129.312	322.257	0.071	0.170
-128.297	-90.255	0.075	0.027
-127.283	439.889	0.088	0.242
-126.268	362.177	0.152	-0.384
-125.253	202.973	-0.181	0.351
-124.239	-80.256	-0.379	0.158
-123.224	-44.879	-0.229	0.142
-122.210	-66.397	-0.296	0.147
-121.195	-42.032	0.121	0.077
