DTS Sentinel unit serial number:	SN409020Multiplexer serial number:	ORYXHardware model number:	OX4-SRSoftware version number:	ORYX F/W v3.00 Oryx Data Collector v3.7.2.0data status	okinstallation	HaddamTimeLapsedifferential loss correction	single-endedforward channel	channel 3reverse channel	N/Adate	2011/06/21time	16:36:17forward acquisition time	30.00reverse acquisition time	0.00gamma	498.7831k internal	0.1785k external	0.1785temperature offset calibration	1.0074default loss term (dB/km)	0.3790temperature slope calibration	1.3530multiplexer offset coefficient	1.0000multiplexer slope coefficient	1.0000fibre end	0.00T internal ref (°C)	32.81T ext. ref 1 (°C)	26.90T ext. ref 2 (°C)	0.22length (m)	temperature (°C)	Stokes	anti-Stokes-747.200	-16.236	0.134	-0.110
-746.185	233.826	0.143	0.309
-745.171	-130.867	0.327	-0.057
-744.156	-119.619	0.078	-0.017
-743.142	-129.872	0.307	-0.054
-742.127	712.325	-0.100	0.348
-741.112	19.653	0.093	-0.097
-740.098	-132.806	0.189	0.031
-739.083	-190.655	0.263	0.004
-738.069	158.198	-0.145	0.263
-737.054	800.000	-0.068	-0.278
-736.039	-116.755	-0.282	-0.067
-735.025	82.696	-0.125	-0.177
-734.010	-70.054	0.349	0.172
-732.996	-200.000	-0.012	-0.172
-731.981	83.253	0.097	0.138
-730.966	41.154	-0.469	-0.552
-729.952	-200.000	-0.045	-0.762
-728.937	576.112	-0.133	0.426
-727.923	800.000	0.161	0.752
-726.908	-161.505	-0.366	0.024
-725.894	46.323	-0.439	0.530
-724.879	29.070	0.058	-0.065
-723.864	-105.856	0.501	-0.146
-722.850	-149.152	0.297	0.031
-721.835	-200.000	-0.043	-0.273
-720.821	28.552	-0.154	-0.169
-719.806	1.381	-0.131	0.122
-718.791	335.031	0.119	-0.302
-717.777	88.719	0.310	-0.450
-716.762	-200.000	-0.021	0.215
-715.748	-70.518	-0.363	-0.178
-714.733	-37.061	0.339	-0.236
-713.718	-110.722	-0.367	-0.098
-712.704	-117.926	-0.480	0.111
-711.689	-45.144	0.517	-0.333
-710.675	138.449	-0.142	-0.244
-709.660	-141.768	-0.146	-0.019
-708.645	71.435	-0.178	0.241
-707.631	-128.584	-0.340	0.062
-706.616	-68.781	-0.475	-0.238
-705.602	193.646	0.173	-0.342
-704.587	-9.922	-0.098	-0.085
-703.572	241.062	-0.195	-0.425
-702.558	800.000	-0.008	-0.044
-701.543	131.724	0.158	0.266
-700.529	434.970	0.166	0.472
-699.514	92.325	0.116	0.170
-698.499	800.000	-0.044	-0.242
-697.485	2.501	-0.193	-0.182
-696.470	-200.000	0.011	0.319
-695.456	64.649	-0.197	-0.259
-694.441	-131.921	-0.660	-0.111
-693.426	-168.923	0.289	0.014
-692.412	-200.000	-0.017	-0.206
-691.397	-4.490	0.269	-0.241
-690.383	38.650	0.258	0.300
-689.368	-86.974	-0.187	0.074
-688.354	-17.600	-0.251	0.205
-687.339	160.087	0.167	0.303
-686.324	96.487	0.075	-0.111
-685.310	341.130	-0.075	-0.192
-684.295	560.625	-0.220	-0.693
-683.281	373.244	-0.119	-0.317
-682.266	16.850	-0.198	-0.204
-681.251	-176.310	-0.293	0.010
-680.237	-146.209	-0.248	-0.028
-679.222	-24.523	-0.506	0.391
-678.208	-27.839	-0.244	0.184
-677.193	-127.595	-0.627	-0.117
-676.178	-91.785	0.184	0.068
-675.164	-88.252	0.177	0.069
-674.149	-200.000	0.034	-0.335
-673.135	297.010	-0.088	-0.210
-672.120	-51.210	0.121	-0.074
-671.105	-102.971	0.045	0.014
-670.091	202.865	-0.081	-0.162
-669.076	25.604	-0.233	-0.252
-668.062	77.189	0.313	0.433
-667.047	133.123	-0.079	-0.133
-666.032	49.382	-0.351	-0.429
-665.018	-200.000	-0.036	-0.266
-664.003	-5.952	0.655	0.581
-662.989	-138.051	-0.434	-0.062
-661.974	-98.475	-0.521	-0.172
-660.959	-50.029	0.269	0.165
-659.945	-103.419	0.336	0.102
-658.930	-121.092	0.415	0.090
-657.916	-200.000	0.023	-0.464
-656.901	133.011	0.310	-0.521
-655.886	-26.349	0.125	0.095
-654.872	663.503	0.134	0.450
-653.857	-200.000	0.017	0.330
-652.843	-39.231	-0.277	-0.189
-651.828	39.144	0.394	-0.457
-650.814	-200.000	0.031	0.240
-649.799	651.609	-0.093	0.310
-648.784	40.583	-0.160	0.187
-647.770	-130.656	0.298	-0.052
-646.755	-174.518	0.141	0.005
-645.741	-23.871	-0.411	-0.318
-644.726	284.770	-0.215	-0.505
-643.711	-24.708	0.211	-0.162
-642.697	331.072	0.249	0.626
-641.682	-161.129	0.271	0.018
-640.668	-38.375	0.362	-0.248
-639.653	83.532	0.113	0.160
-638.638	-135.631	-0.305	0.046
-637.624	-88.864	-0.631	-0.242
-636.609	-142.554	-0.281	-0.035
-635.595	439.869	0.191	0.543
-634.580	9.750	0.338	-0.332
-633.565	-97.049	0.337	-0.114
-632.551	-41.704	0.570	-0.379
-631.536	138.302	-0.180	0.306
-630.522	-62.367	-0.463	0.249
-629.507	-87.270	0.103	-0.040
-628.492	-93.674	0.140	0.050
-627.478	227.572	-0.134	0.284
-626.463	158.024	-0.125	0.225
-625.449	325.733	-0.069	-0.171
-624.434	601.880	0.108	-0.349
-623.419	-5.273	-0.116	0.103
-622.405	800.000	-0.126	0.564
-621.390	-200.000	0.021	0.308
-620.376	-131.515	0.066	0.011
-619.361	113.088	-0.310	0.488
-618.346	-18.697	-0.299	-0.241
-617.332	33.187	-0.076	-0.085
-616.317	204.111	-0.123	-0.248
-615.303	800.000	0.052	0.224
-614.288	-16.536	0.508	-0.416
-613.273	-134.306	0.232	0.037
-612.259	12.344	-0.206	-0.206
-611.244	320.416	0.074	-0.183
-610.230	-56.280	-0.211	-0.121
-609.215	-68.617	0.393	0.197
-608.201	-136.943	-0.163	-0.024
-607.186	280.586	0.111	0.259
-606.171	1.414	0.198	0.184
-605.157	355.473	-0.214	0.553
-604.142	-39.932	-0.322	-0.217
-603.128	-49.336	-0.182	-0.112
-602.113	342.885	-0.043	0.109
-601.098	-183.585	0.386	-0.008
-600.084	112.932	0.141	-0.222
-599.069	6.642	0.232	0.224
-598.055	73.519	0.136	-0.184
-597.040	800.000	-0.027	-0.119
-596.025	-16.684	-0.327	-0.268
-595.011	649.226	-0.110	0.366
-593.996	-200.000	0.010	-0.198
-592.982	388.705	-0.199	-0.537
-591.967	-122.723	-0.247	0.051
-590.952	-56.689	-0.259	-0.148
-589.938	-159.084	-0.176	0.013
-588.923	-65.628	-0.198	0.102
-587.909	-80.979	-0.440	-0.188
-586.894	94.022	0.116	0.171
-585.879	-177.876	0.212	0.006
-584.865	-175.253	0.206	0.007
-583.850	-70.853	-0.103	0.050
-582.836	295.414	0.198	0.472
-581.821	-130.126	-0.217	-0.038
-580.806	116.437	0.187	-0.298
-579.792	-87.691	0.343	-0.133
-578.777	-200.000	-0.005	0.054
-577.763	-134.013	0.181	0.029
-576.748	-65.193	0.207	0.107
-575.733	-33.306	0.117	-0.084
-574.719	21.508	-0.190	-0.199
-573.704	-46.884	-0.095	0.060
-572.690	-115.309	0.291	-0.071
-571.675	-84.019	-0.585	-0.239
-570.661	540.971	0.140	-0.432
-569.646	85.599	-0.175	0.250
-568.631	-94.877	-0.522	-0.182
-567.617	387.587	0.190	0.510
-566.602	-6.245	0.054	0.047
-565.588	443.227	-0.128	0.364
-564.573	91.662	-0.229	-0.334
-563.558	-110.787	-0.469	-0.124
-562.544	-38.883	0.281	0.191
-561.529	800.000	-0.096	0.364
-560.515	6.784	0.187	-0.180
-559.500	-7.992	0.175	0.153
-558.485	18.378	-0.260	0.269
-557.471	-161.883	-0.280	-0.018
-556.456	-27.377	0.453	0.340
-555.442	-111.566	-0.299	0.078
-554.427	304.920	0.208	-0.501
-553.412	-3.111	0.161	-0.145
-552.398	-56.950	-0.067	0.038
-551.383	-64.239	0.322	0.169
-550.369	-3.426	-0.276	0.248
-549.354	-200.000	-0.010	0.163
-548.339	-177.640	-0.309	0.010
-547.325	727.238	-0.019	0.066
-546.310	23.378	0.244	0.259
-545.296	-68.731	-0.257	-0.128
-544.281	-134.278	-0.090	0.014
-543.266	18.357	-0.089	0.092
-542.252	-60.852	0.322	-0.176
-541.237	-165.635	0.305	0.017
-540.223	-41.587	0.270	-0.179
-539.208	-72.703	-0.633	-0.300
-538.193	-122.453	-0.613	0.128
-537.179	124.079	0.241	-0.393
-536.164	58.641	-0.459	-0.583
-535.150	-21.328	0.291	-0.229
-534.135	30.770	-0.167	0.185
-533.121	-135.253	0.352	0.054
-532.106	14.269	0.375	0.378
-531.091	-36.835	0.369	0.255
-530.077	-78.341	0.280	-0.123
-529.062	-25.287	0.405	0.309
-528.048	-200.000	-0.016	0.184
-527.033	298.266	-0.194	-0.462
-526.018	352.773	0.102	-0.263
-525.004	588.468	-0.091	-0.290
-523.989	149.967	0.204	-0.358
-522.975	-200.000	0.031	0.293
-521.960	-20.709	0.253	-0.200
-520.945	-80.967	-0.320	-0.136
-519.931	-31.242	-0.151	-0.109
-518.916	77.786	-0.015	0.021
-517.902	-90.558	0.230	0.085
-516.887	141.402	0.252	0.432
-515.872	153.404	-0.068	-0.121
-514.858	-0.909	-0.293	-0.268
-513.843	-200.000	-0.013	-0.439
-512.829	-174.496	0.119	0.004
-511.814	187.065	0.215	-0.415
-510.799	-125.068	-0.078	-0.015
-509.785	-92.182	0.509	0.185
-508.770	-192.005	-0.334	-0.004
-507.756	27.735	-0.079	0.086
-506.741	81.063	-0.314	0.438
-505.726	-74.870	-0.518	-0.239
-504.712	16.717	0.037	-0.038
-503.697	0.777	0.163	-0.151
-502.683	72.759	-0.110	-0.148
-501.668	-153.417	0.438	-0.039
-500.653	-26.650	0.386	-0.291
-499.639	-36.014	0.154	-0.107
-498.624	-133.189	-0.024	0.004
-497.610	-56.739	-0.757	0.430
-496.595	291.847	-0.038	0.089
-495.581	-43.046	-0.066	-0.043
-494.566	-140.738	0.132	-0.017
-493.551	800.000	-0.035	-0.148
-492.537	51.353	-0.072	0.089
-491.522	-158.222	0.811	0.060
-490.508	800.000	-0.034	-0.171
-489.493	357.345	0.126	0.325
-488.478	-75.222	0.302	0.138
-487.464	68.956	-0.129	0.171
-486.449	-40.967	0.227	0.151
-485.435	6.361	0.072	-0.069
-484.420	-112.626	-0.655	0.167
-483.405	-200.000	-0.030	0.638
-482.391	800.000	-0.129	0.468
-481.376	-108.104	-0.346	0.096
-480.362	-6.764	-0.029	0.025
-479.347	-123.902	-0.558	0.112
-478.332	-110.128	0.281	0.075
-477.318	-81.229	0.566	0.240
-476.303	800.000	0.017	-0.061
-475.289	157.812	-0.160	0.286
-474.274	-59.709	-0.322	-0.177
-473.259	17.307	0.446	-0.456
-472.245	112.259	0.150	-0.234
-471.230	-175.575	0.392	0.013
-470.216	-121.023	0.549	-0.118
-469.201	-132.540	0.669	0.110
-468.186	800.000	0.040	-0.199
-467.172	-125.627	-0.522	-0.101
-466.157	-0.684	0.268	-0.244
-465.143	303.713	0.224	-0.537
-464.128	81.991	-0.378	0.529
-463.113	-152.872	0.449	0.040
-462.099	171.041	-0.237	0.440
-461.084	-200.000	-0.716	-0.003
-460.070	800.000	0.064	-0.239
-459.055	231.536	-0.049	-0.104
-458.040	-53.204	0.291	-0.172
-457.026	-200.000	0.035	0.271
-456.011	-30.792	0.232	0.168
-454.997	622.142	0.126	0.412
-453.982	-98.081	0.350	-0.115
-452.968	205.456	-0.087	0.175
-451.953	-0.031	0.377	0.345
-450.938	8.827	-0.146	0.142
-449.924	-190.832	0.622	0.008
-448.909	254.548	-0.114	0.251
-447.895	-200.000	0.018	-0.111
-446.880	-63.944	0.341	0.179
-445.865	-45.490	-0.332	-0.211
-444.851	-200.000	-0.040	-0.242
-443.836	-200.000	0.016	-0.154
-442.822	118.908	-0.199	-0.317
-441.807	-21.001	-0.221	-0.174
-440.792	49.755	0.089	0.108
-439.778	124.584	0.106	0.172
-438.763	281.492	0.155	0.359
-437.749	-138.580	-0.658	0.092
-436.734	-91.441	-0.183	0.067
-435.719	-94.863	0.249	0.086
-434.705	-48.748	0.139	-0.085
-433.690	-34.801	-0.110	0.077
-432.676	204.431	-0.369	-0.739
-431.661	29.089	-0.375	0.409
-430.646	800.000	-0.087	0.422
-429.632	93.175	0.322	0.469
-428.617	346.310	-0.114	0.290
-427.603	-117.425	0.185	0.043
-426.588	59.112	0.260	0.329
-425.573	-149.249	-0.552	0.056
-424.559	-1.458	-0.379	-0.344
-423.544	-94.082	-0.324	-0.114
-422.530	-13.744	-0.141	-0.117
-421.515	-200.000	0.018	0.203
-420.500	-163.893	0.698	0.041
-419.486	-48.004	-0.356	0.221
-418.471	-90.676	-0.465	-0.172
-417.457	-167.212	-0.491	-0.025
-416.442	515.539	-0.067	0.203
-415.428	-33.250	0.113	-0.081
-414.413	55.414	-0.231	0.288
-413.398	-52.596	-0.377	0.224
-412.384	-53.742	-0.255	-0.149
-411.369	-200.000	-0.045	-0.280
-410.355	-55.306	-0.248	0.143
-409.340	-148.083	0.422	-0.044
-408.325	-102.337	0.477	-0.146
-407.311	-102.052	-0.105	-0.032
-406.296	544.280	0.161	-0.497
-405.282	-93.440	0.176	0.062
-404.267	-103.544	-0.279	-0.084
-403.252	6.368	-0.439	-0.419
-402.238	-200.000	0.015	0.423
-401.223	-170.727	-0.195	-0.009
-400.209	-65.130	-0.323	-0.167
-399.194	149.083	0.155	-0.270
-398.179	-139.372	-0.433	-0.059
-397.165	-133.297	-0.339	-0.054
-396.150	55.021	-0.180	-0.223
-395.136	-134.442	0.196	-0.031
-394.121	-134.717	-0.168	-0.026
-393.106	800.000	0.146	0.545
-392.092	3.214	-0.349	-0.326
-391.077	-200.000	-0.031	0.223
-390.063	-109.037	0.211	-0.057
-389.048	-61.033	0.601	0.325
-388.033	647.858	0.058	-0.193
-387.019	-67.440	0.277	0.139
-386.004	-72.205	0.218	0.103
-384.990	-51.295	-0.173	-0.104
-383.975	-134.517	0.868	0.135
-382.960	800.000	-0.056	-0.218
-381.946	24.139	0.445	-0.472
-380.931	736.868	-0.069	0.238
-379.917	28.079	-0.152	-0.165
-378.902	-93.896	-0.668	0.235
-377.888	103.243	-0.216	0.326
-376.873	-44.760	0.446	0.285
-375.858	-200.000	-0.014	0.167
-374.844	-93.143	0.107	0.038
-373.829	-70.242	0.366	0.178
-372.815	-0.594	-0.208	-0.189
-371.800	61.219	0.079	-0.101
-370.785	-123.502	-0.098	0.020
-369.771	6.915	-0.451	-0.431
-368.756	576.403	0.055	-0.174
-367.742	-15.087	-0.239	-0.196
-366.727	800.000	-0.137	-0.554
-365.712	-160.568	-0.031	0.002
-364.698	593.276	0.046	0.147
-363.683	-36.124	-0.571	0.395
-362.669	485.012	0.074	0.218
-361.654	800.000	-0.032	-0.149
-360.639	71.352	0.274	-0.365
-359.625	196.738	0.115	0.226
-358.610	-73.576	-0.177	0.083
-357.596	-20.365	-0.076	0.060
-356.581	149.877	-0.186	0.324
-355.566	-6.858	-0.145	0.126
-354.552	-200.000	0.018	0.396
-353.537	-200.000	-0.277	-0.001
-352.523	-27.130	0.415	0.310
-351.508	149.623	0.110	0.192
-350.493	125.691	-0.141	-0.229
-349.479	800.000	-0.117	-0.440
-348.464	-200.000	-0.004	0.211
-347.450	66.904	0.088	0.115
-346.435	800.000	-0.045	0.246
-345.420	-64.266	0.359	-0.187
-344.406	-173.046	0.739	0.029
-343.391	-114.342	-0.142	0.035
-342.377	-93.348	0.305	-0.108
-341.362	-113.487	0.179	-0.045
-340.348	-92.456	0.092	-0.033
-339.333	800.000	-0.117	-0.615
-338.318	105.447	0.169	-0.256
-337.304	-95.624	-0.155	0.053
-336.289	-115.353	-0.507	0.122
-335.275	-73.102	-0.286	-0.134
-334.260	76.054	-0.267	-0.362
-333.245	13.389	0.366	-0.363
-332.231	-107.426	-0.427	-0.119
-331.216	-58.181	-0.293	-0.163
-330.202	-153.733	-0.327	-0.028
-329.187	-126.002	-0.226	-0.043
-328.172	-24.461	0.277	0.211
-327.158	-200.000	-0.038	-0.368
-326.143	161.235	0.039	-0.070
-325.129	-129.053	-0.019	-0.003
-324.114	110.263	0.184	0.284
-323.099	244.381	-0.068	-0.148
-322.085	285.314	-0.076	0.176
-321.070	726.862	-0.060	0.207
-320.056	607.909	-0.062	-0.200
-319.041	800.000	0.015	0.057
-318.026	40.055	0.124	0.143
-317.012	800.000	-0.079	0.324
-315.997	-17.294	0.303	0.244
-314.983	447.312	0.174	0.494
-313.968	800.000	0.061	0.302
-312.953	104.756	0.277	0.419
-311.939	504.035	-0.028	0.084
-310.924	-20.681	0.722	-0.566
-309.910	-69.194	-0.365	-0.179
-308.895	-88.065	-0.483	-0.185
-307.880	-3.123	-0.336	-0.300
-306.866	-200.000	0.083	-0.485
-305.851	180.920	0.015	-0.029
-304.837	-103.581	0.392	0.117
-303.822	20.583	-0.073	-0.075
-302.807	133.122	0.171	0.284
-301.793	-200.000	0.016	0.167
-300.778	13.548	-0.128	0.127
-299.764	-117.165	0.331	0.076
-298.749	800.000	0.045	0.233
-297.735	107.035	-0.069	-0.105
-296.720	11.957	-0.249	-0.244
-295.705	800.000	-0.103	-0.565
-294.691	-109.555	0.481	0.129
-293.676	800.000	0.063	0.232
-292.662	789.022	-0.046	-0.161
-291.647	220.637	0.105	0.215
-290.632	800.000	-0.057	0.320
-289.618	-149.122	-0.114	0.012
-288.603	800.000	-0.114	0.412
-287.589	81.996	0.102	-0.142
-286.574	-51.397	-0.403	0.241
-285.559	64.794	0.079	0.102
-284.545	333.989	0.076	0.189
-283.530	-77.505	-0.405	-0.179
-282.516	-200.000	0.081	-0.625
-281.501	-160.220	0.169	0.012
-280.486	-89.689	0.678	0.253
-279.472	2.922	-0.246	-0.229
-278.457	-116.803	-0.607	0.141
-277.443	-79.071	0.375	0.162
-276.428	-200.000	0.017	0.102
-275.413	-95.452	0.178	-0.061
-274.399	-55.079	0.056	-0.032
-273.384	-200.000	0.009	0.067
-272.370	33.707	-0.194	-0.216
-271.355	313.136	0.088	0.212
-270.340	-114.942	0.356	-0.086
-269.326	102.602	0.272	0.408
-268.311	99.409	0.089	0.132
-267.297	-127.520	0.223	0.041
-266.282	-65.535	-0.453	0.232
-265.267	-52.306	0.337	0.199
-264.253	-27.779	-0.077	-0.057
-263.238	800.000	0.140	-0.584
-262.224	33.696	0.242	0.269
-261.209	148.370	-0.187	0.324
-260.195	17.300	-0.153	-0.155
-259.180	31.934	0.131	-0.144
-258.165	-166.174	-0.192	-0.010
-257.151	125.984	-0.187	0.303
-256.136	800.000	0.056	-0.200
-255.122	670.247	-0.087	-0.290
-254.107	-155.178	0.156	0.013
-253.092	-150.836	0.335	-0.032
-252.078	-69.325	-0.355	-0.173
-251.063	76.520	-0.200	-0.271
-250.049	143.455	-0.073	0.125
-249.034	-21.059	-0.224	0.175
-248.019	154.751	-0.197	-0.346
-247.005	129.592	-0.061	-0.099
-245.990	800.000	0.090	-0.406
-244.976	48.783	0.051	0.061
-243.961	40.512	-0.247	-0.284
-242.946	15.497	-0.218	-0.218
-241.932	141.199	0.189	-0.320
-240.917	-200.000	0.021	-0.191
-239.903	-80.903	0.371	0.157
-238.888	36.378	0.471	0.530
-237.873	-153.602	0.530	-0.046
-236.859	-12.597	0.022	0.019
-235.844	98.874	-0.139	0.205
-234.830	-33.961	0.337	-0.236
-233.815	-94.181	0.402	0.140
-232.800	800.000	0.058	0.236
-231.786	-64.784	0.122	0.063
-230.771	67.763	0.186	-0.243
-229.757	-45.817	-0.232	-0.146
-228.742	-142.247	-0.286	-0.036
-227.727	-200.000	-0.013	0.197
-226.713	-200.000	-0.044	0.309
-225.698	-130.876	-0.047	0.008
-224.684	91.883	-0.065	-0.093
-223.669	9.176	-0.404	0.390
-222.655	-44.560	0.044	0.028
-221.640	-54.245	-0.093	-0.054
-220.625	-132.497	0.291	0.047
-219.611	575.802	0.106	0.332
-218.596	-128.767	0.077	0.014
-217.582	-45.014	0.203	-0.129
-216.567	-113.593	0.504	-0.125
-215.552	-28.485	-0.222	0.163
-214.538	-125.131	-0.176	-0.034
-213.523	-108.274	0.585	0.160
-212.509	202.784	-0.156	0.309
-211.494	-200.000	-0.049	-0.599
-210.479	-70.840	0.077	-0.037
-209.465	-90.741	-0.062	-0.023
-208.450	127.245	-0.052	0.084
-207.436	-200.000	0.043	0.533
-206.421	-76.043	0.251	-0.112
-205.406	11.913	-0.259	-0.254
-204.392	800.000	0.059	-0.261
-203.377	800.000	0.101	-0.454
-202.363	-121.194	0.606	0.128
-201.348	-100.354	0.349	0.110
-200.333	9.442	0.233	0.225
-199.319	251.322	0.093	0.203
-198.304	-140.683	0.465	-0.061
-197.290	478.185	-0.154	0.446
-196.275	-110.761	-0.114	0.030
-195.260	274.750	0.183	-0.415
-194.246	-49.910	-0.178	-0.108
-193.231	-121.444	-0.506	-0.106
-192.217	-145.823	-0.108	-0.012
-191.202	659.038	0.094	-0.310
-190.187	-200.000	0.024	-0.588
-189.173	-134.485	0.359	0.055
-188.158	800.000	0.020	0.101
-187.144	64.055	0.068	-0.087
-186.129	-125.810	0.300	0.057
-185.114	62.329	0.227	0.290
-184.100	-145.264	-0.265	-0.030
-183.085	234.449	-0.089	-0.187
-182.071	-59.098	0.281	-0.154
-181.056	99.649	0.281	0.416
-180.042	-86.959	0.194	0.075
-179.027	-185.345	-0.058	0.001
-178.012	-18.659	0.293	-0.232
-176.998	-121.702	-0.248	-0.052
-175.983	-200.000	-0.033	-0.363
-174.969	-200.000	0.026	-0.193
-173.954	-87.824	0.141	-0.054
-172.939	-56.752	0.170	0.095
-171.925	-38.277	-0.448	-0.302
-170.910	190.474	-0.186	-0.357
-169.896	-75.045	-0.139	-0.063
-168.881	20.071	0.025	-0.025
-167.866	-200.000	-0.010	0.366
-166.852	-140.635	0.204	0.027
-165.837	-1.254	0.214	-0.192
-164.823	-200.000	-0.036	-0.355
-163.808	800.000	0.090	0.471
-162.793	34.022	0.370	-0.410
-161.779	-133.347	-0.847	-0.135
-160.764	-200.000	-0.683	-0.002
-159.750	-92.121	-0.294	-0.105
-158.735	-135.096	-0.469	-0.071
-157.720	738.979	0.061	-0.209
-156.706	-105.792	-0.705	0.201
-155.691	-200.000	-0.037	-0.237
-154.677	-11.324	-0.244	0.204
-153.662	-200.000	-0.016	0.215
-152.647	191.759	-0.187	0.359
-151.633	148.170	-0.319	-0.550
-150.618	-103.107	0.348	0.104
-149.604	-200.000	0.028	0.365
-148.589	-108.884	0.320	-0.087
-147.574	-2.715	0.109	-0.097
-146.560	-90.211	0.321	0.118
-145.545	43.080	0.169	-0.196
-144.531	-170.290	-0.509	-0.022
-143.516	-42.889	-0.316	0.204
-142.502	53.559	0.513	-0.626
-141.487	-156.608	0.526	-0.041
-140.472	800.000	0.175	-0.709
-139.458	-76.894	0.378	0.167
-138.443	-200.000	0.050	0.281
-137.429	234.952	-0.188	-0.397
-136.414	8.469	-0.076	0.073
-135.399	-200.000	0.015	0.392
-134.385	246.969	-0.110	0.236
-133.370	800.000	-0.208	0.798
-132.356	-1.543	0.331	-0.296
-131.341	175.124	0.125	-0.230
-130.326	292.005	0.107	-0.248
-129.312	-19.380	-0.031	-0.024
-128.297	-4.628	-0.262	0.229
-127.283	248.139	-0.217	0.469
-126.268	450.848	0.186	0.526
-125.253	-1.880	0.191	-0.171
-124.239	-200.000	-0.061	-0.362
-123.224	178.362	0.230	-0.429
-122.210	800.000	0.066	-0.249
-121.195	-100.835	0.102	-0.032
