DTS Sentinel unit serial number:	SN409020Multiplexer serial number:	ORYXHardware model number:	OX4-SRSoftware version number:	ORYX F/W v3.00 Oryx Data Collector v3.7.2.0data status	okinstallation	HaddamTimeLapsedifferential loss correction	single-endedforward channel	channel 3reverse channel	N/Adate	2011/06/22time	08:16:16forward acquisition time	30.00reverse acquisition time	0.00gamma	498.7831k internal	0.1773k external	0.1773temperature offset calibration	1.0074default loss term (dB/km)	0.3790temperature slope calibration	1.3530multiplexer offset coefficient	1.0000multiplexer slope coefficient	1.0000fibre end	0.00T internal ref (°C)	25.25T ext. ref 1 (°C)	24.12T ext. ref 2 (°C)	0.16length (m)	temperature (°C)	Stokes	anti-Stokes-747.200	332.937	-0.106	-0.271
-746.185	276.970	-0.114	0.267
-745.171	800.000	-0.031	0.146
-744.156	-200.000	0.070	0.595
-743.142	-140.447	-0.407	0.055
-742.127	-99.908	0.153	0.050
-741.112	800.000	-0.147	0.636
-740.098	400.623	0.081	0.224
-739.083	9.980	-0.116	0.115
-738.069	-200.000	0.037	0.512
-737.054	-109.438	-0.598	0.165
-736.039	-200.000	0.037	0.410
-735.025	800.000	0.077	0.331
-734.010	157.927	0.413	-0.753
-732.996	-55.533	-0.320	-0.187
-731.981	-173.328	0.424	-0.017
-730.966	-159.183	0.229	0.017
-729.952	-74.837	-0.371	-0.174
-728.937	-120.202	0.234	0.052
-727.923	-200.000	0.011	0.202
-726.908	-72.728	0.262	-0.126
-725.894	-80.561	-0.357	-0.155
-724.879	276.945	0.120	-0.280
-723.864	-200.000	-0.029	0.338
-722.850	-150.052	-0.110	0.011
-721.835	-84.838	-0.862	-0.353
-720.821	35.912	-0.281	-0.324
-719.806	-148.188	0.302	0.032
-718.791	-23.848	0.378	-0.296
-717.777	-91.392	0.235	0.087
-716.762	-76.352	-0.142	-0.065
-715.748	-79.945	0.360	0.157
-714.733	-200.000	0.003	0.142
-713.718	-34.160	-0.520	-0.373
-712.704	-200.000	-0.010	-0.146
-711.689	-1.703	0.200	-0.185
-710.675	31.141	-0.336	-0.377
-709.660	398.035	-0.135	-0.371
-708.645	-200.000	0.053	-0.539
-707.631	-123.105	-0.567	0.118
-706.616	-79.401	0.500	0.221
-705.602	-80.064	0.042	0.018
-704.587	-200.000	0.017	0.386
-703.572	-70.934	0.657	-0.322
-702.558	-3.074	-0.240	0.219
-701.543	350.698	0.183	-0.476
-700.529	800.000	0.040	0.191
-699.514	50.706	-0.519	0.644
-698.499	9.672	-0.188	0.186
-697.485	126.913	-0.108	-0.179
-696.470	-65.155	0.457	0.240
-695.456	-200.000	-0.009	0.058
-694.441	800.000	0.103	0.594
-693.426	52.919	-0.105	-0.131
-692.412	-24.098	-0.270	-0.211
-691.397	82.580	0.109	0.156
-690.383	-127.727	0.208	0.039
-689.368	152.161	0.139	-0.249
-688.354	-194.262	-0.192	0.002
-687.339	-33.122	-0.092	0.066
-686.324	-154.111	-0.282	-0.025
-685.310	-106.592	0.224	-0.065
-684.295	-199.359	-0.273	0.002
-683.281	-95.941	-0.469	0.163
-682.266	-128.730	0.275	-0.050
-681.251	276.170	0.081	0.189
-680.237	-81.584	-0.364	0.156
-679.222	-51.729	-0.294	0.179
-678.208	-115.734	0.110	0.027
-677.193	800.000	-0.120	0.540
-676.178	-38.918	-0.548	0.377
-675.164	312.437	0.146	-0.360
-674.149	-97.448	-0.209	-0.071
-673.135	800.000	-0.038	0.208
-672.120	217.538	0.128	0.267
-671.105	121.700	0.238	0.388
-670.091	23.948	0.112	0.121
-669.076	-200.000	0.001	0.030
-668.062	-36.580	0.362	-0.254
-667.047	6.653	-0.324	-0.315
-666.032	-177.199	0.195	-0.006
-665.018	-35.772	0.173	-0.122
-664.003	-75.962	-0.108	-0.050
-662.989	469.016	-0.105	0.310
-661.974	800.000	0.046	0.211
-660.959	245.606	-0.272	0.602
-659.945	118.523	0.368	0.596
-658.930	-47.062	0.280	-0.178
-657.916	-89.043	-0.387	-0.149
-656.901	800.000	0.015	-0.061
-655.886	-47.905	-0.421	0.266
-654.872	302.841	0.185	-0.449
-653.857	-200.000	-0.013	-0.332
-652.843	800.000	0.038	0.203
-651.828	81.224	0.212	-0.300
-650.814	298.992	-0.093	-0.225
-649.799	-72.914	0.083	-0.040
-648.784	61.462	-0.128	0.166
-647.770	127.916	-0.198	-0.330
-646.755	50.458	-0.048	0.059
-645.741	-103.992	0.140	0.042
-644.726	-176.758	-0.337	-0.011
-643.711	532.762	0.088	0.273
-642.697	-17.233	-0.144	0.119
-641.682	-65.040	-0.196	-0.103
-640.668	-84.252	0.224	0.092
-639.653	290.714	-0.161	-0.384
-638.638	-118.612	-0.192	0.044
-637.624	107.020	0.126	-0.195
-636.609	-22.606	0.575	0.453
-635.595	279.343	0.069	-0.161
-634.580	214.214	-0.099	0.205
-633.565	-7.302	0.178	-0.158
-632.551	51.829	-0.395	-0.492
-631.536	-160.396	-0.483	0.033
-630.522	-156.456	0.265	0.021
-629.507	-41.145	-0.272	0.183
-628.492	-71.665	-0.217	0.105
-627.478	-17.490	-0.377	-0.309
-626.463	-96.248	0.171	0.059
-625.449	246.502	0.181	-0.401
-624.434	-126.613	-0.261	0.050
-623.419	-168.927	-0.266	-0.013
-622.405	-6.435	0.129	-0.115
-621.390	-11.834	0.389	0.332
-620.376	-154.369	-0.324	0.028
-619.361	-39.551	-0.283	0.193
-618.346	182.440	-0.073	-0.141
-617.332	-162.236	-0.446	0.029
-616.317	800.000	0.057	0.228
-615.303	-17.458	0.414	0.339
-614.288	-102.171	-0.331	0.103
-613.273	650.559	0.200	0.673
-612.259	176.638	0.363	0.690
-611.244	35.216	-0.153	-0.175
-610.230	-111.509	-0.378	0.100
-609.215	-63.938	0.175	0.093
-608.201	-5.429	0.395	-0.353
-607.186	800.000	0.049	0.231
-606.171	-35.355	-0.296	-0.210
-605.157	-200.000	0.013	0.098
-604.142	-107.825	-0.150	0.042
-603.128	-87.389	-0.536	-0.211
-602.113	-171.702	-0.270	0.011
-601.098	-154.211	0.060	-0.005
-600.084	-47.805	-0.217	-0.137
-599.069	-153.839	-0.195	0.017
-598.055	-13.120	0.110	0.093
-597.040	800.000	0.122	-0.494
-596.025	-50.666	-0.129	0.079
-595.011	243.363	0.256	-0.562
-593.996	-200.000	0.038	-0.247
-592.982	-15.769	0.356	0.295
-591.967	118.724	0.157	-0.253
-590.952	-200.000	0.014	0.295
-589.938	-156.372	0.138	0.011
-588.923	118.011	-0.190	-0.306
-587.909	98.971	-0.207	-0.312
-586.894	602.423	0.109	-0.357
-585.879	-200.000	0.022	0.168
-584.865	263.141	-0.128	0.290
-583.850	-113.828	0.293	0.074
-582.836	387.745	-0.105	0.286
-581.821	-71.680	-0.203	0.099
-580.806	539.460	-0.096	-0.301
-579.792	-4.922	-0.189	-0.169
-578.777	-200.000	-0.011	0.175
-577.763	18.288	-0.065	-0.068
-576.748	-25.427	-0.378	0.291
-575.733	107.306	0.266	-0.413
-574.719	70.862	0.164	-0.222
-573.704	-200.000	-0.019	-0.320
-572.690	-32.083	0.474	0.344
-571.675	-16.305	0.094	0.078
-570.661	-47.040	0.456	-0.289
-569.646	-200.000	0.032	0.225
-568.631	-110.874	-0.102	0.027
-567.617	-18.404	-0.035	-0.029
-566.602	-52.982	-0.020	0.012
-565.588	127.782	-0.023	-0.038
-564.573	201.655	0.008	-0.017
-563.558	800.000	-0.108	-0.423
-562.544	-2.391	0.173	0.158
-561.529	-147.530	-0.524	0.057
-560.515	309.221	0.123	0.300
-559.500	-28.768	0.197	-0.147
-558.485	-16.376	-0.183	-0.151
-557.471	800.000	0.104	0.378
-556.456	-200.000	0.015	-0.241
-555.442	84.792	0.117	0.167
-554.427	423.195	-0.098	0.274
-553.412	-200.000	0.034	-0.317
-552.398	-200.000	-0.001	0.151
-551.383	434.990	-0.159	-0.451
-550.369	-98.808	0.403	-0.133
-549.354	-114.963	0.345	-0.085
-548.339	-200.000	0.014	0.269
-547.325	-21.311	-0.244	0.194
-546.310	-165.097	-0.402	-0.023
-545.296	800.000	-0.029	-0.157
-544.281	-200.000	0.022	0.152
-543.266	-200.000	-0.005	0.083
-542.252	800.000	-0.084	-0.319
-541.237	105.428	-0.214	-0.330
-540.223	177.541	-0.063	0.119
-539.208	-5.985	0.161	0.143
-538.193	-14.566	0.316	0.264
-537.179	-138.523	0.123	-0.017
-536.164	12.699	-0.020	-0.020
-535.150	-86.730	-0.280	-0.111
-534.135	378.911	0.030	-0.081
-533.121	-59.316	-0.570	0.318
-532.106	83.115	-0.158	-0.224
-531.091	-106.639	0.378	0.109
-530.077	800.000	0.139	0.652
-529.062	-14.060	0.118	-0.099
-528.048	-36.830	0.250	0.174
-527.033	312.536	0.133	0.327
-526.018	-80.858	-0.239	-0.103
-525.004	139.219	-0.101	-0.173
-523.989	137.946	0.265	0.453
-522.975	-52.314	0.278	-0.167
-521.960	-87.945	0.294	-0.114
-520.945	-61.261	0.295	0.161
-519.931	800.000	-0.108	-0.393
-518.916	-106.801	-0.265	-0.076
-517.902	800.000	0.028	-0.141
-516.887	-67.616	-0.361	0.183
-515.872	-24.085	0.312	0.242
-514.858	-200.000	-0.008	-0.464
-513.843	159.617	0.069	-0.126
-512.829	-60.023	-0.282	-0.156
-511.814	-200.000	0.011	-0.129
-510.799	-43.170	-0.175	0.115
-509.785	212.466	-0.130	0.267
-508.770	-72.142	0.215	-0.103
-507.756	-99.388	-0.307	0.100
-506.741	55.771	0.352	0.443
-505.726	800.000	-0.110	0.581
-504.712	-10.070	-0.338	0.292
-503.697	-67.789	0.232	-0.117
-502.683	-102.427	0.490	-0.151
-501.668	91.170	-0.391	-0.570
-500.653	-44.255	-0.322	0.209
-499.639	-200.000	0.001	-0.148
-498.624	-70.428	-0.140	0.069
-497.610	-200.000	-0.025	0.198
-496.595	-95.472	0.454	-0.157
-495.581	-200.000	0.007	-0.699
-494.566	255.666	-0.162	-0.362
-493.551	237.011	0.198	-0.428
-492.537	-98.879	0.335	-0.110
-491.522	50.450	0.331	-0.407
-490.508	309.192	-0.145	-0.354
-489.493	-26.160	0.189	-0.144
-488.478	-91.290	0.610	-0.225
-487.464	-35.788	0.160	0.112
-486.449	83.304	-0.300	-0.425
-485.435	-92.762	-0.432	-0.156
-484.420	-200.000	-0.012	-0.159
-483.405	800.000	0.096	-0.502
-482.391	-174.088	0.191	0.007
-481.376	59.908	0.353	-0.453
-480.362	148.446	0.162	-0.284
-479.347	6.883	-0.276	-0.266
-478.332	-200.000	-0.004	0.034
-477.318	800.000	-0.054	0.235
-476.303	-190.770	0.463	-0.006
-475.289	-42.708	-0.122	-0.080
-474.274	50.851	-0.056	0.069
-473.259	124.858	-0.147	-0.241
-472.245	-36.377	-0.503	0.351
-471.230	800.000	0.107	-0.395
-470.216	-17.337	-0.134	-0.110
-469.201	99.386	-0.200	-0.301
-468.186	237.567	0.303	0.654
-467.172	-49.419	-0.328	-0.202
-466.157	-81.991	-0.050	-0.021
-465.143	-100.357	-0.277	-0.089
-464.128	-103.877	0.360	0.108
-463.113	214.329	0.143	-0.295
-462.099	800.000	0.074	-0.347
-461.084	-200.000	0.088	-0.522
-460.070	800.000	0.077	-0.278
-459.055	-88.167	0.391	-0.151
-458.040	-158.370	-0.162	0.012
-457.026	-200.000	-0.005	-0.146
-456.011	-120.642	0.435	0.095
-454.997	-68.983	-0.108	-0.054
-453.982	19.289	0.209	0.218
-452.968	8.833	-0.385	0.377
-451.953	-9.034	0.185	-0.160
-450.938	232.266	0.220	-0.471
-449.924	-24.605	-0.161	0.124
-448.909	-10.168	0.431	-0.371
-447.895	86.443	-0.302	0.433
-446.880	-200.000	-0.002	0.063
-445.865	-45.727	0.296	-0.189
-444.851	-75.295	-0.274	-0.126
-443.836	113.610	-0.169	0.266
-442.822	458.574	-0.114	-0.331
-441.807	-119.718	0.144	0.032
-440.792	-67.926	-0.160	0.081
-439.778	-92.121	-0.234	-0.085
-438.763	800.000	0.066	0.354
-437.749	-149.834	-0.174	-0.017
-436.734	-148.265	-0.329	-0.035
-435.719	800.000	0.128	0.568
-434.705	682.538	0.063	0.214
-433.690	-48.849	0.087	-0.054
-432.676	-78.706	-0.101	0.044
-431.661	-87.850	-0.153	0.059
-430.646	162.148	-0.010	0.018
-429.632	-176.463	0.244	-0.008
-428.617	-6.901	-0.307	-0.270
-427.603	50.434	-0.293	-0.360
-426.588	-69.871	-0.328	0.161
-425.573	-159.554	0.175	0.012
-424.559	-200.000	0.009	-0.161
-423.544	91.647	0.142	0.208
-422.530	500.035	0.125	-0.376
-421.515	-200.000	-0.043	0.277
-420.500	172.886	0.378	0.708
-419.486	-17.355	-0.155	0.126
-418.471	-45.041	-0.287	0.184
-417.457	-97.291	-0.064	0.021
-416.442	67.721	0.064	0.084
-415.428	-80.667	-0.490	-0.210
-414.413	800.000	-0.050	-0.282
-413.398	-200.000	0.089	0.574
-412.384	800.000	-0.051	0.221
-411.369	-200.000	0.022	0.242
-410.355	800.000	-0.109	0.448
-409.340	-200.000	-0.061	0.438
-408.325	2.683	-0.104	0.098
-407.311	10.043	0.259	0.254
-406.296	93.617	-0.254	0.372
-405.282	91.249	0.064	-0.093
-404.267	156.094	0.311	0.557
-403.252	-188.892	0.334	0.005
-402.238	102.805	-0.338	0.513
-401.223	127.707	-0.418	0.689
-400.209	-111.905	0.523	0.136
-399.194	-188.732	-0.278	0.004
-398.179	6.575	-0.133	0.128
-397.165	-200.000	-0.009	0.476
-396.150	118.065	0.156	-0.249
-395.136	-13.152	-0.274	-0.230
-394.121	800.000	-0.041	0.171
-393.106	205.211	0.087	0.175
-392.092	-13.510	-0.293	0.245
-391.077	-187.219	-0.528	0.009
-390.063	49.845	0.045	-0.055
-389.048	128.847	0.298	0.493
-388.033	-200.000	0.067	-0.535
-387.019	-123.882	-0.782	-0.158
-386.004	-91.858	-0.061	-0.022
-384.990	-27.651	0.463	0.347
-383.975	-2.042	0.135	-0.123
-382.960	322.456	-0.175	0.432
-381.946	-165.253	0.452	0.025
-380.931	-200.000	-0.008	0.217
-379.917	-150.409	-0.315	-0.031
-378.902	-10.715	-0.142	0.121
-377.888	300.094	0.162	-0.387
-376.873	160.628	0.069	-0.124
-375.858	-107.009	-0.425	0.121
-374.844	12.912	-0.518	0.518
-373.829	154.182	-0.210	0.373
-372.815	-146.473	-0.184	0.020
-371.800	-120.092	0.276	-0.061
-370.785	190.380	0.085	0.165
-369.771	-108.325	-0.210	-0.058
-368.756	383.190	0.131	0.349
-367.742	-128.495	0.288	0.052
-366.727	-111.732	-0.387	0.101
-365.712	477.530	0.144	0.424
-364.698	84.587	-0.295	-0.418
-363.683	-159.098	0.567	-0.041
-362.669	-53.607	-0.182	0.107
-361.654	73.477	-0.254	0.344
-360.639	-121.497	0.517	0.110
-359.625	800.000	0.107	-0.412
-358.610	-200.000	0.025	0.281
-357.596	357.363	0.178	0.462
-356.581	-41.605	0.021	-0.014
-355.566	-200.000	-0.008	-0.164
-354.552	-200.000	-0.031	0.459
-353.537	145.932	-0.174	-0.302
-352.523	-58.139	-0.551	-0.309
-351.508	-79.221	-0.261	-0.114
-350.493	14.814	-0.286	-0.288
-349.479	-200.000	-0.013	-0.268
-348.464	-180.964	0.272	0.007
-347.450	-128.322	-0.249	0.045
-346.435	6.009	0.262	-0.251
-345.420	255.330	-0.099	-0.221
-344.406	-120.564	-0.166	0.036
-343.391	-171.472	0.487	-0.021
-342.377	800.000	-0.087	0.320
-341.362	367.307	0.097	0.253
-340.348	-55.849	-0.500	-0.288
-339.333	-95.713	0.197	-0.068
-338.318	-200.000	-0.009	-0.154
-337.304	800.000	0.072	0.298
-336.289	800.000	-0.054	-0.221
-335.275	19.899	-0.366	0.381
-334.260	60.176	0.370	-0.473
-333.245	-149.347	0.454	-0.046
-332.231	68.752	-0.199	-0.264
-331.216	-128.226	-0.149	0.027
-330.202	368.681	-0.013	0.035
-329.187	6.378	0.320	0.306
-328.172	62.132	-0.224	0.289
-327.158	50.182	0.258	0.315
-326.143	-101.230	0.224	-0.070
-325.129	800.000	0.041	-0.229
-324.114	-62.647	0.244	-0.130
-323.099	225.297	-0.146	-0.306
-322.085	-22.736	0.413	-0.321
-321.070	321.744	0.014	0.034
-320.056	81.613	-0.044	-0.062
-319.041	-200.000	-0.018	-0.199
-318.026	-105.681	0.406	0.118
-317.012	-113.560	-0.247	0.062
-315.997	-122.638	0.053	0.011
-314.983	-116.090	-0.320	0.076
-313.968	12.126	-0.331	-0.328
-312.953	-200.000	0.014	-0.193
-311.939	-47.981	0.311	0.194
-310.924	-200.000	-0.019	-0.225
-309.910	-17.715	-0.439	0.355
-308.895	678.928	-0.128	0.433
-307.880	-124.373	-0.543	-0.108
-306.866	214.750	-0.298	0.612
-305.851	109.853	-0.148	0.230
-304.837	241.403	-0.058	-0.126
-303.822	-119.857	-0.103	0.023
-302.807	-72.925	-0.367	-0.173
-301.793	134.768	0.136	-0.228
-300.778	-1.022	-0.214	0.195
-299.764	-145.562	-0.374	0.043
-298.749	800.000	0.077	0.408
-297.735	361.701	0.209	0.542
-296.720	-63.504	0.408	0.215
-295.705	-62.256	0.601	-0.321
-294.691	216.136	0.200	-0.411
-293.676	800.000	-0.019	0.091
-292.662	100.659	0.222	-0.333
-291.647	800.000	0.037	-0.194
-290.632	-166.499	-0.525	0.028
-289.618	-62.448	0.363	-0.194
-288.603	-54.018	0.086	0.050
-287.589	62.277	0.092	-0.119
-286.574	-26.980	-0.165	-0.124
-285.559	-98.471	0.421	0.138
-284.545	13.557	0.513	0.512
-283.530	2.234	-0.170	0.158
-282.516	-96.657	0.319	0.108
-281.501	-184.391	0.198	-0.004
-280.486	168.696	-0.186	0.342
-279.472	386.019	-0.096	-0.256
-278.457	632.267	-0.034	0.112
-277.443	11.359	0.162	0.160
-276.428	50.709	0.289	-0.353
-275.413	-65.354	-0.383	-0.197
-274.399	-40.397	0.321	0.214
-273.384	-168.483	0.356	-0.017
-272.370	65.332	0.245	-0.320
-271.355	115.137	0.193	0.304
-270.340	-200.000	0.051	0.423
-269.326	-73.133	-0.355	-0.167
-268.311	493.492	-0.152	-0.450
-267.297	800.000	0.145	-0.581
-266.282	-88.547	0.354	0.135
-265.267	-200.000	-0.028	-0.442
-264.253	-200.000	-0.018	0.196
-263.238	-106.997	0.175	0.049
-262.224	74.947	-0.260	-0.353
-261.209	-200.000	-0.013	0.215
-260.195	-158.346	-0.283	-0.021
-259.180	800.000	-0.057	-0.254
-258.165	-127.620	-0.202	0.037
-257.151	59.131	-0.295	-0.375
-256.136	22.800	0.141	0.149
-255.122	-147.998	-0.201	-0.021
-254.107	800.000	0.053	0.261
-253.092	-34.735	0.113	0.079
-252.078	11.673	-0.216	0.213
-251.063	-159.711	-0.236	0.017
-250.049	-51.770	-0.223	-0.133
-249.034	-200.000	-0.063	-0.367
-248.019	33.649	0.101	0.113
-247.005	-68.899	0.334	-0.165
-245.990	6.094	0.260	-0.248
-244.976	532.892	-0.041	0.127
-243.961	173.090	-0.042	0.077
-242.946	-200.000	0.033	-0.231
-241.932	-129.340	0.120	-0.021
-240.917	128.071	0.219	-0.360
-239.903	-59.590	-0.305	-0.167
-238.888	-55.775	-0.133	-0.076
-237.873	150.520	0.205	0.359
-236.859	-63.176	0.245	0.130
-235.844	-156.793	0.354	0.028
-234.830	-26.779	0.779	-0.584
-233.815	114.752	-0.099	-0.155
-232.800	239.983	0.177	-0.381
-231.786	101.426	0.240	0.359
-230.771	-124.248	-0.456	-0.091
-229.757	-154.010	0.786	-0.068
-228.742	725.479	0.075	-0.257
-227.727	27.011	0.445	-0.480
-226.713	-113.193	0.318	0.080
-225.698	336.166	0.149	0.373
-224.684	32.098	-0.187	0.208
-223.669	800.000	-0.128	0.488
-222.655	-20.300	-0.361	0.285
-221.640	34.337	-0.154	0.173
-220.625	-116.666	-0.313	-0.073
-219.611	800.000	0.056	-0.224
-218.596	-200.000	0.018	-0.219
-217.582	-93.299	-0.254	-0.090
-216.567	-79.551	0.557	0.241
-215.552	-7.681	0.453	-0.393
-214.538	69.921	0.128	-0.170
-213.523	-12.635	0.330	0.276
-212.509	114.298	0.127	-0.200
-211.494	-76.728	-0.152	0.068
-210.479	96.490	-0.153	-0.225
-209.465	-114.594	-0.186	0.045
-208.450	264.608	0.102	-0.229
-207.436	501.064	0.049	-0.147
-206.421	326.980	-0.053	-0.131
-205.406	291.428	-0.165	0.387
-204.392	-36.777	0.226	0.155
-203.377	800.000	-0.063	-0.259
-202.363	800.000	-0.050	-0.239
-201.348	-91.614	0.422	0.153
-200.333	-20.497	0.184	-0.145
-199.319	-14.067	-0.299	0.248
-198.304	800.000	0.101	-0.403
-197.290	-200.000	-0.059	-0.359
-196.275	55.064	0.201	-0.250
-195.260	-126.603	-0.287	-0.054
-194.246	-72.484	-0.586	0.277
-193.231	18.214	0.326	0.333
-192.217	-100.996	-0.330	0.103
-191.202	567.228	-0.044	-0.139
-190.187	541.213	0.143	-0.441
-189.173	4.609	-0.277	0.261
-188.158	-53.701	-0.163	0.095
-187.144	-200.000	0.035	0.532
-186.129	800.000	0.100	0.451
-185.114	-53.721	0.193	0.113
-184.100	-200.000	0.032	0.282
-183.085	-83.590	-0.256	-0.105
-182.071	-95.657	0.375	0.128
-181.056	-116.631	0.243	-0.057
-180.042	-135.285	0.360	0.055
-179.027	-76.196	0.452	-0.204
-178.012	-38.736	-0.384	0.259
-176.998	-116.492	-0.594	-0.139
-175.983	-151.097	0.345	0.033
-174.969	48.903	-0.194	-0.233
-173.954	-116.642	0.241	0.057
-172.939	-128.218	-0.345	-0.063
-171.925	-97.260	0.245	0.082
-170.910	-62.536	-0.309	-0.164
-169.896	195.065	-0.155	-0.302
-168.881	-90.506	-0.382	0.141
-167.866	310.977	0.117	0.282
-166.852	800.000	-0.037	-0.202
-165.837	-77.734	-0.522	-0.230
-164.823	-172.498	0.533	0.021
-163.808	130.634	0.219	0.361
-162.793	-119.901	-0.486	0.106
-161.779	193.430	-0.220	-0.427
-160.764	800.000	-0.070	-0.339
-159.750	-130.927	0.506	0.086
-158.735	14.974	-0.299	0.300
-157.720	467.563	0.086	0.248
-156.706	-200.000	-0.053	-0.398
-155.691	-147.188	0.299	-0.032
-154.677	-200.000	0.012	0.254
-153.662	116.659	-0.171	0.269
-152.647	-152.777	0.295	-0.026
-151.633	-130.655	0.299	-0.051
-150.618	169.481	0.091	0.167
-149.604	-200.000	-0.037	-0.431
-148.589	226.830	-0.137	-0.285
-147.574	-200.000	0.008	-0.099
-146.560	347.664	0.172	0.437
-145.545	-114.170	0.521	0.128
-144.531	142.220	0.353	-0.602
-143.516	-200.000	-0.001	-0.274
-142.502	-139.822	-0.431	-0.058
-141.487	-200.000	0.020	-0.313
-140.472	357.520	0.087	-0.223
-139.458	-200.000	-0.052	-0.666
-138.443	-200.000	0.001	-0.104
-137.429	339.784	0.061	-0.152
-136.414	-135.562	0.194	-0.029
-135.399	0.096	0.217	0.198
-134.385	800.000	0.031	0.140
-133.370	-62.697	0.322	0.170
-132.356	519.659	0.100	-0.301
-131.341	-104.440	-0.282	0.083
-130.326	-57.666	0.173	-0.097
-129.312	23.513	-0.201	-0.212
-128.297	32.235	0.303	-0.335
-127.283	96.686	0.441	-0.648
-126.268	-31.188	-0.200	-0.144
-125.253	-27.453	-0.255	-0.190
-124.239	99.613	-0.130	0.193
-123.224	-2.761	0.201	-0.180
-122.210	710.627	0.145	-0.494
-121.195	-120.173	0.605	0.131
