DTS Sentinel unit serial number:	SN409020Multiplexer serial number:	ORYXHardware model number:	OX4-SRSoftware version number:	ORYX F/W v3.00 Oryx Data Collector v3.7.2.0data status	okinstallation	HaddamTimeLapsedifferential loss correction	single-endedforward channel	channel 3reverse channel	N/Adate	2011/06/22time	06:01:17forward acquisition time	30.00reverse acquisition time	0.00gamma	498.7831k internal	0.1751k external	0.1751temperature offset calibration	1.0074default loss term (dB/km)	0.3790temperature slope calibration	1.3530multiplexer offset coefficient	1.0000multiplexer slope coefficient	1.0000fibre end	0.00T internal ref (°C)	22.56T ext. ref 1 (°C)	18.06T ext. ref 2 (°C)	0.16length (m)	temperature (°C)	Stokes	anti-Stokes-747.200	-19.585	-0.309	0.254
-746.185	122.951	0.218	0.363
-745.171	-92.342	-0.320	-0.119
-744.156	-47.115	0.319	0.206
-743.142	-71.711	-0.144	0.071
-742.127	12.798	-0.045	0.046
-741.112	57.789	0.136	-0.177
-740.098	-67.938	0.264	0.136
-739.083	-108.588	-0.424	-0.120
-738.069	37.600	0.484	0.570
-737.054	-132.106	-0.146	0.025
-736.039	800.000	-0.102	0.422
-735.025	-181.536	-0.307	0.008
-734.010	87.224	-0.051	0.075
-732.996	381.574	-0.125	0.343
-731.981	-145.197	-0.662	0.079
-730.966	-28.383	0.217	0.166
-729.952	-90.968	0.375	0.142
-728.937	52.668	-0.197	0.250
-727.923	11.253	0.575	-0.583
-726.908	-133.979	-0.116	-0.019
-725.894	114.753	-0.156	-0.253
-724.879	331.638	-0.284	0.730
-723.864	209.842	0.098	-0.205
-722.850	800.000	0.083	-0.356
-721.835	258.682	-0.263	0.604
-720.821	212.556	0.200	-0.420
-719.806	-77.333	-0.436	-0.200
-718.791	-200.000	-0.016	-0.298
-717.777	-63.737	0.418	-0.226
-716.762	-34.587	-0.379	-0.275
-715.748	-200.000	0.006	-0.211
-714.733	44.896	0.074	0.091
-713.718	-120.244	-0.599	0.135
-712.704	800.000	0.065	-0.242
-711.689	-43.999	-0.411	-0.274
-710.675	89.193	-0.324	0.479
-709.660	453.404	-0.109	-0.322
-708.645	-52.449	0.293	0.179
-707.631	-3.276	0.045	0.042
-706.616	-130.144	-0.194	0.035
-705.602	-200.000	-0.015	0.238
-704.587	360.798	0.251	0.669
-703.572	-200.000	-0.003	-0.302
-702.558	38.371	-0.424	0.501
-701.543	-200.000	-0.016	-0.382
-700.529	10.483	-0.256	-0.259
-699.514	-18.552	0.115	-0.095
-698.499	-52.021	0.111	0.068
-697.485	-106.766	0.077	-0.023
-696.470	-88.830	0.462	-0.181
-695.456	659.797	0.065	-0.224
-694.441	-42.581	-0.544	-0.366
-693.426	313.076	-0.070	0.176
-692.412	-93.528	-0.525	-0.191
-691.397	-53.156	0.441	-0.267
-690.383	-138.289	-0.384	0.056
-689.368	-200.000	-0.074	0.511
-688.354	-200.000	-0.032	-0.478
-687.339	-200.000	-0.035	-0.475
-686.324	-93.246	0.120	-0.044
-685.310	-14.167	-0.236	0.202
-684.295	-200.000	0.056	0.725
-683.281	-99.869	0.131	-0.043
-682.266	279.606	0.080	-0.189
-681.251	-147.838	0.174	-0.019
-680.237	492.427	-0.068	0.209
-679.222	800.000	0.029	0.144
-678.208	157.007	0.160	-0.294
-677.193	41.303	-0.208	-0.250
-676.178	-190.342	0.172	-0.002
-675.164	-4.841	0.120	-0.109
-674.149	514.493	-0.201	-0.625
-673.135	339.243	0.055	-0.142
-672.120	-32.948	0.235	0.172
-671.105	195.564	0.106	0.213
-670.091	-120.801	0.261	0.058
-669.076	182.478	0.164	-0.322
-668.062	382.030	0.267	-0.730
-667.047	-122.916	0.812	0.172
-666.032	-122.970	-0.549	-0.116
-665.018	-200.000	0.014	0.527
-664.003	-59.733	-0.160	-0.090
-662.989	-137.221	-0.428	-0.064
-661.974	-154.792	-0.584	-0.051
-660.959	-200.000	-0.024	-0.314
-659.945	800.000	0.052	0.213
-658.930	-42.294	-0.335	0.226
-657.916	-174.158	0.286	-0.011
-656.901	-84.456	-0.260	-0.108
-655.886	-57.327	0.618	-0.359
-654.872	-45.836	-0.132	0.086
-653.857	-111.809	-0.447	0.119
-652.843	800.000	0.078	-0.355
-651.828	-191.024	-0.401	-0.005
-650.814	-100.777	-0.329	-0.106
-649.799	-140.703	-0.396	-0.054
-648.784	-39.414	-0.166	0.115
-647.770	-17.571	-0.033	0.027
-646.755	-36.881	-0.507	0.359
-645.741	234.719	-0.155	0.339
-644.726	220.607	-0.165	0.352
-643.711	13.607	-0.241	0.248
-642.697	-52.741	0.105	-0.064
-641.682	16.550	0.264	0.275
-640.668	-107.933	0.161	0.046
-639.653	11.165	0.154	-0.156
-638.638	-69.777	-0.620	-0.312
-637.624	-10.935	-0.105	0.092
-636.609	-12.764	0.446	0.384
-635.595	-200.000	-0.012	-0.221
-634.580	-43.006	-0.363	0.243
-633.565	546.268	-0.168	0.535
-632.551	119.390	0.174	0.286
-631.536	-89.367	0.104	0.040
-630.522	-48.078	-0.260	0.165
-629.507	800.000	-0.085	0.353
-628.492	-98.590	-0.156	-0.052
-627.478	307.867	0.004	0.010
-626.463	-123.914	-0.469	0.097
-625.449	-129.403	-0.159	-0.029
-624.434	-0.543	-0.055	0.052
-623.419	-30.432	-0.242	0.181
-622.405	-80.637	0.192	0.084
-621.390	-112.875	0.398	0.103
-620.376	-200.000	-0.009	-0.073
-619.361	31.287	0.240	-0.273
-618.346	800.000	0.063	0.307
-617.332	800.000	-0.027	-0.126
-616.317	87.139	0.068	0.099
-615.303	282.465	0.091	0.216
-614.288	92.723	0.238	-0.356
-613.273	-126.262	0.163	-0.032
-612.259	800.000	-0.053	0.193
-611.244	451.811	-0.095	-0.280
-610.230	-51.891	-0.233	-0.143
-609.215	-135.684	0.201	0.031
-608.201	-69.472	0.139	0.070
-607.186	224.402	-0.098	-0.211
-606.171	-200.000	0.009	0.244
-605.157	48.792	-0.034	-0.042
-604.142	-173.063	0.183	0.007
-603.128	-69.501	-0.050	0.025
-602.113	167.563	0.101	-0.191
-601.098	-176.085	-0.268	-0.009
-600.084	79.742	0.346	-0.491
-599.069	800.000	0.083	-0.332
-598.055	-200.000	0.024	0.261
-597.040	-140.633	0.200	0.027
-596.025	800.000	-0.114	-0.629
-595.011	21.401	0.124	0.133
-593.996	-117.766	0.320	0.075
-592.982	-141.661	-0.147	0.019
-591.967	4.936	0.308	-0.299
-590.952	-55.320	0.436	0.257
-589.938	27.900	0.216	-0.240
-588.923	-63.636	-0.453	-0.244
-587.909	-148.931	-0.328	-0.035
-586.894	120.345	-0.087	0.143
-585.879	-22.195	0.042	0.034
-584.865	192.618	0.076	-0.152
-583.850	16.666	-0.478	-0.499
-582.836	-31.236	0.386	0.287
-581.821	106.786	-0.224	0.351
-580.806	-112.565	-0.252	-0.066
-579.792	202.220	0.153	0.313
-578.777	-1.635	0.234	0.217
-577.763	779.580	0.075	-0.273
-576.748	-87.159	-0.362	0.144
-575.733	331.639	-0.060	-0.153
-574.719	56.080	-0.137	0.176
-573.704	-156.355	0.407	0.033
-572.690	800.000	-0.033	-0.161
-571.675	-144.695	-0.249	0.030
-570.661	143.226	-0.180	-0.317
-569.646	272.807	-0.037	-0.086
-568.631	-8.461	-0.141	0.125
-567.617	-200.000	0.029	0.352
-566.602	-53.007	0.411	-0.248
-565.588	16.730	0.432	-0.451
-564.573	-58.262	0.431	-0.247
-563.558	31.560	0.276	-0.314
-562.544	-128.860	-0.209	-0.038
-561.529	-164.339	0.386	0.023
-560.515	359.714	-0.200	-0.531
-559.500	76.195	0.265	-0.371
-558.485	665.856	-0.065	-0.223
-557.471	-165.432	-0.506	0.029
-556.456	482.826	0.066	0.198
-555.442	-7.466	-0.255	0.227
-554.427	-118.652	0.433	0.100
-553.412	471.337	0.124	0.370
-552.398	-71.701	0.223	-0.109
-551.383	193.723	0.276	-0.553
-550.369	-200.000	0.085	-0.588
-549.354	300.636	0.131	0.319
-548.339	25.746	0.088	0.096
-547.325	-200.000	0.031	-0.213
-546.310	-200.000	0.014	-0.174
-545.296	-142.839	0.153	-0.019
-544.281	-200.000	0.060	-0.407
-543.266	-200.000	0.025	-0.347
-542.252	800.000	-0.007	-0.027
-541.237	299.052	-0.110	-0.269
-540.223	398.625	0.019	-0.053
-539.208	800.000	-0.077	0.354
-538.193	-200.000	0.060	-0.449
-537.179	-200.000	-0.025	-0.148
-536.164	328.277	-0.133	-0.338
-535.150	-200.000	-0.008	-0.097
-534.135	-186.654	0.833	0.015
-533.121	-173.713	0.318	-0.012
-532.106	-11.999	-0.400	-0.345
-531.091	482.417	0.143	-0.429
-530.077	-99.878	0.552	-0.181
-529.062	-46.534	0.300	-0.193
-528.048	-114.502	0.587	-0.147
-527.033	-182.043	-0.166	-0.004
-526.018	-0.230	-0.056	0.052
-525.004	-23.244	-0.128	0.102
-523.989	-200.000	-0.026	0.165
-522.975	-49.022	0.091	-0.057
-521.960	252.502	-0.183	0.413
-520.945	-56.702	-0.319	-0.185
-519.931	-200.000	0.031	-0.515
-518.916	39.096	-0.100	0.118
-517.902	-39.358	-0.493	-0.340
-516.887	-200.000	-0.279	-0.002
-515.872	-100.580	-0.462	0.149
-514.858	-71.988	-0.363	0.177
-513.843	59.739	0.441	-0.573
-512.829	-67.179	-0.178	0.092
-511.814	-108.057	0.049	-0.014
-510.799	160.993	-0.275	-0.508
-509.785	-200.000	0.000	0.475
-508.770	1.744	-0.273	0.259
-507.756	140.336	0.056	-0.097
-506.741	-102.076	0.063	0.020
-505.726	448.306	-0.040	0.118
-504.712	118.349	0.028	0.045
-503.697	-176.130	0.451	0.015
-502.683	19.365	0.148	-0.157
-501.668	35.948	-0.249	-0.289
-500.653	85.658	0.257	-0.372
-499.639	-134.827	0.380	-0.060
-498.624	-89.363	-0.200	-0.077
-497.610	-87.319	-0.387	-0.154
-496.595	-69.217	-0.234	-0.118
-495.581	-75.529	0.295	-0.138
-494.566	-150.021	0.349	0.035
-493.551	800.000	-0.016	0.062
-492.537	197.613	-0.163	0.329
-491.522	-61.469	-0.283	0.156
-490.508	-200.000	-0.019	0.248
-489.493	-87.328	-0.141	0.056
-488.478	301.296	0.049	0.120
-487.464	-137.531	-0.092	-0.013
-486.449	291.168	0.040	0.097
-485.435	798.398	-0.069	-0.250
-484.420	206.840	-0.130	-0.266
-483.405	58.108	0.275	0.354
-482.391	800.000	0.054	0.277
-481.376	-25.304	0.023	-0.018
-480.362	61.296	0.171	0.224
-479.347	-9.878	-0.245	0.214
-478.332	112.187	0.162	-0.257
-477.318	-117.746	0.545	-0.128
-476.303	-150.700	-0.202	0.020
-475.289	-123.490	0.310	0.064
-474.274	-75.422	0.155	0.072
-473.259	-144.121	-0.298	0.036
-472.245	161.586	-0.100	-0.184
-471.230	93.542	0.217	0.324
-470.216	-84.928	0.478	0.196
-469.201	-200.000	0.201	-0.000
-468.186	-141.526	-0.233	-0.031
-467.172	-200.000	0.098	-0.596
-466.157	-200.000	0.024	0.194
-465.143	403.456	0.145	0.404
-464.128	-145.226	-0.187	0.022
-463.113	-60.762	-0.187	0.103
-462.099	-29.426	0.245	-0.184
-461.084	117.839	-0.152	0.247
-460.070	446.772	0.163	-0.475
-459.055	139.798	-0.061	-0.107
-458.040	121.163	0.161	0.264
-457.026	331.204	-0.058	0.147
-456.011	-180.189	-0.337	0.009
-454.997	-114.522	-0.526	-0.132
-453.982	-127.253	0.623	-0.119
-452.968	54.380	0.318	0.402
-451.953	37.690	-0.208	0.243
-450.938	-92.213	0.307	-0.113
-449.924	278.346	-0.214	0.503
-448.909	-200.000	0.002	-0.237
-447.895	300.012	0.108	0.263
-446.880	-89.629	0.450	0.172
-445.865	121.971	0.283	0.464
-444.851	-200.000	0.001	0.408
-443.836	-34.205	-0.435	0.313
-442.822	-176.095	-0.270	-0.009
-441.807	800.000	0.080	-0.408
-440.792	-101.311	0.192	0.061
-439.778	-46.921	-0.352	0.225
-438.763	154.523	-0.111	0.201
-437.749	-41.118	-0.074	0.050
-436.734	-82.044	-0.104	0.044
-435.719	42.003	0.225	-0.268
-434.705	-138.552	-0.331	-0.047
-433.690	631.853	0.053	0.179
-432.676	-200.000	-0.007	-0.050
-431.661	87.243	0.176	0.256
-430.646	800.000	-0.103	-0.485
-429.632	-21.368	-0.394	0.315
-428.617	-58.573	-0.240	0.136
-427.603	-151.461	-0.302	-0.029
-426.588	-88.290	-0.098	-0.038
-425.573	45.760	-0.074	-0.090
-424.559	87.202	0.310	-0.450
-423.544	800.000	0.039	-0.176
-422.530	-22.972	-0.364	-0.288
-421.515	800.000	-0.084	0.360
-420.500	169.755	-0.062	0.117
-419.486	712.540	0.120	0.420
-418.471	669.624	0.133	0.454
-417.457	72.848	-0.243	-0.332
-416.442	-10.148	0.183	-0.159
-415.428	-111.572	0.277	0.073
-414.413	346.176	0.078	-0.202
-413.398	-90.447	0.186	0.070
-412.384	-189.760	0.284	0.004
-411.369	146.639	0.228	0.402
-410.355	-145.437	0.132	0.015
-409.340	-68.526	0.512	0.259
-408.325	70.198	0.093	0.126
-407.311	800.000	-0.095	-0.410
-406.296	800.000	-0.075	0.426
-405.282	-200.000	0.068	0.439
-404.267	103.244	-0.042	-0.064
-403.252	-102.713	-0.339	-0.105
-402.238	-173.210	-0.137	-0.005
-401.223	-169.856	0.677	0.031
-400.209	-105.337	-0.377	-0.112
-399.194	110.895	-0.042	-0.066
-398.179	-50.022	-0.635	0.394
-397.165	-103.792	-0.315	0.096
-396.150	190.650	0.103	-0.204
-395.136	-99.619	0.222	0.073
-394.121	-73.372	0.294	0.140
-393.106	-200.000	-0.068	-0.517
-392.092	-91.138	-0.112	-0.042
-391.077	-200.000	-0.042	0.324
-390.063	76.555	-0.125	0.174
-389.048	-5.104	0.286	-0.258
-388.033	-86.896	0.131	-0.052
-387.019	800.000	-0.039	-0.165
-386.004	-87.524	-0.298	0.117
-384.990	-126.817	-0.110	0.021
-383.975	305.212	0.133	-0.326
-382.960	-135.244	0.353	0.055
-381.946	191.668	-0.257	-0.509
-380.931	-147.190	0.340	0.037
-379.917	-119.590	-0.271	0.061
-378.902	525.161	-0.148	-0.459
-377.888	-68.894	0.081	0.041
-376.873	-200.000	-0.003	-0.218
-375.858	123.279	-0.138	0.227
-374.844	-163.281	0.260	-0.016
-373.829	-82.204	-0.405	0.172
-372.815	-103.500	-0.270	0.082
-371.800	-1.721	0.221	-0.204
-370.785	2.137	-0.260	0.246
-369.771	25.537	-0.241	0.263
-368.756	-127.585	0.092	-0.017
-367.742	-200.000	0.005	-0.132
-366.727	-175.792	0.089	-0.003
-365.712	-200.000	-0.042	0.420
-364.698	-120.160	0.412	-0.091
-363.683	-50.383	0.322	-0.198
-362.669	-200.000	-0.008	-0.129
-361.654	170.502	0.071	-0.134
-360.639	-180.874	0.479	-0.012
-359.625	-16.318	0.144	-0.119
-358.610	120.727	-0.236	0.384
-357.596	800.000	-0.006	0.032
-356.581	-66.990	-0.742	-0.382
-355.566	-164.670	-0.286	0.017
-354.552	-125.771	-0.161	-0.032
-353.537	-17.945	0.127	0.104
-352.523	264.731	-0.072	0.165
-351.508	800.000	-0.083	0.417
-350.493	-54.655	-0.251	-0.148
-349.479	-88.891	-0.341	-0.132
-348.464	-84.269	0.526	-0.217
-347.450	-152.687	-0.197	-0.018
-346.435	-107.977	-0.343	0.097
-345.420	2.795	-0.465	0.441
-344.406	-200.000	0.015	-0.169
-343.391	10.756	-0.221	0.220
-342.377	800.000	-0.060	0.262
-341.362	-200.000	-0.004	0.177
-340.348	-200.000	0.002	0.381
-339.333	316.002	-0.077	-0.191
-338.318	-102.296	0.369	-0.115
-337.304	84.721	0.131	-0.188
-336.289	-113.149	-0.156	-0.040
-335.275	26.074	0.212	0.232
-334.260	-41.130	-0.447	-0.301
-333.245	455.477	0.205	0.596
-332.231	54.646	0.498	0.628
-331.216	-0.163	0.214	0.199
-330.202	-42.470	0.434	0.288
-329.187	96.217	0.071	0.106
-328.172	-182.464	0.199	0.005
-327.158	346.244	-0.126	0.325
-326.143	800.000	-0.027	0.123
-325.129	-111.166	-0.360	-0.096
-324.114	-200.000	0.001	0.226
-323.099	-200.000	-0.022	0.264
-322.085	-105.872	-0.279	0.082
-321.070	-22.559	-0.055	-0.043
-320.056	-158.893	-0.181	0.013
-319.041	41.994	0.304	-0.360
-318.026	-200.000	-0.013	-0.545
-317.012	240.944	0.148	0.324
-315.997	-33.531	-0.291	-0.210
-314.983	-132.464	0.086	-0.014
-313.968	159.247	-0.105	0.190
-312.953	-54.873	0.115	0.068
-311.939	75.477	-0.101	0.140
-310.924	-70.131	0.084	-0.042
-309.910	34.954	0.426	0.487
-308.895	-43.325	0.438	0.288
-307.880	800.000	-0.083	-0.356
-306.866	-4.212	-0.312	0.282
-305.851	143.302	-0.284	-0.494
-304.837	-200.000	0.009	-0.361
-303.822	-9.797	0.207	-0.180
-302.807	150.418	0.125	0.222
-301.793	-17.695	0.009	0.007
-300.778	-89.571	0.366	0.139
-299.764	-200.000	0.083	0.561
-298.749	-104.045	-0.366	-0.110
-297.735	-168.163	-0.613	0.031
-296.720	-32.387	-0.411	0.299
-295.705	-4.745	-0.327	0.294
-294.691	129.221	0.317	0.529
-293.676	766.929	-0.091	0.325
-292.662	10.010	0.052	0.051
-291.647	-96.838	0.136	-0.046
-290.632	-200.000	0.013	0.287
-289.618	-200.000	-0.056	-0.371
-288.603	52.118	0.027	0.034
-287.589	-97.234	-0.171	0.058
-286.574	-200.000	0.033	-0.506
-285.559	-200.000	-0.052	-0.367
-284.545	-8.498	0.135	0.118
-283.530	49.204	-0.307	0.377
-282.516	-200.000	0.076	0.497
-281.501	-200.000	0.001	-0.055
-280.486	-200.000	-0.018	-0.476
-279.472	-107.432	0.286	0.081
-278.457	68.230	-0.233	-0.311
-277.443	204.757	0.069	0.140
-276.428	2.116	0.238	0.224
-275.413	377.608	-0.103	-0.275
-274.399	-159.539	-0.295	-0.021
-273.384	-117.090	-0.140	-0.033
-272.370	-65.015	0.420	-0.220
-271.355	-200.000	0.035	0.561
-270.340	33.392	-0.139	-0.158
-269.326	-63.493	0.096	0.051
-268.311	-40.532	0.186	-0.125
-267.297	-93.377	-0.397	-0.143
-266.282	314.755	-0.063	-0.155
-265.267	32.944	0.209	0.236
-264.253	11.944	-0.215	-0.215
-263.238	8.501	-0.283	-0.277
-262.224	23.841	0.073	-0.078
-261.209	-123.683	-0.093	-0.019
-260.195	-95.404	0.184	0.064
-259.180	-68.211	-0.233	0.118
-258.165	800.000	-0.033	0.149
-257.151	269.816	-0.104	-0.239
-256.136	129.892	0.142	0.237
-255.122	-115.864	0.341	0.082
-254.107	26.664	-0.138	0.151
-253.092	-139.185	0.378	-0.053
-252.078	-16.019	0.244	0.202
-251.063	-20.049	-0.151	-0.121
-250.049	234.498	0.197	-0.424
-249.034	-200.000	-0.026	-0.194
-248.019	-200.000	-0.032	-0.433
-247.005	-24.136	0.317	-0.246
-245.990	-92.776	-0.347	0.126
-244.976	537.778	0.078	-0.243
-243.961	-39.859	0.598	0.406
-242.946	-114.038	-0.324	0.081
-241.932	-48.529	-0.383	0.239
-240.917	-77.481	-0.299	0.135
-239.903	-200.000	-0.204	0.001
-238.888	-10.571	-0.213	-0.184
-237.873	-53.838	-0.109	-0.065
-236.859	-74.803	-0.357	0.166
-235.844	-154.048	0.213	0.019
-234.830	-81.601	-0.133	0.056
-233.815	334.603	-0.202	-0.512
-232.800	-45.570	0.236	-0.151
-231.786	141.473	-0.083	-0.143
-230.771	-199.691	-0.116	-0.001
-229.757	-75.507	0.105	0.049
-228.742	-68.392	0.178	0.090
-227.727	24.819	0.236	-0.255
-226.713	-200.000	0.013	-0.292
-225.698	-119.897	0.472	-0.105
-224.684	-102.605	0.380	-0.117
-223.669	-40.073	-0.294	-0.199
-222.655	-106.399	-0.173	0.050
-221.640	-69.040	-0.175	-0.088
-220.625	-200.000	0.005	-0.082
-219.611	-145.960	0.196	-0.022
-218.596	-10.677	-0.242	-0.208
-217.582	800.000	0.040	0.146
-216.567	-200.000	0.017	0.293
-215.552	56.767	-0.311	0.395
-214.538	100.203	0.289	0.437
-213.523	-200.000	-0.013	0.270
-212.509	583.551	-0.038	0.122
-211.494	765.570	0.115	-0.409
-210.479	-40.053	0.490	0.332
-209.465	-141.520	-0.342	0.045
-208.450	-133.952	0.450	-0.072
-207.436	-7.452	0.101	0.089
-206.421	-200.000	-0.016	-0.461
-205.406	-87.129	0.250	0.099
-204.392	-169.929	-0.473	-0.022
-203.377	-192.855	0.074	0.001
-202.363	800.000	0.076	0.430
-201.348	-200.000	0.051	0.307
-200.333	-14.398	0.297	-0.248
-199.319	-117.601	0.281	0.065
-198.304	-134.457	0.162	0.026
-197.290	-108.982	-0.152	-0.042
-196.275	-200.000	0.014	-0.219
-195.260	-111.687	-0.143	-0.037
-194.246	-75.219	-0.452	-0.209
-193.231	-25.053	-0.294	0.226
-192.217	-88.302	-0.180	0.070
-191.202	252.589	-0.091	0.203
-190.187	-96.720	0.367	-0.125
-189.173	439.314	0.031	0.089
-188.158	800.000	-0.048	-0.233
-187.144	-82.764	-0.602	0.252
-186.129	-126.688	0.367	-0.070
-185.114	65.005	-0.141	-0.185
-184.100	412.135	0.092	0.256
-183.085	-200.000	0.045	-0.380
-182.071	23.253	-0.187	-0.199
-181.056	-200.000	0.025	0.178
-180.042	-11.155	0.427	0.366
-179.027	-86.257	0.362	-0.144
-178.012	223.748	0.234	-0.492
-176.998	659.500	-0.113	-0.379
-175.983	-76.525	-0.348	0.158
-174.969	73.609	-0.147	0.200
-173.954	-124.286	-0.215	-0.043
-172.939	9.573	0.098	0.097
-171.925	-108.624	-0.433	-0.120
-170.910	87.480	-0.239	-0.345
-169.896	40.801	-0.290	-0.340
-168.881	-132.710	0.176	-0.029
-167.866	-64.160	-0.165	0.087
-166.852	-200.000	-0.014	-0.438
-165.837	-124.830	0.177	-0.035
-164.823	800.000	0.026	-0.093
-163.808	-135.006	0.219	-0.034
-162.793	-188.377	-0.524	-0.008
-161.779	127.648	-0.162	-0.269
-160.764	-200.000	0.058	-0.414
-159.750	-144.471	0.376	0.045
-158.735	-129.918	-0.128	-0.023
-157.720	800.000	-0.046	0.170
-156.706	800.000	-0.054	0.259
-155.691	46.428	0.288	-0.346
-154.677	-3.273	0.309	-0.280
-153.662	-98.374	-0.345	-0.114
-152.647	-4.789	0.092	0.082
-151.633	-40.261	0.406	0.274
-150.618	800.000	-0.114	-0.541
-149.604	-81.449	0.415	-0.176
-148.589	412.406	0.160	0.443
-147.574	431.345	0.197	0.555
-146.560	195.337	-0.236	0.467
-145.545	-200.000	-0.020	-0.157
-144.531	-200.000	0.004	-0.268
-143.516	-142.857	-0.544	-0.068
-142.502	93.306	0.033	0.048
-141.487	292.768	-0.152	-0.361
-140.472	16.500	-0.222	-0.227
-139.458	-33.818	-0.171	-0.122
-138.443	-5.297	-0.409	-0.364
-137.429	-53.966	-0.187	0.110
-136.414	-134.294	0.481	-0.076
-135.399	-99.571	-0.305	-0.099
-134.385	-123.364	0.198	0.041
-133.370	-138.959	0.309	-0.043
-132.356	800.000	-0.057	-0.296
-131.341	-99.163	0.327	-0.106
-130.326	-52.965	-0.213	0.127
-129.312	-62.666	0.171	0.092
-128.297	176.806	0.271	-0.513
-127.283	22.135	-0.371	0.393
-126.268	-95.572	-0.392	0.135
-125.253	-29.883	-0.329	0.243
-124.239	-154.320	-0.607	0.052
-123.224	-121.815	-0.156	0.033
-122.210	-14.093	-0.190	0.158
