DTS Sentinel unit serial number:	SN409020Multiplexer serial number:	ORYXHardware model number:	OX4-SRSoftware version number:	ORYX F/W v3.00 Oryx Data Collector v3.7.2.0data status	okinstallation	HaddamTimeLapsedifferential loss correction	single-endedforward channel	channel 3reverse channel	N/Adate	2011/06/21time	22:06:17forward acquisition time	30.00reverse acquisition time	0.00gamma	498.7831k internal	0.1759k external	0.1759temperature offset calibration	1.0074default loss term (dB/km)	0.3790temperature slope calibration	1.3530multiplexer offset coefficient	1.0000multiplexer slope coefficient	1.0000fibre end	0.00T internal ref (°C)	24.78T ext. ref 1 (°C)	19.02T ext. ref 2 (°C)	0.04length (m)	temperature (°C)	Stokes	anti-Stokes-747.200	447.765	-0.105	-0.308
-746.185	219.728	-0.159	0.337
-745.171	41.135	-0.267	0.319
-744.156	48.298	-0.361	0.448
-743.142	71.838	-0.091	0.126
-742.127	4.024	-0.313	0.303
-741.112	49.326	-0.115	0.143
-740.098	-72.698	-0.393	0.191
-739.083	123.051	-0.132	-0.219
-738.069	-200.000	0.083	0.639
-737.054	-200.000	0.026	-0.521
-736.039	-116.728	-0.544	-0.131
-735.025	-159.038	-0.031	-0.002
-734.010	-108.050	0.263	-0.075
-732.996	-80.547	-0.265	-0.116
-731.981	188.026	0.178	-0.352
-730.966	-31.350	0.049	0.036
-729.952	-12.729	-0.132	0.113
-728.937	39.218	-0.404	-0.478
-727.923	46.607	0.045	0.055
-726.908	-100.109	0.335	0.110
-725.894	-136.714	-0.121	-0.018
-724.879	800.000	0.069	-0.293
-723.864	239.136	0.159	0.351
-722.850	-200.000	-0.021	-0.324
-721.835	-200.000	0.051	0.447
-720.821	-47.628	0.530	0.339
-719.806	-153.042	0.471	-0.043
-718.791	-79.620	-0.523	-0.232
-717.777	-200.000	-0.009	0.214
-716.762	-17.293	0.237	-0.197
-715.748	126.918	-0.117	-0.197
-714.733	139.593	-0.107	0.186
-713.718	51.568	-0.243	0.305
-712.704	24.180	-0.358	-0.390
-711.689	35.820	-0.108	0.126
-710.675	800.000	-0.051	-0.238
-709.660	-118.032	-0.661	0.155
-708.645	215.516	0.127	-0.268
-707.631	-27.520	0.229	-0.175
-706.616	-200.000	0.016	-0.208
-705.602	-95.960	0.128	-0.045
-704.587	-105.398	-0.379	-0.113
-703.572	161.842	0.243	-0.451
-702.558	-42.866	0.037	-0.025
-701.543	-49.399	-0.241	-0.151
-700.529	-200.000	0.017	-0.355
-699.514	800.000	-0.055	0.255
-698.499	-136.895	-0.531	-0.080
-697.485	-200.000	0.021	-0.150
-696.470	-200.000	-0.019	-0.373
-695.456	-73.402	-0.404	-0.194
-694.441	282.757	0.151	-0.359
-693.426	-31.991	-0.175	-0.129
-692.412	-72.390	-0.325	-0.158
-691.397	145.642	0.249	-0.441
-690.383	-141.547	-0.231	-0.030
-689.368	2.012	0.328	-0.312
-688.354	800.000	0.053	0.258
-687.339	-179.710	0.263	0.007
-686.324	127.033	0.091	0.152
-685.310	59.367	-0.234	0.304
-684.295	-200.000	0.018	-0.135
-683.281	-118.159	-0.110	-0.026
-682.266	509.305	-0.086	-0.266
-681.251	-200.000	0.045	-0.427
-680.237	-91.745	0.452	-0.169
-679.222	-136.641	-0.342	-0.052
-678.208	-13.361	0.220	0.188
-677.193	-74.326	-0.260	-0.123
-676.178	-55.163	-0.299	-0.177
-675.164	25.665	0.091	-0.100
-674.149	29.621	0.057	0.064
-673.135	-114.465	-0.103	0.026
-672.120	-200.000	-0.013	0.354
-671.105	-96.304	0.279	-0.097
-670.091	-200.000	0.007	0.088
-669.076	-111.626	0.121	-0.032
-668.062	74.591	0.083	0.115
-667.047	-95.380	-0.039	-0.014
-666.032	-142.559	-0.351	0.045
-665.018	-6.498	0.342	-0.307
-664.003	-169.587	0.402	0.019
-662.989	263.096	-0.208	-0.479
-661.974	76.189	-0.188	-0.263
-660.959	-47.977	-0.401	-0.255
-659.945	-54.694	-0.225	0.134
-658.930	211.679	-0.268	-0.557
-657.916	778.525	-0.121	-0.437
-656.901	296.869	-0.121	-0.294
-655.886	-200.000	-0.026	-0.253
-654.872	-13.763	-0.251	-0.213
-653.857	7.513	0.169	0.167
-652.843	800.000	0.148	-0.593
-651.828	111.087	0.101	-0.160
-650.814	-17.065	0.183	0.152
-649.799	-88.100	-0.169	-0.066
-648.784	363.033	-0.152	-0.405
-647.770	15.660	-0.105	0.109
-646.755	144.811	-0.127	-0.223
-645.741	800.000	-0.035	0.171
-644.726	-85.534	-0.259	-0.106
-643.711	-57.350	0.470	0.271
-642.697	-200.000	-0.048	0.308
-641.682	-99.475	-0.340	-0.112
-640.668	-121.327	0.505	0.110
-639.653	-117.595	-0.416	0.098
-638.638	44.881	0.130	0.157
-637.624	-93.639	0.841	0.304
-636.609	-134.867	0.411	0.065
-635.595	-82.149	-0.358	0.153
-634.580	-136.517	-0.549	-0.083
-633.565	-200.000	-0.045	0.424
-632.551	96.103	0.119	0.179
-631.536	40.160	-0.207	-0.246
-630.522	-44.723	0.019	-0.012
-629.507	-153.250	-0.386	-0.035
-628.492	45.803	0.321	0.391
-627.478	-200.000	-0.043	0.539
-626.463	656.786	0.003	-0.009
-625.449	10.597	-0.172	-0.172
-624.434	-31.769	-0.261	-0.192
-623.419	-117.946	-0.195	-0.046
-622.405	37.309	0.087	0.101
-621.390	5.947	0.282	0.274
-620.376	75.275	0.136	-0.189
-619.361	-56.684	0.444	0.258
-618.346	-200.000	-0.035	-0.213
-617.332	-200.000	-0.007	-0.174
-616.317	164.719	0.168	0.313
-615.303	685.570	0.243	0.838
-614.288	-19.039	0.418	0.342
-613.273	284.921	0.098	0.234
-612.259	283.072	-0.102	0.242
-611.244	-58.076	-0.297	0.170
-610.230	-127.348	0.438	-0.083
-609.215	-5.388	0.205	0.185
-608.201	-6.707	-0.245	0.220
-607.186	351.387	-0.096	0.252
-606.171	85.313	-0.073	0.106
-605.157	-200.000	-0.014	-0.636
-604.142	255.411	-0.089	0.202
-603.128	-57.445	0.145	0.083
-602.113	-200.000	0.002	0.255
-601.098	6.549	0.335	-0.327
-600.084	299.959	-0.196	-0.478
-599.069	-57.184	0.090	-0.052
-598.055	-119.562	-0.353	0.080
-597.040	-157.990	0.274	0.021
-596.025	84.024	0.221	-0.318
-595.011	-104.778	-0.345	-0.104
-593.996	-76.859	0.090	-0.041
-592.982	-105.476	-0.603	-0.179
-591.967	-88.713	0.212	0.082
-590.952	-48.064	-0.269	0.170
-589.938	127.679	-0.129	0.215
-588.923	436.844	0.175	-0.503
-587.909	-200.000	0.025	-0.355
-586.894	-200.000	0.004	-0.182
-585.879	-70.794	0.572	-0.282
-584.865	40.144	0.088	-0.104
-583.850	203.993	0.233	-0.475
-582.836	10.995	0.388	-0.390
-581.821	-200.000	0.008	-0.129
-580.806	215.981	-0.189	-0.395
-579.792	-124.837	-0.444	-0.089
-578.777	471.834	-0.169	0.503
-577.763	458.487	0.033	0.098
-576.748	-200.000	0.091	0.561
-575.733	559.179	-0.201	0.641
-574.719	328.218	-0.084	-0.212
-573.704	67.278	0.244	-0.327
-572.690	186.667	-0.348	-0.683
-571.675	-123.141	0.226	0.047
-570.661	138.716	-0.222	-0.384
-569.646	71.447	0.102	-0.139
-568.631	-111.362	0.131	0.035
-567.617	-22.147	0.374	0.298
-566.602	-200.000	0.009	0.523
-565.588	-107.572	0.311	0.089
-564.573	-66.614	0.232	0.120
-563.558	-16.568	-0.255	0.212
-562.544	-70.193	-0.344	0.171
-561.529	800.000	-0.018	0.085
-560.515	-200.000	0.015	0.419
-559.500	57.789	0.207	-0.266
-558.485	74.608	0.137	0.190
-557.471	197.337	0.050	0.100
-556.456	-41.926	-0.167	-0.112
-555.442	403.714	0.149	0.414
-554.427	557.418	-0.168	0.535
-553.412	142.747	0.163	0.284
-552.398	-62.133	0.256	-0.140
-551.383	-200.000	0.013	-0.269
-550.369	309.621	0.141	0.349
-549.354	-180.227	0.400	0.011
-548.339	58.204	-0.330	0.425
-547.325	-109.020	0.156	-0.043
-546.310	-200.000	-0.037	-0.345
-545.296	-23.448	-0.399	-0.314
-544.281	-130.901	0.305	-0.053
-543.266	260.231	0.130	-0.295
-542.252	-98.526	-0.067	-0.022
-541.237	-108.400	-0.289	0.081
-540.223	308.247	-0.143	-0.351
-539.208	-104.000	-0.313	0.095
-538.193	-143.313	0.082	0.010
-537.179	-40.715	0.203	0.137
-536.164	800.000	-0.037	-0.163
-535.150	-200.000	-0.023	0.272
-534.135	-6.352	-0.113	-0.101
-533.121	-182.183	0.159	-0.004
-532.106	800.000	0.070	-0.299
-531.091	207.944	0.137	0.281
-530.077	-69.683	0.196	0.098
-529.062	-200.000	-0.034	-0.263
-528.048	-154.798	0.752	0.064
-527.033	-55.319	0.091	0.054
-526.018	-37.543	0.255	-0.178
-525.004	-81.551	-0.215	-0.092
-523.989	-110.319	-0.304	0.082
-522.975	190.550	-0.082	0.161
-521.960	95.008	0.202	0.302
-520.945	-121.075	-0.303	0.066
-519.931	-53.084	-0.076	-0.046
-518.916	-14.069	-0.109	0.092
-517.902	-186.037	-0.516	0.010
-516.887	-149.471	0.257	-0.026
-515.872	-58.969	-0.053	0.030
-514.858	-123.764	0.170	-0.035
-513.843	15.926	-0.360	-0.372
-512.829	-115.390	-0.267	-0.065
-511.814	-9.006	-0.340	-0.298
-510.799	-3.919	-0.269	0.244
-509.785	-200.000	-0.034	0.224
-508.770	4.416	-0.186	-0.179
-507.756	800.000	-0.042	-0.217
-506.741	39.656	0.038	0.045
-505.726	-182.000	0.170	0.004
-504.712	-87.688	-0.433	0.170
-503.697	-131.361	0.266	-0.046
-502.683	389.869	0.098	-0.267
-501.668	800.000	-0.089	-0.400
-500.653	33.801	0.181	-0.207
-499.639	50.317	0.237	0.294
-498.624	27.492	0.259	0.285
-497.610	84.888	-0.144	0.207
-496.595	-103.505	-0.524	0.160
-495.581	-71.076	0.353	-0.173
-494.566	-200.000	-0.035	0.321
-493.551	-37.468	-0.224	0.156
-492.537	-200.000	0.014	0.240
-491.522	-127.357	-0.069	0.013
-490.508	37.299	-0.307	0.356
-489.493	-138.142	-0.239	-0.034
-488.478	52.625	-0.391	-0.490
-487.464	193.753	0.054	0.107
-486.449	-159.541	-0.407	-0.029
-485.435	9.780	0.059	-0.058
-484.420	-200.000	0.020	-0.275
-483.405	-62.026	0.337	0.184
-482.391	800.000	-0.034	0.192
-481.376	22.870	0.376	-0.403
-480.362	631.696	-0.136	-0.454
-479.347	189.434	0.160	-0.316
-478.332	-129.676	-0.264	0.047
-477.318	663.360	0.158	-0.537
-476.303	44.743	0.353	-0.425
-475.289	-97.895	0.342	-0.115
-474.274	-135.348	0.210	0.033
-473.259	69.455	0.080	0.108
-472.245	137.924	-0.164	-0.282
-471.230	-19.889	0.150	0.121
-470.216	-109.010	0.492	0.136
-469.201	-50.171	-0.608	-0.375
-468.186	10.211	-0.167	0.166
-467.172	-113.950	-0.307	0.077
-466.157	-13.702	-0.102	-0.087
-465.143	56.494	-0.127	0.162
-464.128	51.861	0.139	-0.173
-463.113	-28.726	0.192	-0.145
-462.099	-9.196	0.297	0.260
-461.084	-124.473	0.094	0.019
-460.070	-128.545	-0.259	0.048
-459.055	-103.314	-0.090	-0.028
-458.040	-79.485	-0.222	0.098
-457.026	-22.876	-0.228	0.179
-456.011	-27.540	0.366	-0.278
-454.997	800.000	0.100	0.391
-453.982	242.525	-0.070	-0.154
-452.968	-76.929	0.211	-0.096
-451.953	-12.648	-0.258	-0.219
-450.938	-104.568	0.300	-0.090
-449.924	12.940	0.213	0.215
-448.909	610.397	0.216	-0.709
-447.895	-10.641	-0.067	0.058
-446.880	8.967	-0.079	-0.078
-445.865	-200.000	0.001	-0.047
-444.851	-200.000	0.088	-0.578
-443.836	458.087	0.166	-0.486
-442.822	-133.250	0.316	-0.052
-441.807	-200.000	-0.017	0.324
-440.792	-16.871	0.331	-0.273
-439.778	-95.980	0.371	-0.128
-438.763	-200.000	0.041	0.513
-437.749	-200.000	0.035	-0.206
-436.734	-12.162	0.212	0.181
-435.719	-39.103	0.248	-0.170
-434.705	-14.605	-0.115	-0.097
-433.690	55.111	-0.145	-0.183
-432.676	-16.911	-0.230	0.190
-431.661	16.635	0.098	-0.101
-430.646	0.545	-0.107	0.100
-429.632	-133.372	0.318	0.052
-428.617	-48.542	-0.602	-0.377
-427.603	269.310	-0.100	0.230
-426.588	623.323	0.042	0.140
-425.573	-200.000	0.079	-0.594
-424.559	67.148	0.056	-0.074
-423.544	-27.494	-0.270	0.205
-422.530	-200.000	-0.028	-0.457
-421.515	-196.956	-0.432	0.004
-420.500	-151.144	0.539	-0.052
-419.486	175.972	-0.229	0.435
-418.471	-200.000	-0.029	0.276
-417.457	-102.772	0.154	0.048
-416.442	-116.800	-0.365	-0.087
-415.428	-200.000	-0.038	0.347
-414.413	-5.739	-0.264	-0.236
-413.398	160.574	0.248	-0.453
-412.384	-27.540	-0.113	-0.086
-411.369	-1.770	0.406	-0.373
-410.355	78.777	-0.333	-0.466
-409.340	800.000	-0.050	0.216
-408.325	-51.152	-0.260	0.159
-407.311	26.808	-0.052	0.057
-406.296	-200.000	-0.050	-0.357
-405.282	-54.088	0.255	-0.151
-404.267	-134.245	0.330	0.053
-403.252	234.613	-0.074	-0.160
-402.238	-200.000	0.005	-0.375
-401.223	-79.409	-0.048	-0.021
-400.209	-200.000	0.012	0.106
-399.194	-200.000	0.000	0.194
-398.179	800.000	-0.051	-0.216
-397.165	-96.677	0.377	0.129
-396.150	57.503	0.088	0.113
-395.136	-98.907	-0.208	0.068
-394.121	95.975	-0.073	0.109
-393.106	800.000	0.030	0.149
-392.092	-174.627	-0.230	-0.008
-391.077	-136.769	-0.585	-0.087
-390.063	-200.000	-0.018	-0.354
-389.048	94.787	0.130	0.194
-388.033	422.378	-0.089	-0.251
-387.019	-172.105	0.793	-0.033
-386.004	103.198	-0.310	-0.475
-384.990	-95.408	-0.354	-0.123
-383.975	-191.257	0.490	-0.006
-382.960	333.745	0.116	-0.294
-381.946	800.000	0.045	0.224
-380.931	-200.000	0.009	-0.346
-379.917	-131.593	0.253	0.043
-378.902	-200.000	0.009	0.256
-377.888	402.721	-0.067	0.184
-376.873	-49.294	0.511	-0.317
-375.858	152.261	0.018	-0.033
-374.844	-109.251	-0.373	-0.102
-373.829	-23.214	-0.335	-0.263
-372.815	-55.876	0.199	-0.116
-371.800	-15.875	0.120	-0.099
-370.785	101.047	0.250	-0.381
-369.771	-106.792	0.119	-0.034
-368.756	100.726	0.172	0.261
-367.742	-73.685	0.224	-0.106
-366.727	92.301	0.283	0.416
-365.712	800.000	0.055	0.307
-364.698	-117.433	-0.148	0.035
-363.683	-106.769	0.203	0.058
-362.669	-77.496	0.272	-0.122
-361.654	-200.000	0.002	-0.200
-360.639	183.661	-0.133	0.257
-359.625	397.785	0.162	0.444
-358.610	-136.883	0.560	-0.083
-357.596	32.231	0.342	-0.385
-356.581	-62.753	-0.344	0.185
-355.566	-17.148	-0.409	0.335
-354.552	687.573	-0.168	0.574
-353.537	-48.016	-0.206	0.129
-352.523	351.688	-0.218	-0.564
-351.508	-24.089	0.112	0.087
-350.493	800.000	-0.022	-0.107
-349.479	-117.226	0.316	0.074
-348.464	-112.579	0.367	-0.095
-347.450	-152.132	0.572	0.053
-346.435	249.420	0.243	0.538
-345.420	-200.000	0.007	-0.096
-344.406	-200.000	-0.033	0.261
-343.391	-86.904	0.555	0.220
-342.377	224.640	0.245	-0.518
-341.362	55.457	0.267	0.336
-340.348	-60.939	0.059	-0.032
-339.333	-173.110	0.269	0.011
-338.318	-28.832	-0.168	-0.125
-337.304	-17.393	-0.371	0.304
-336.289	800.000	0.115	0.524
-335.275	800.000	-0.034	-0.165
-334.260	-40.014	-0.543	0.367
-333.245	-104.657	-0.239	-0.071
-332.231	-6.738	0.194	0.172
-331.216	800.000	-0.017	0.070
-330.202	-200.000	0.043	-0.370
-329.187	-100.699	-0.506	-0.161
-328.172	265.205	0.235	-0.536
-327.158	44.806	-0.299	0.358
-326.143	-200.000	-0.024	-0.259
-325.129	800.000	-0.111	-0.412
-324.114	-52.905	0.129	0.077
-323.099	-96.376	0.143	0.049
-322.085	-108.940	-0.376	-0.104
-321.070	72.485	-0.121	-0.165
-320.056	-7.852	0.274	-0.241
-319.041	711.627	-0.032	-0.112
-318.026	42.827	0.143	0.169
-317.012	87.320	0.207	-0.298
-315.997	29.229	-0.031	0.034
-314.983	-126.994	-0.251	0.048
-313.968	81.342	0.294	-0.413
-312.953	22.109	0.158	0.167
-311.939	-89.623	-0.352	0.134
-310.924	-34.107	0.267	0.190
-309.910	-200.000	-0.024	0.487
-308.895	-33.795	0.175	-0.125
-307.880	-24.648	0.291	0.224
-306.866	-67.783	0.256	-0.129
-305.851	12.695	0.343	-0.344
-304.837	522.395	-0.065	-0.198
-303.822	-200.000	0.022	-0.291
-302.807	57.076	-0.375	0.476
-301.793	-58.230	0.418	0.236
-300.778	-133.381	0.390	0.063
-299.764	-200.000	0.036	-0.311
-298.749	800.000	0.079	0.396
-297.735	-114.923	-0.077	0.019
-296.720	-200.000	-0.015	-0.220
-295.705	-47.829	-0.496	-0.312
-294.691	1.329	0.248	-0.232
-293.676	90.992	0.197	0.287
-292.662	-62.519	-0.321	0.173
-291.647	275.699	-0.128	0.296
-290.632	-199.349	0.201	0.001
-289.618	-78.079	0.378	0.168
-288.603	118.945	-0.224	0.360
-287.589	-65.391	-0.062	-0.032
-286.574	2.425	-0.239	0.224
-285.559	479.550	-0.201	-0.594
-284.545	800.000	0.072	0.337
-283.530	-200.000	-0.001	0.091
-282.516	38.850	0.056	0.065
-281.501	800.000	0.081	-0.295
-280.486	-200.000	0.190	0.000
-279.472	-28.099	0.082	-0.061
-278.457	-200.000	0.062	-0.521
-277.443	-58.031	-0.483	0.273
-276.428	-25.624	-0.384	0.294
-275.413	-175.173	-0.169	-0.006
-274.399	-53.489	0.339	-0.201
-273.384	-102.308	-0.134	0.042
-272.370	22.929	-0.116	0.124
-271.355	-195.090	-0.107	-0.001
-270.340	-133.062	0.619	-0.101
-269.326	-148.915	0.436	-0.045
-268.311	-75.797	-0.128	-0.059
-267.297	134.430	-0.105	-0.178
-266.282	-74.285	-0.309	0.144
-265.267	800.000	0.059	0.259
-264.253	-175.537	0.194	-0.007
-263.238	-112.807	0.226	0.058
-262.224	-75.516	-0.321	-0.148
-261.209	-200.000	-0.005	0.225
-260.195	88.727	0.433	0.626
-259.180	14.602	0.153	-0.155
-258.165	-116.839	-0.418	0.099
-257.151	-88.785	-0.514	0.197
-256.136	162.169	-0.249	0.454
-255.122	-78.784	-0.379	-0.167
-254.107	-64.756	-0.595	0.312
-253.092	-46.028	-0.281	-0.179
-252.078	160.060	0.118	-0.214
-251.063	-53.652	-0.305	0.180
-250.049	-69.466	-0.263	-0.130
-249.034	-200.000	0.027	-0.270
-248.019	-167.355	-0.483	-0.025
-247.005	-5.767	0.188	0.167
-245.990	-66.461	0.288	-0.148
-244.976	436.603	0.038	-0.108
-243.961	114.632	-0.217	0.343
-242.946	-86.023	-0.176	0.070
-241.932	-112.015	0.311	-0.081
-240.917	-30.209	0.252	-0.185
-239.903	87.222	-0.107	0.154
-238.888	282.680	-0.115	0.268
-237.873	-85.869	0.447	0.179
-236.859	-64.875	-0.260	0.136
-235.844	-122.016	0.297	-0.063
-234.830	-124.804	-0.135	-0.027
-233.815	-42.199	-0.082	-0.054
-232.800	-67.951	-0.352	0.177
-231.786	-146.095	-0.056	0.006
-230.771	82.725	-0.144	-0.203
-229.757	-114.247	-0.208	0.052
-228.742	130.912	0.139	0.232
-227.727	196.997	-0.076	0.151
-226.713	-72.365	-0.391	0.187
-225.698	-200.000	-0.034	0.244
-224.684	-158.916	-0.322	-0.023
-223.669	32.565	-0.107	0.120
-222.655	-34.883	-0.176	0.124
-221.640	-135.937	0.262	0.040
-220.625	0.731	0.256	-0.237
-219.611	502.648	0.144	-0.433
-218.596	-161.338	-0.322	-0.021
-217.582	-200.000	-0.020	0.279
-216.567	-101.148	0.048	-0.015
-215.552	-200.000	-0.046	-0.638
-214.538	125.519	-0.266	-0.435
-213.523	27.666	0.210	-0.229
-212.509	-138.960	0.272	0.038
-211.494	-27.900	-0.258	0.193
-210.479	190.699	0.186	0.364
-209.465	-200.000	-0.126	0.719
-208.450	-107.344	-0.340	0.096
-207.436	-140.138	0.138	0.019
-206.421	-115.299	-0.539	0.131
-205.406	48.556	-0.102	-0.124
-204.392	-191.966	0.372	0.005
-203.377	-88.547	0.541	-0.208
-202.363	-57.302	-0.238	-0.135
-201.348	-157.808	-0.294	0.022
-200.333	-200.000	0.022	-0.383
-199.319	22.831	-0.128	-0.136
-198.304	148.664	-0.061	0.106
-197.290	-200.000	-0.042	-0.373
-196.275	-129.528	-0.137	0.024
-195.260	275.750	0.102	-0.235
-194.246	127.939	0.142	0.234
-193.231	-128.608	-0.455	-0.083
-192.217	21.660	-0.180	0.190
-191.202	34.038	-0.397	-0.448
-190.187	32.705	-0.027	0.030
-189.173	-200.000	-0.589	-0.002
-188.158	-200.000	0.002	-0.326
-187.144	255.217	0.207	0.461
-186.129	-118.659	-0.759	0.172
-185.114	-130.542	0.364	0.063
-184.100	-74.356	-0.480	0.223
-183.085	34.736	0.113	-0.128
-182.071	-72.153	0.239	0.114
-181.056	-46.279	0.424	0.269
-180.042	800.000	0.067	-0.268
-179.027	-82.415	0.710	0.297
-178.012	800.000	-0.025	0.126
-176.998	-147.140	0.162	0.018
-175.983	-120.100	0.262	-0.058
-174.969	799.740	0.074	0.266
-173.954	-30.488	-0.274	-0.200
-172.939	-28.709	0.052	-0.039
-171.925	-72.106	0.213	0.102
-170.910	-61.859	-0.511	-0.276
-169.896	-79.495	0.120	0.052
-168.881	-172.661	-0.083	0.003
-167.866	67.889	0.251	0.332
-166.852	-58.557	-0.391	0.218
-165.837	-4.622	-0.290	0.259
-164.823	274.173	-0.120	-0.276
-163.808	137.633	-0.039	0.066
-162.793	-88.136	-0.269	-0.104
-161.779	398.290	-0.062	-0.169
-160.764	64.337	-0.118	-0.154
-159.750	54.224	0.176	-0.220
-158.735	-27.612	-0.114	0.085
-157.720	-200.000	0.024	-0.145
-156.706	158.878	0.124	0.223
-155.691	323.663	0.154	0.381
-154.677	307.166	0.009	0.022
-153.662	-85.716	0.083	-0.033
-152.647	-200.000	-0.016	-0.146
-151.633	73.305	-0.079	-0.107
-150.618	105.546	0.432	0.661
-149.604	800.000	-0.052	-0.255
-148.589	-82.655	-0.366	0.152
-147.574	236.800	-0.055	-0.117
-146.560	-167.801	-0.357	-0.018
-145.545	54.270	0.056	0.069
-144.531	-90.725	0.239	0.088
-143.516	-75.569	0.271	-0.124
-142.502	-89.879	0.310	0.116
-141.487	277.059	0.081	-0.186
-140.472	800.000	0.068	0.312
-139.458	-200.000	0.056	0.330
-138.443	-25.616	-0.361	0.275
-137.429	163.101	0.071	0.129
-136.414	582.275	-0.010	-0.032
-135.399	-76.832	0.271	-0.122
-134.385	13.514	0.391	-0.392
-133.370	618.955	-0.025	-0.081
-132.356	-97.216	-0.281	-0.094
-131.341	800.000	-0.116	0.457
-130.326	-18.570	-0.238	-0.192
-129.312	-22.449	-0.163	0.127
-128.297	-26.838	-0.323	0.243
-127.283	27.929	0.533	-0.580
-126.268	39.296	-0.253	0.292
-125.253	-200.000	-0.027	0.355
-124.239	130.975	0.125	-0.207
-123.224	-156.956	-0.113	-0.009
-122.210	446.548	-0.286	0.815
