DTS Sentinel unit serial number:	SN409020Multiplexer serial number:	ORYXHardware model number:	OX4-SRSoftware version number:	ORYX F/W v3.00 Oryx Data Collector v3.7.2.0data status	okinstallation	HaddamTimeLapsedifferential loss correction	single-endedforward channel	channel 3reverse channel	N/Adate	2011/06/22time	01:16:18forward acquisition time	30.00reverse acquisition time	0.00gamma	498.7831k internal	0.1751k external	0.1751temperature offset calibration	1.0074default loss term (dB/km)	0.3790temperature slope calibration	1.3530multiplexer offset coefficient	1.0000multiplexer slope coefficient	1.0000fibre end	0.00T internal ref (°C)	22.50T ext. ref 1 (°C)	17.84T ext. ref 2 (°C)	0.01length (m)	temperature (°C)	Stokes	anti-Stokes-747.200	-116.828	-0.231	-0.056
-746.185	-121.801	-0.356	-0.077
-745.171	-58.372	-0.088	-0.051
-744.156	315.273	0.113	0.284
-743.142	-23.044	-0.190	0.152
-742.127	-115.617	-0.210	0.052
-741.112	298.897	0.085	0.210
-740.098	-190.785	-0.154	0.002
-739.083	-17.530	-0.112	0.093
-738.069	47.055	-0.245	-0.303
-737.054	-131.283	0.091	-0.016
-736.039	800.000	-0.051	-0.259
-735.025	-23.317	0.361	0.288
-734.010	800.000	-0.070	0.371
-732.996	52.296	-0.193	-0.245
-731.981	81.279	0.259	0.373
-730.966	225.698	-0.070	-0.150
-729.952	-200.000	-0.066	0.411
-728.937	404.218	0.229	-0.644
-727.923	685.906	-0.032	0.112
-726.908	378.061	0.076	-0.208
-725.894	-110.140	-0.504	-0.139
-724.879	558.893	0.007	0.024
-723.864	-56.021	0.252	0.149
-722.850	-8.911	-0.085	-0.076
-721.835	800.000	0.068	0.289
-720.821	105.031	0.255	-0.400
-719.806	-94.488	-0.387	0.139
-718.791	800.000	-0.048	-0.248
-717.777	19.739	-0.166	0.177
-716.762	252.852	-0.169	-0.383
-715.748	800.000	0.089	-0.338
-714.733	-200.000	0.033	-0.724
-713.718	800.000	-0.064	-0.314
-712.704	-19.320	0.075	-0.062
-711.689	-124.164	0.391	0.081
-710.675	-118.258	-0.204	-0.048
-709.660	-200.000	-0.005	-0.229
-708.645	-172.871	0.185	-0.007
-707.631	-91.440	-0.569	-0.214
-706.616	-86.282	0.500	-0.203
-705.602	154.141	-0.119	0.217
-704.587	-98.835	-0.240	-0.080
-703.572	-200.000	0.018	-0.507
-702.558	-200.000	0.003	-0.427
-701.543	-200.000	-0.024	-0.168
-700.529	231.889	0.174	-0.379
-699.514	136.700	-0.233	0.405
-698.499	39.986	-0.226	-0.269
-697.485	-32.556	0.164	-0.121
-696.470	356.721	0.088	-0.233
-695.456	-200.000	-0.067	-0.437
-694.441	-29.382	0.316	-0.239
-693.426	-21.337	-0.159	0.128
-692.412	15.371	-0.257	0.268
-691.397	-7.040	0.424	0.381
-690.383	224.477	-0.199	-0.427
-689.368	-149.325	-0.445	0.046
-688.354	-98.526	-0.526	-0.177
-687.339	-78.131	-0.590	-0.268
-686.324	-1.211	-0.355	0.332
-685.310	-76.720	-0.590	-0.273
-684.295	-55.192	0.600	0.357
-683.281	-98.192	-0.345	0.117
-682.266	-152.533	0.398	-0.037
-681.251	366.940	-0.087	-0.233
-680.237	179.833	0.374	0.729
-679.222	-99.553	-0.368	-0.122
-678.208	126.525	-0.058	0.097
-677.193	-26.859	-0.465	-0.359
-676.178	-108.462	-0.059	-0.017
-675.164	140.772	0.117	-0.205
-674.149	-200.000	-0.015	-0.086
-673.135	-102.169	-0.597	0.189
-672.120	-96.984	0.719	0.248
-671.105	8.578	0.282	0.281
-670.091	-157.446	0.454	-0.036
-669.076	92.771	-0.317	-0.474
-668.062	-110.071	-0.117	-0.032
-667.047	-200.000	0.038	0.482
-666.032	-97.085	-0.409	-0.141
-665.018	18.878	-0.173	-0.184
-664.003	-20.361	0.318	0.259
-662.989	180.484	0.343	0.668
-661.974	-61.236	-0.342	-0.190
-660.959	51.897	0.030	-0.038
-659.945	-45.377	0.014	0.009
-658.930	-47.249	0.074	0.047
-657.916	-182.166	0.342	0.008
-656.901	-27.079	-0.229	-0.177
-655.886	786.215	-0.073	0.267
-654.872	19.231	-0.150	-0.159
-653.857	-200.000	0.035	-0.282
-652.843	-44.989	0.418	-0.275
-651.828	-116.186	0.131	0.032
-650.814	238.468	0.167	-0.368
-649.799	433.474	0.167	-0.483
-648.784	-103.271	0.341	-0.106
-647.770	79.941	-0.097	0.138
-646.755	104.915	-0.138	-0.216
-645.741	72.849	0.209	0.289
-644.726	-116.485	-0.213	-0.052
-643.711	-8.644	0.129	0.114
-642.697	-88.485	-0.107	-0.042
-641.682	173.207	-0.213	-0.407
-640.668	108.421	-0.182	0.289
-639.653	-9.785	-0.139	-0.123
-638.638	-34.839	0.152	0.110
-637.624	-200.000	-0.040	0.306
-636.609	344.684	-0.116	-0.302
-635.595	51.113	0.298	-0.374
-634.580	-16.887	0.215	-0.179
-633.565	-58.099	0.472	0.271
-632.551	-185.061	-0.423	-0.009
-631.536	-140.485	-0.206	-0.028
-630.522	166.564	-0.127	0.239
-629.507	-89.851	0.399	0.153
-628.492	-200.000	0.039	0.700
-627.478	-148.226	-0.567	-0.061
-626.463	607.170	0.114	-0.377
-625.449	250.312	-0.153	-0.344
-624.434	-84.096	0.164	-0.069
-623.419	800.000	0.046	-0.231
-622.405	-65.135	0.361	-0.192
-621.390	-54.404	0.076	0.046
-620.376	-93.711	-0.160	0.058
-619.361	-200.000	0.012	0.242
-618.346	-47.963	-0.133	-0.085
-617.332	-129.931	-0.155	0.028
-616.317	70.910	-0.261	0.358
-615.303	-54.395	-0.632	-0.377
-614.288	58.976	-0.181	0.235
-613.273	149.164	-0.279	0.500
-612.259	-58.578	-0.340	0.194
-611.244	90.299	0.138	-0.205
-610.230	-129.430	-0.297	0.054
-609.215	-155.327	-0.518	0.044
-608.201	175.390	-0.298	0.573
-607.186	277.865	-0.108	0.255
-606.171	800.000	-0.016	0.077
-605.157	119.467	0.074	-0.121
-604.142	736.243	-0.015	0.053
-603.128	-78.062	-0.065	0.029
-602.113	-149.243	-0.208	0.022
-601.098	-102.321	-0.083	-0.026
-600.084	-200.000	-0.095	-0.562
-599.069	-127.361	-0.195	-0.037
-598.055	25.333	-0.483	0.531
-597.040	-200.000	0.015	-0.374
-596.025	90.565	0.221	-0.327
-595.011	-24.819	0.364	-0.285
-593.996	-138.031	0.015	0.002
-592.982	-200.000	-0.010	-0.087
-591.967	-97.800	-0.445	0.151
-590.952	41.494	-0.099	0.118
-589.938	32.199	0.301	-0.343
-588.923	-152.932	0.670	0.062
-587.909	-183.453	-0.440	0.010
-586.894	-51.825	-0.405	0.248
-585.879	-166.792	-0.482	0.026
-584.865	-133.457	-0.437	0.072
-583.850	51.976	-0.049	-0.062
-582.836	-66.881	-0.304	-0.158
-581.821	365.910	0.142	0.379
-580.806	-66.791	0.326	-0.170
-579.792	-200.000	0.028	0.438
-578.777	89.009	0.076	0.112
-577.763	12.880	0.070	-0.072
-576.748	229.330	-0.244	-0.528
-575.733	166.033	-0.187	0.350
-574.719	-113.983	0.472	-0.120
-573.704	-153.879	-0.453	0.040
-572.690	47.331	0.092	0.113
-571.675	-110.440	-0.220	-0.060
-570.661	-42.405	0.163	0.109
-569.646	-31.647	0.508	-0.376
-568.631	800.000	-0.018	-0.077
-567.617	698.626	-0.116	0.406
-566.602	71.301	-0.346	0.474
-565.588	28.659	0.268	-0.299
-564.573	4.220	-0.264	0.254
-563.558	54.418	-0.113	0.143
-562.544	23.288	0.198	0.215
-561.529	-200.000	-0.014	-0.104
-560.515	12.838	-0.142	-0.145
-559.500	-200.000	0.012	-0.312
-558.485	728.107	-0.121	-0.430
-557.471	-200.000	-0.005	0.138
-556.456	277.388	-0.064	-0.151
-555.442	-156.500	-0.395	-0.032
-554.427	800.000	-0.066	-0.348
-553.412	-42.776	0.320	-0.214
-552.398	-200.000	-0.095	-0.665
-551.383	-148.049	-0.373	0.040
-550.369	325.505	0.146	-0.370
-549.354	160.069	0.134	0.247
-548.339	-83.076	-0.169	0.071
-547.325	-106.285	-0.112	0.033
-546.310	-60.400	0.568	0.317
-545.296	61.777	-0.242	-0.318
-544.281	184.656	-0.214	-0.419
-543.266	121.697	0.350	0.576
-542.252	-158.898	0.611	0.045
-541.237	-200.000	-0.032	-0.279
-540.223	57.941	-0.205	0.265
-539.208	800.000	-0.118	-0.440
-538.193	-200.000	0.027	-0.432
-537.179	-200.000	0.007	-0.105
-536.164	-200.000	0.007	0.214
-535.150	175.719	-0.096	-0.184
-534.135	340.370	0.071	0.182
-533.121	19.693	0.228	0.242
-532.106	-130.233	-0.194	0.035
-531.091	-184.077	-0.420	0.009
-530.077	-200.000	0.321	-0.001
-529.062	-129.835	0.320	-0.057
-528.048	-49.767	0.047	0.029
-527.033	-65.052	0.259	-0.137
-526.018	276.083	-0.167	-0.392
-525.004	-20.766	0.174	0.141
-523.989	62.569	0.329	0.433
-522.975	-48.951	-0.290	-0.183
-521.960	347.457	-0.091	-0.237
-520.945	-11.285	0.230	0.199
-519.931	641.750	-0.132	-0.446
-518.916	-57.023	0.395	0.229
-517.902	-6.906	-0.075	0.067
-516.887	170.408	0.247	-0.467
-515.872	81.825	0.119	-0.170
-514.858	261.373	0.224	0.513
-513.843	206.489	0.165	-0.340
-512.829	203.833	0.158	0.322
-511.814	-32.687	0.241	0.176
-510.799	-99.422	0.326	0.108
-509.785	3.996	0.036	0.035
-508.770	-144.699	0.331	0.040
-507.756	-77.262	0.416	-0.190
-506.741	-49.043	0.122	-0.077
-505.726	-131.341	0.405	-0.070
-504.712	34.834	0.168	-0.193
-503.697	-124.896	0.438	0.088
-502.683	-200.000	0.011	-0.309
-501.668	-67.565	-0.272	0.140
-500.653	46.906	-0.089	-0.109
-499.639	-115.302	-0.193	-0.048
-498.624	-200.000	-0.025	0.558
-497.610	-59.576	0.299	0.168
-496.595	592.626	0.086	0.281
-495.581	800.000	0.052	0.241
-494.566	-190.112	0.102	0.001
-493.551	301.594	-0.058	0.141
-492.537	-200.000	-0.008	0.280
-491.522	-84.582	-0.215	-0.089
-490.508	-69.033	0.559	-0.282
-489.493	-130.393	0.403	0.071
-488.478	-69.536	0.104	0.052
-487.464	119.752	-0.415	-0.677
-486.449	421.148	-0.169	0.479
-485.435	-200.000	0.073	-0.555
-484.420	-72.214	-0.371	-0.180
-483.405	-200.000	-0.007	0.262
-482.391	-93.545	-0.452	0.164
-481.376	-120.972	-0.550	-0.121
-480.362	286.078	0.249	-0.592
-479.347	31.740	0.167	-0.189
-478.332	-200.000	0.004	0.160
-477.318	-200.000	0.033	0.315
-476.303	31.588	-0.173	-0.195
-475.289	18.151	0.384	-0.402
-474.274	-68.465	0.173	-0.088
-473.259	121.224	0.156	-0.255
-472.245	800.000	0.028	-0.135
-471.230	-9.559	0.282	-0.247
-470.216	-70.386	-0.091	-0.045
-469.201	235.042	-0.036	0.078
-468.186	-48.548	0.542	0.342
-467.172	-146.692	-0.487	-0.055
-466.157	-43.389	0.091	-0.060
-465.143	-169.436	-0.506	0.024
-464.128	-71.621	-0.420	0.205
-463.113	-80.570	-0.059	0.026
-462.099	-70.078	0.273	0.136
-461.084	800.000	-0.029	0.130
-460.070	800.000	0.058	-0.263
-459.055	225.931	0.208	-0.444
-458.040	2.289	0.209	-0.199
-457.026	-4.872	-0.141	0.127
-456.011	-43.437	0.195	-0.129
-454.997	-44.024	-0.207	-0.136
-453.982	-144.052	0.199	0.024
-452.968	-200.000	0.661	0.003
-451.953	-65.626	-0.335	0.176
-450.938	-58.554	-0.229	-0.130
-449.924	-63.244	0.516	0.278
-448.909	-89.066	-0.310	-0.120
-447.895	237.145	-0.212	-0.463
-446.880	322.005	-0.071	0.178
-445.865	65.296	0.225	-0.299
-444.851	-145.128	-0.231	0.027
-443.836	66.183	-0.189	-0.252
-442.822	-59.779	-0.254	0.143
-441.807	82.097	-0.164	-0.234
-440.792	-200.000	-0.050	0.405
-439.778	-200.000	0.031	-0.199
-438.763	6.555	-0.103	0.100
-437.749	109.272	-0.187	0.295
-436.734	-59.404	0.198	-0.111
-435.719	-133.866	0.326	0.053
-434.705	-200.000	-0.010	0.062
-433.690	-200.000	0.296	-0.002
-432.676	173.546	-0.208	-0.394
-431.661	-120.512	0.266	0.059
-430.646	-65.675	-0.086	0.045
-429.632	-200.000	0.009	-0.105
-428.617	-80.666	-0.175	0.076
-427.603	136.342	-0.116	-0.199
-426.588	-127.959	-0.178	0.033
-425.573	334.476	0.157	-0.402
-424.559	65.371	0.317	-0.421
-423.544	618.520	-0.040	-0.132
-422.530	-156.182	-0.246	0.020
-421.515	310.086	0.041	0.100
-420.500	184.000	0.326	0.635
-419.486	491.704	0.052	-0.158
-418.471	98.399	0.413	-0.626
-417.457	-117.453	-0.375	0.088
-416.442	1.760	0.401	0.378
-415.428	68.434	-0.465	0.626
-414.413	315.406	0.180	-0.446
-413.398	91.037	0.266	-0.392
-412.384	238.881	0.138	0.303
-411.369	-200.000	-0.018	0.591
-410.355	800.000	-0.103	0.404
-409.340	255.604	0.070	0.158
-408.325	383.859	-0.081	0.220
-407.311	800.000	0.092	-0.511
-406.296	-55.575	-0.526	0.308
-405.282	-139.545	-0.461	-0.064
-404.267	50.071	-0.166	0.205
-403.252	800.000	-0.018	-0.090
-402.238	-200.000	-0.018	0.236
-401.223	-181.001	0.369	0.010
-400.209	23.174	-0.116	0.125
-399.194	-42.433	0.148	-0.098
-398.179	800.000	-0.046	-0.202
-397.165	90.135	0.184	0.270
-396.150	-200.000	0.002	-0.241
-395.136	199.447	0.136	-0.275
-394.121	129.316	-0.049	0.082
-393.106	287.161	0.112	0.267
-392.092	-155.647	-0.063	0.005
-391.077	-32.414	-0.271	-0.198
-390.063	44.623	-0.215	-0.259
-389.048	-186.788	-0.175	-0.003
-388.033	800.000	0.068	-0.285
-387.019	350.929	-0.193	0.503
-386.004	-105.165	-0.219	-0.065
-384.990	800.000	-0.077	0.287
-383.975	-134.131	-0.333	0.053
-382.960	395.099	0.017	-0.047
-381.946	-91.999	-0.339	0.125
-380.931	-114.918	-0.502	-0.124
-379.917	278.755	0.213	-0.500
-378.902	-200.000	0.068	-0.494
-377.888	-41.861	0.101	-0.068
-376.873	106.714	-0.171	0.266
-375.858	-168.500	-0.366	0.018
-374.844	-15.792	0.443	0.369
-373.829	-200.000	-0.048	0.320
-372.815	-20.773	0.316	0.253
-371.800	-176.203	-0.759	-0.026
-370.785	-84.839	0.435	0.178
-369.771	-200.000	0.026	0.247
-368.756	51.313	0.236	-0.293
-367.742	284.794	-0.131	-0.311
-366.727	-99.590	-0.382	-0.125
-365.712	-119.638	0.564	0.127
-364.698	800.000	0.068	0.372
-363.683	29.275	-0.229	0.255
-362.669	-85.098	0.173	-0.071
-361.654	120.344	0.395	0.643
-360.639	-126.845	-0.537	-0.103
-359.625	800.000	-0.062	-0.294
-358.610	-152.789	0.311	-0.029
-357.596	-117.840	-0.283	0.066
-356.581	-96.764	0.197	0.068
-355.566	-90.201	0.112	0.042
-354.552	-200.000	0.030	0.290
-353.537	150.226	0.148	0.263
-352.523	-34.256	-0.158	0.113
-351.508	-200.000	-0.011	-0.087
-350.493	48.365	0.155	-0.189
-349.479	25.598	0.377	0.410
-348.464	-119.583	-0.227	-0.051
-347.450	80.642	-0.096	-0.136
-346.435	-109.157	-0.390	-0.108
-345.420	-200.000	0.022	-0.202
-344.406	4.923	0.377	-0.363
-343.391	-19.424	0.133	-0.108
-342.377	86.953	-0.147	-0.213
-341.362	-200.000	0.075	0.711
-340.348	-149.758	0.231	-0.023
-339.333	70.461	0.323	0.437
-338.318	2.064	0.150	0.142
-337.304	190.619	0.223	-0.440
-336.289	800.000	0.066	-0.267
-335.275	-200.000	0.016	-0.175
-334.260	0.765	0.088	0.083
-333.245	-57.652	-0.167	-0.095
-332.231	-49.147	0.443	-0.276
-331.216	83.330	-0.088	-0.125
-330.202	-148.120	0.445	-0.048
-329.187	-162.367	-0.297	0.019
-328.172	548.645	0.068	0.214
-327.158	117.483	0.161	-0.260
-326.143	209.838	0.166	-0.342
-325.129	104.663	0.296	0.456
-324.114	260.653	-0.248	0.562
-323.099	-200.000	0.056	0.367
-322.085	-46.266	-0.029	-0.018
-321.070	-200.000	-0.016	0.211
-320.056	464.013	-0.150	-0.439
-319.041	-48.051	-0.201	0.127
-318.026	-104.601	-0.247	0.074
-317.012	21.389	-0.060	0.064
-315.997	-126.161	-0.244	0.047
-314.983	-79.379	0.420	0.185
-313.968	11.311	-0.238	0.238
-312.953	-153.300	-0.250	-0.022
-311.939	800.000	-0.030	-0.138
-310.924	-120.611	0.478	-0.105
-309.910	83.168	0.297	0.423
-308.895	686.522	-0.001	-0.004
-307.880	-31.223	-0.324	0.238
-306.866	-59.611	-0.269	0.150
-305.851	118.193	0.165	-0.267
-304.837	-54.306	0.300	-0.177
-303.822	247.471	-0.040	-0.088
-302.807	-189.600	-0.072	-0.001
-301.793	-200.000	-0.015	-0.285
-300.778	-66.026	0.169	0.088
-299.764	-200.000	-0.008	0.535
-298.749	13.828	0.302	0.306
-297.735	-101.178	-0.475	0.151
-296.720	-85.744	-0.279	0.112
-295.705	800.000	0.069	-0.383
-294.691	800.000	-0.074	-0.289
-293.676	-200.000	-0.043	-0.315
-292.662	-80.244	0.404	0.176
-291.647	-112.114	0.243	0.063
-290.632	299.080	-0.140	-0.337
-289.618	-200.000	-0.044	-0.340
-288.603	98.984	0.056	0.085
-287.589	-160.955	0.202	0.014
-286.574	3.673	0.310	-0.295
-285.559	-137.182	-0.285	0.042
-284.545	800.000	0.052	-0.199
-283.530	-200.000	-0.003	0.437
-282.516	-70.359	-0.353	0.174
-281.501	323.783	-0.057	0.143
-280.486	-82.246	0.367	-0.155
-279.472	-200.000	0.016	-0.314
-278.457	-200.000	-0.009	0.140
-277.443	-121.127	-0.144	0.031
-276.428	77.536	0.200	0.277
-275.413	-20.125	0.154	-0.124
-274.399	37.365	0.631	-0.729
-273.384	-63.180	0.104	0.056
-272.370	538.637	-0.121	0.376
-271.355	-182.687	0.318	0.007
-270.340	42.622	-0.189	0.225
-269.326	-161.382	-0.297	0.020
-268.311	800.000	-0.043	0.159
-267.297	-95.620	-0.298	0.103
-266.282	-179.655	-0.134	0.004
-265.267	-121.181	0.222	-0.048
-264.253	283.643	-0.237	-0.558
-263.238	72.614	-0.107	-0.146
-262.224	-30.207	-0.615	0.454
-261.209	92.165	-0.109	-0.160
-260.195	-200.000	-0.051	-0.306
-259.180	-70.871	0.203	-0.099
-258.165	800.000	-0.086	0.457
-257.151	145.550	-0.219	0.383
-256.136	-80.731	-0.142	0.061
-255.122	-140.319	0.401	-0.054
-254.107	-200.000	-0.003	0.221
-253.092	434.104	0.052	0.148
-252.078	-200.000	-0.015	0.094
-251.063	-111.329	0.196	0.052
-250.049	-95.155	-0.052	-0.018
-249.034	139.632	-0.352	0.605
-248.019	215.266	0.290	0.602
-247.005	-200.000	-0.005	0.136
-245.990	800.000	0.064	-0.251
-244.976	126.945	0.264	0.436
-243.961	129.775	0.147	0.245
-242.946	-200.000	0.006	-0.347
-241.932	307.876	-0.025	0.062
-240.917	782.748	-0.144	-0.517
-239.903	-200.000	-0.001	0.256
-238.888	36.710	-0.118	-0.135
-237.873	-51.294	-0.308	-0.187
-236.859	33.476	0.128	0.145
-235.844	-200.000	-0.000	0.047
-234.830	-142.352	0.276	-0.035
-233.815	800.000	-0.056	0.272
-232.800	-48.633	0.039	0.025
-231.786	240.006	-0.091	-0.199
-230.771	-89.482	-0.418	0.159
-229.757	-58.472	0.290	0.163
-228.742	26.674	0.376	0.409
-227.727	327.871	-0.123	-0.309
-226.713	175.321	-0.184	0.348
-225.698	159.137	-0.042	0.077
-224.684	-200.000	0.021	-0.229
-223.669	-200.000	0.049	-0.436
-222.655	-32.821	-0.571	0.412
-221.640	-200.000	0.018	-0.300
-220.625	-92.457	-0.331	0.121
-219.611	800.000	-0.032	0.159
-218.596	-16.823	-0.333	-0.273
-217.582	-62.237	0.165	-0.089
-216.567	-111.933	-0.294	-0.077
-215.552	-200.000	-0.012	-0.145
-214.538	-178.429	0.099	0.003
-213.523	-200.000	-0.028	0.352
-212.509	-122.076	0.415	0.088
-211.494	800.000	-0.164	0.636
-210.479	122.986	-0.118	0.193
-209.465	-78.779	0.157	-0.069
-208.450	-151.751	0.171	-0.016
-207.436	-8.576	-0.285	0.249
-206.421	-200.000	0.036	-0.340
-205.406	800.000	-0.028	0.121
-204.392	210.359	-0.113	-0.231
-203.377	35.739	0.132	-0.150
-202.363	176.023	-0.141	-0.268
-201.348	800.000	0.054	0.237
-200.333	201.941	-0.194	-0.391
-199.319	-84.421	0.629	-0.257
-198.304	90.753	-0.219	0.320
-197.290	-86.237	0.280	-0.112
-196.275	-200.000	0.577	-0.003
-195.260	800.000	0.149	0.709
-194.246	67.216	0.090	-0.119
-193.231	-36.066	-0.164	-0.115
-192.217	800.000	0.025	0.089
-191.202	-196.028	0.121	0.001
-190.187	800.000	0.069	0.273
-189.173	190.700	-0.090	-0.176
-188.158	-27.965	0.096	0.072
-187.144	-200.000	-0.027	0.193
-186.129	-200.000	-0.044	0.425
-185.114	-54.746	-0.348	0.204
-184.100	-104.370	-0.307	-0.092
-183.085	88.454	0.291	0.420
-182.071	-200.000	0.019	-0.564
-181.056	53.210	0.131	0.163
-180.042	-199.801	0.306	0.002
-179.027	-109.362	0.258	0.070
-178.012	605.333	-0.034	-0.110
-176.998	-158.747	-0.414	0.030
-175.983	-200.000	0.018	-0.471
-174.969	219.446	0.263	-0.548
-173.954	159.676	0.163	-0.296
-172.939	-145.325	-0.056	0.007
-171.925	232.617	0.108	-0.232
-170.910	-32.873	-0.309	-0.223
-169.896	-58.866	0.224	-0.125
-168.881	-7.817	-0.140	-0.123
-167.866	319.109	-0.217	-0.537
-166.852	800.000	-0.057	0.250
-165.837	5.560	0.170	0.163
-164.823	-103.201	0.310	0.094
-163.808	800.000	-0.023	-0.114
-162.793	-200.000	-0.016	-0.519
-161.779	-200.000	0.012	0.218
-160.764	249.605	0.141	-0.312
-159.750	271.972	-0.185	0.426
-158.735	800.000	0.045	-0.233
-157.720	-8.369	0.242	0.211
-156.706	144.583	-0.334	0.581
-155.691	452.077	-0.183	-0.528
-154.677	800.000	-0.023	-0.096
-153.662	10.191	-0.261	-0.257
-152.647	146.228	0.021	0.036
-151.633	-101.910	0.250	0.078
-150.618	-56.595	0.260	0.149
-149.604	60.157	-0.258	-0.331
-148.589	800.000	-0.098	-0.559
-147.574	-73.250	-0.112	0.053
-146.560	-73.882	-0.483	0.227
-145.545	83.603	0.055	-0.078
-144.531	-144.907	0.095	-0.011
-143.516	-129.772	0.557	-0.099
-142.502	-80.191	0.288	0.125
-141.487	-53.750	-0.081	0.048
-140.472	231.150	-0.171	-0.364
-139.458	249.475	-0.128	0.282
-138.443	-37.614	-0.417	0.288
-137.429	-111.606	-0.169	0.044
-136.414	-180.584	0.424	-0.011
-135.399	-50.360	0.371	-0.226
-134.385	34.374	0.203	-0.229
-133.370	-102.933	0.243	0.074
-132.356	344.736	-0.047	-0.120
-131.341	-82.917	-0.226	-0.094
-130.326	800.000	0.056	-0.305
-129.312	112.530	-0.122	0.193
-128.297	-49.148	-0.019	0.012
-127.283	192.819	0.122	-0.240
-126.268	-46.832	-0.279	0.176
-125.253	297.727	-0.131	0.313
-124.239	202.112	0.073	-0.146
-123.224	-131.591	-0.306	0.052
-122.210	7.722	-0.336	-0.326
