DTS Sentinel unit serial number:	SN409020Multiplexer serial number:	ORYXHardware model number:	OX4-SRSoftware version number:	ORYX F/W v3.00 Oryx Data Collector v3.7.2.0data status	okinstallation	HaddamTimeLapsedifferential loss correction	single-endedforward channel	channel 3reverse channel	N/Adate	2011/06/22time	08:01:17forward acquisition time	30.00reverse acquisition time	0.00gamma	498.7831k internal	0.1767k external	0.1767temperature offset calibration	1.0074default loss term (dB/km)	0.3790temperature slope calibration	1.3530multiplexer offset coefficient	1.0000multiplexer slope coefficient	1.0000fibre end	0.00T internal ref (°C)	24.62T ext. ref 1 (°C)	22.11T ext. ref 2 (°C)	0.14length (m)	temperature (°C)	Stokes	anti-Stokes-747.200	44.407	0.173	-0.209
-746.185	52.046	0.230	0.289
-745.171	-200.000	0.024	-0.215
-744.156	-200.000	0.007	0.126
-743.142	268.171	0.016	-0.037
-742.127	-69.937	0.672	0.336
-741.112	-89.462	-0.472	-0.182
-740.098	-200.000	0.024	0.431
-739.083	92.201	-0.183	0.272
-738.069	50.080	-0.033	0.041
-737.054	793.763	0.119	-0.433
-736.039	-23.374	-0.306	0.242
-735.025	-83.544	-0.089	0.037
-734.010	-51.385	-0.149	0.091
-732.996	-200.000	-0.014	-0.208
-731.981	-78.618	-0.101	-0.045
-730.966	-127.433	-0.402	0.076
-729.952	20.842	0.095	-0.101
-728.937	-200.000	0.017	-0.207
-727.923	-45.307	-0.288	-0.187
-726.908	-38.878	-0.354	0.245
-725.894	142.986	-0.220	-0.386
-724.879	-136.364	-0.476	-0.072
-723.864	-134.476	-0.395	0.063
-722.850	-175.708	0.234	-0.008
-721.835	98.689	0.223	-0.339
-720.821	217.363	-0.066	-0.139
-719.806	-50.071	-0.417	-0.259
-718.791	-44.144	0.191	-0.126
-717.777	-18.452	0.019	0.016
-716.762	84.367	0.109	0.158
-715.748	487.769	0.094	-0.284
-714.733	-159.117	0.391	0.029
-713.718	81.818	0.056	0.080
-712.704	17.601	-0.348	0.363
-711.689	134.690	0.108	-0.184
-710.675	-40.651	-0.578	-0.393
-709.660	-11.738	0.283	-0.244
-708.645	-118.435	0.326	0.075
-707.631	-107.698	-0.548	-0.156
-706.616	369.962	-0.051	-0.137
-705.602	-150.188	0.418	0.042
-704.587	-139.358	-0.061	0.008
-703.572	-150.390	-0.099	-0.010
-702.558	-142.677	-0.058	-0.007
-701.543	800.000	-0.118	0.473
-700.529	-180.454	0.286	-0.008
-699.514	-200.000	0.025	0.224
-698.499	-80.715	0.153	0.066
-697.485	-200.000	0.040	-0.407
-696.470	789.404	-0.067	-0.243
-695.456	100.172	-0.093	0.143
-694.441	-100.767	0.210	-0.068
-693.426	800.000	-0.036	-0.143
-692.412	-200.000	0.112	-0.682
-691.397	-200.000	0.049	-0.485
-690.383	-149.772	-0.418	0.043
-689.368	66.322	-0.273	-0.365
-688.354	-65.201	-0.443	0.233
-687.339	-103.537	0.221	0.068
-686.324	-156.589	0.669	-0.054
-685.310	-200.000	0.044	0.272
-684.295	-35.661	0.078	0.055
-683.281	-127.079	-0.158	-0.030
-682.266	-200.000	0.030	-0.351
-681.251	384.485	0.143	-0.389
-680.237	-55.500	0.344	0.202
-679.222	-50.416	0.131	-0.081
-678.208	-152.929	0.526	-0.048
-677.193	35.300	-0.377	-0.434
-676.178	-73.902	0.427	-0.203
-675.164	-200.000	-0.013	0.267
-674.149	-77.147	0.204	-0.093
-673.135	91.385	0.108	-0.159
-672.120	-16.807	-0.422	0.350
-671.105	105.499	-0.056	0.087
-670.091	-155.625	-0.242	-0.020
-669.076	123.911	-0.125	0.207
-668.062	-24.933	-0.121	0.094
-667.047	291.008	0.084	0.200
-666.032	239.164	-0.117	-0.256
-665.018	-79.914	-0.329	-0.144
-664.003	-83.439	0.474	0.198
-662.989	-16.278	-0.307	0.255
-661.974	-45.921	-0.288	0.186
-660.959	-83.295	-0.206	-0.086
-659.945	44.682	0.154	-0.186
-658.930	-28.337	-0.203	-0.153
-657.916	-136.627	0.150	-0.022
-656.901	122.862	-0.087	-0.143
-655.886	250.133	-0.253	-0.566
-654.872	55.356	0.123	0.156
-653.857	334.924	-0.190	0.484
-652.843	-110.484	0.595	0.161
-651.828	-200.000	0.032	-0.196
-650.814	-44.934	0.129	0.084
-649.799	-26.445	-0.108	0.083
-648.784	58.710	0.300	0.386
-647.770	-17.433	0.397	-0.327
-646.755	-200.000	0.018	-0.277
-645.741	-97.241	0.332	-0.113
-644.726	545.899	0.118	-0.372
-643.711	9.067	0.169	0.167
-642.697	21.429	0.240	-0.256
-641.682	-66.132	-0.098	0.051
-640.668	246.194	0.076	0.168
-639.653	-70.105	-0.577	0.287
-638.638	-120.857	0.183	-0.040
-637.624	112.406	0.090	0.143
-636.609	-6.877	-0.194	0.173
-635.595	499.566	-0.113	0.344
-634.580	-165.582	0.519	-0.029
-633.565	137.332	0.061	-0.105
-632.551	16.561	0.089	0.092
-631.536	2.835	-0.123	-0.117
-630.522	-130.927	-0.798	-0.139
-629.507	-139.947	-0.363	0.050
-628.492	-77.338	-0.299	0.136
-627.478	-121.973	-0.150	-0.032
-626.463	-200.000	0.014	0.269
-625.449	-196.942	-0.447	0.004
-624.434	800.000	0.068	0.347
-623.419	35.030	-0.395	0.454
-622.405	765.704	-0.150	0.538
-621.390	-73.392	-0.105	-0.050
-620.376	63.390	-0.114	0.149
-619.361	-102.011	0.286	-0.090
-618.346	-9.427	0.051	0.044
-617.332	800.000	-0.035	-0.163
-616.317	-20.554	-0.111	-0.089
-615.303	-136.476	0.093	-0.014
-614.288	-200.000	-0.223	0.001
-613.273	83.904	0.164	-0.234
-612.259	-24.094	-0.201	-0.157
-611.244	-200.000	-0.001	0.018
-610.230	-39.751	0.147	0.101
-609.215	-54.819	0.489	0.288
-608.201	-90.233	0.238	-0.090
-607.186	-66.639	-0.118	-0.061
-606.171	-66.144	0.329	-0.171
-605.157	-200.000	0.045	0.345
-604.142	-106.718	-0.559	-0.162
-603.128	579.128	0.096	-0.309
-602.113	-81.554	-0.338	-0.145
-601.098	-11.189	0.325	-0.280
-600.084	158.212	-0.068	-0.123
-599.069	-200.000	-0.003	-0.162
-598.055	-132.215	0.229	-0.039
-597.040	-200.000	-0.010	0.072
-596.025	-9.145	0.328	-0.287
-595.011	341.515	-0.112	-0.288
-593.996	-18.194	0.223	0.182
-592.982	19.925	-0.060	-0.063
-591.967	-97.473	0.257	-0.087
-590.952	285.965	-0.162	-0.385
-589.938	-7.179	-0.163	0.145
-588.923	-16.245	0.223	-0.185
-587.909	-141.795	-0.341	0.044
-586.894	5.446	0.277	-0.267
-585.879	-74.836	-0.178	-0.083
-584.865	-200.000	-0.002	0.145
-583.850	-33.084	-0.464	0.336
-582.836	315.129	0.179	0.444
-581.821	3.995	-0.088	0.084
-580.806	411.318	0.063	0.175
-579.792	-56.455	-0.329	0.190
-578.777	-127.384	-0.253	0.048
-577.763	-200.000	-0.005	-0.302
-576.748	7.932	-0.131	0.129
-575.733	70.598	0.227	-0.308
-574.719	-49.532	-0.389	0.242
-573.704	-200.000	-0.004	-0.233
-572.690	800.000	0.037	-0.135
-571.675	214.336	0.319	-0.662
-570.661	-200.000	-0.004	0.060
-569.646	-119.543	-0.230	-0.052
-568.631	-72.741	0.327	0.157
-567.617	272.491	0.138	-0.320
-566.602	-97.137	0.083	0.028
-565.588	-0.262	0.165	-0.153
-564.573	149.650	-0.088	0.156
-563.558	13.046	-0.351	0.355
-562.544	32.218	0.302	-0.340
-561.529	41.436	-0.152	-0.180
-560.515	-200.000	-0.008	0.308
-559.500	-80.811	-0.253	-0.109
-558.485	-200.000	-0.028	0.352
-557.471	-56.429	-0.329	0.190
-556.456	266.162	0.128	0.292
-555.442	144.546	-0.092	0.160
-554.427	750.579	0.040	0.140
-553.412	-105.701	-0.724	0.213
-552.398	139.862	0.093	0.161
-551.383	425.710	0.079	-0.223
-550.369	-25.581	0.273	-0.210
-549.354	-9.615	-0.325	-0.283
-548.339	672.700	-0.061	-0.206
-547.325	-200.000	0.025	-0.212
-546.310	-85.792	-0.240	0.097
-545.296	-200.000	0.006	0.248
-544.281	164.819	-0.020	0.037
-543.266	80.076	0.180	-0.254
-542.252	7.177	0.360	-0.350
-541.237	-24.122	-0.185	0.144
-540.223	-77.066	0.245	-0.111
-539.208	42.916	0.174	-0.207
-538.193	51.020	0.325	0.403
-537.179	-55.201	-0.607	-0.355
-536.164	-200.000	0.029	-0.304
-535.150	365.087	-0.058	0.154
-534.135	204.100	0.200	0.405
-533.121	-52.442	-0.247	0.148
-532.106	124.452	-0.080	-0.131
-531.091	-200.000	-0.038	0.463
-530.077	-19.736	0.116	0.093
-529.062	210.891	0.206	0.424
-528.048	-85.293	0.585	0.237
-527.033	-200.000	0.073	-0.477
-526.018	155.662	0.200	0.360
-525.004	-44.299	-0.206	0.135
-523.989	-89.850	-0.291	0.110
-522.975	589.043	-0.185	0.599
-521.960	-85.820	0.317	-0.128
-520.945	-131.451	-0.557	0.095
-519.931	-200.000	-0.023	0.224
-518.916	-41.227	-0.301	0.202
-517.902	-180.080	0.459	0.012
-516.887	-96.396	0.570	-0.196
-515.872	151.487	-0.132	-0.234
-514.858	475.259	-0.141	-0.417
-513.843	262.005	-0.187	-0.424
-512.829	9.793	-0.403	-0.398
-511.814	800.000	-0.034	-0.143
-510.799	-131.441	0.074	-0.013
-509.785	306.561	0.002	0.005
-508.770	100.443	0.215	-0.327
-507.756	-70.003	-0.271	0.134
-506.741	47.677	-0.208	0.254
-505.726	-136.146	0.166	0.025
-504.712	-127.565	-0.057	-0.011
-503.697	108.127	0.271	-0.422
-502.683	-112.605	0.973	0.251
-501.668	-35.266	0.118	-0.083
-500.653	-200.000	0.015	-0.277
-499.639	-200.000	0.013	0.491
-498.624	-200.000	-0.053	0.618
-497.610	-3.001	-0.279	0.254
-496.595	-200.000	0.028	0.274
-495.581	62.372	0.104	-0.136
-494.566	66.234	-0.052	0.069
-493.551	142.563	0.167	-0.290
-492.537	800.000	-0.028	-0.151
-491.522	-75.824	-0.170	-0.078
-490.508	253.881	-0.073	-0.163
-489.493	98.717	0.151	0.228
-488.478	800.000	-0.061	-0.225
-487.464	-9.525	-0.205	0.178
-486.449	322.188	0.066	-0.165
-485.435	800.000	-0.124	0.454
-484.420	488.400	0.076	0.227
-483.405	-124.554	-0.361	-0.073
-482.391	12.005	0.134	0.134
-481.376	-100.206	0.357	0.115
-480.362	-87.632	0.442	0.173
-479.347	-105.675	0.279	0.082
-478.332	-200.000	0.006	-0.229
-477.318	-86.876	-0.577	-0.228
-476.303	-103.137	0.228	-0.070
-475.289	-96.618	-0.143	-0.049
-474.274	-145.774	0.450	0.052
-473.259	-97.969	-0.345	0.115
-472.245	800.000	0.067	0.318
-471.230	6.819	-0.064	0.062
-470.216	800.000	-0.058	-0.222
-469.201	-93.760	-0.106	0.038
-468.186	-57.174	0.077	-0.044
-467.172	-88.150	0.315	-0.122
-466.157	484.898	0.037	-0.110
-465.143	-107.294	-0.366	0.104
-464.128	-36.083	0.096	0.067
-463.113	91.057	-0.103	0.150
-462.099	-183.057	0.311	-0.007
-461.084	-200.000	-0.003	-0.255
-460.070	-114.497	-0.440	0.109
-459.055	65.760	-0.289	0.382
-458.040	-20.040	0.092	-0.073
-457.026	-41.171	0.126	-0.084
-456.011	10.308	0.161	0.160
-454.997	58.079	0.132	-0.168
-453.982	637.553	0.135	-0.450
-452.968	-119.401	-0.577	-0.129
-451.953	-95.984	-0.143	0.049
-450.938	-113.986	-0.271	-0.068
-449.924	-131.935	0.590	0.099
-448.909	732.965	-0.083	-0.292
-447.895	21.703	-0.220	-0.233
-446.880	-61.483	0.135	-0.074
-445.865	-200.000	0.003	0.070
-444.851	400.705	-0.138	0.379
-443.836	800.000	0.023	0.126
-442.822	208.595	0.222	-0.453
-441.807	14.627	0.195	-0.198
-440.792	-95.320	-0.186	0.065
-439.778	48.386	-0.365	0.445
-438.763	-138.135	0.150	-0.021
-437.749	589.013	0.095	0.305
-436.734	32.038	0.212	0.238
-435.719	-200.000	0.072	0.632
-434.705	695.864	0.110	0.378
-433.690	406.139	0.061	-0.168
-432.676	-106.389	-0.381	0.110
-431.661	312.117	-0.023	-0.056
-430.646	-41.243	-0.302	0.202
-429.632	171.412	0.155	-0.290
-428.617	-100.104	-0.154	-0.049
-427.603	-140.652	-0.462	-0.062
-426.588	150.682	-0.288	0.510
-425.573	-109.441	0.320	-0.087
-424.559	23.113	0.097	0.103
-423.544	-116.779	-0.356	0.084
-422.530	85.558	0.226	0.323
-421.515	22.369	-0.094	0.099
-420.500	-29.894	-0.081	0.060
-419.486	19.393	0.364	0.380
-418.471	-144.959	0.614	0.072
-417.457	-130.206	-0.373	-0.065
-416.442	-4.822	0.238	-0.213
-415.428	-72.512	-0.639	0.305
-414.413	-111.031	-0.431	-0.114
-413.398	-8.129	-0.123	0.107
-412.384	-200.000	0.098	-0.799
-411.369	-186.092	-0.231	0.004
-410.355	-117.908	0.201	-0.047
-409.340	150.884	0.290	-0.513
-408.325	-200.000	0.008	-0.297
-407.311	-98.549	0.276	0.091
-406.296	661.705	-0.132	0.444
-405.282	-28.845	0.120	-0.089
-404.267	800.000	-0.058	0.224
-403.252	249.488	0.153	-0.337
-402.238	309.280	0.042	0.102
-401.223	-200.000	-0.058	-0.484
-400.209	451.045	-0.160	-0.461
-399.194	-113.803	0.348	-0.087
-398.179	-200.000	0.044	-0.370
-397.165	215.368	-0.231	-0.477
-396.150	-63.864	0.376	0.199
-395.136	-140.820	-0.600	-0.079
-394.121	17.235	0.122	-0.125
-393.106	266.737	0.196	-0.445
-392.092	-114.748	0.340	0.084
-391.077	800.000	-0.109	0.448
-390.063	-200.000	0.004	0.244
-389.048	-200.000	0.031	0.271
-388.033	-95.427	0.124	-0.043
-387.019	296.307	0.148	0.353
-386.004	-195.525	0.308	-0.003
-384.990	800.000	-0.029	0.111
-383.975	8.488	-0.534	0.521
-382.960	325.471	-0.103	0.258
-381.946	-98.535	0.076	-0.025
-380.931	4.900	0.281	0.268
-379.917	347.158	0.038	0.097
-378.902	-104.448	0.441	0.131
-377.888	-112.906	0.563	-0.144
-376.873	-99.927	0.061	0.020
-375.858	284.610	0.119	0.279
-374.844	28.284	-0.121	0.132
-373.829	405.417	0.175	0.482
-372.815	-132.102	-0.315	0.053
-371.800	-69.625	-0.390	-0.193
-370.785	-149.610	-0.408	-0.041
-369.771	-200.000	-0.023	0.274
-368.756	-45.467	0.128	-0.082
-367.742	-15.729	-0.220	-0.182
-366.727	2.560	0.149	-0.140
-365.712	-24.561	-0.472	-0.364
-364.698	-83.530	0.369	0.153
-363.683	-200.000	-0.041	0.409
-362.669	31.791	0.335	0.374
-361.654	49.640	-0.185	0.227
-360.639	189.527	0.162	-0.316
-359.625	-156.613	-0.261	0.021
-358.610	-68.972	0.394	0.196
-357.596	-30.880	-0.213	0.155
-356.581	15.755	-0.199	0.203
-355.566	-118.888	-0.377	0.085
-354.552	800.000	0.070	-0.354
-353.537	-200.000	-0.028	0.318
-352.523	800.000	0.048	0.274
-351.508	70.645	-0.219	-0.294
-350.493	42.755	-0.365	-0.431
-349.479	-200.000	-0.005	-0.250
-348.464	-200.000	-0.038	0.233
-347.450	-100.886	-0.222	0.070
-346.435	62.189	-0.304	-0.393
-345.420	-96.868	0.066	-0.022
-344.406	-177.050	-0.309	-0.010
-343.391	-53.563	-0.429	-0.254
-342.377	-200.000	-0.021	0.151
-341.362	-98.536	-0.370	0.122
-340.348	214.263	-0.264	0.542
-339.333	-72.441	-0.109	0.052
-338.318	-87.344	0.455	-0.178
-337.304	764.172	-0.040	-0.143
-336.289	-200.000	-0.047	0.305
-335.275	136.723	-0.075	-0.127
-334.260	-4.463	-0.084	-0.075
-333.245	102.414	0.128	0.194
-332.231	55.841	-0.197	0.248
-331.216	-200.000	0.049	-0.290
-330.202	23.753	0.271	-0.289
-329.187	85.864	-0.150	-0.214
-328.172	598.707	0.067	-0.217
-327.158	-142.166	0.532	-0.068
-326.143	-41.736	-0.170	-0.113
-325.129	-130.178	0.468	-0.082
-324.114	121.957	-0.321	0.520
-323.099	-9.652	0.214	0.185
-322.085	800.000	0.135	-0.538
-321.070	800.000	-0.056	-0.218
-320.056	13.991	-0.230	-0.231
-319.041	-200.000	-0.023	0.162
-318.026	-41.153	-0.460	-0.307
-317.012	-123.638	-0.294	-0.060
-315.997	213.493	0.132	0.270
-314.983	-132.287	0.690	0.114
-313.968	800.000	0.126	-0.608
-312.953	-62.546	0.019	-0.010
-311.939	282.361	0.160	0.373
-310.924	-200.000	0.026	-0.273
-309.910	72.377	-0.176	-0.237
-308.895	800.000	-0.059	-0.324
-307.880	121.580	0.084	0.135
-306.866	211.895	0.183	0.375
-305.851	-90.603	0.311	0.116
-304.837	116.111	0.196	0.311
-303.822	-200.000	0.018	0.130
-302.807	217.500	0.090	-0.187
-301.793	-0.311	-0.158	0.145
-300.778	79.746	-0.104	-0.144
-299.764	-30.657	-0.150	0.110
-298.749	205.892	-0.093	-0.187
-297.735	-95.185	-0.188	0.065
-296.720	142.514	-0.115	0.197
-295.705	800.000	-0.065	0.281
-294.691	-48.326	-0.235	0.146
-293.676	266.742	-0.043	0.098
-292.662	20.378	0.439	0.458
-291.647	734.767	-0.241	0.839
-290.632	-84.846	-0.334	-0.135
-289.618	-59.364	-0.326	-0.181
-288.603	-68.335	-0.034	-0.017
-287.589	27.674	0.279	-0.303
-286.574	-200.000	-0.012	0.237
-285.559	-101.559	-0.477	0.149
-284.545	-95.313	-0.433	0.150
-283.530	-49.270	-0.146	0.090
-282.516	-200.000	-0.018	-0.497
-281.501	-135.057	0.109	-0.017
-280.486	-66.713	0.120	-0.061
-279.472	-98.682	0.559	0.183
-278.457	723.732	-0.071	-0.244
-277.443	-108.351	-0.124	0.034
-276.428	585.053	-0.070	0.224
-275.413	-140.784	-0.379	0.050
-274.399	800.000	-0.033	-0.128
-273.384	49.975	0.262	0.319
-272.370	-108.005	-0.109	0.030
-271.355	-200.000	0.040	0.237
-270.340	-200.000	0.038	-0.290
-269.326	-113.043	0.145	0.037
-268.311	119.735	0.072	0.116
-267.297	408.649	0.082	-0.224
-266.282	800.000	-0.092	0.443
-265.267	14.778	0.120	0.121
-264.253	-38.412	0.207	-0.141
-263.238	5.526	-0.235	0.224
-262.224	25.609	0.204	-0.219
-261.209	-14.624	-0.328	0.272
-260.195	230.127	-0.161	-0.342
-259.180	-128.584	0.119	-0.022
-258.165	-15.012	0.079	-0.065
-257.151	208.890	0.081	-0.163
-256.136	2.250	0.056	-0.053
-255.122	800.000	0.033	0.124
-254.107	-24.523	-0.241	0.185
-253.092	-160.700	0.466	0.031
-252.078	140.677	-0.291	0.497
-251.063	58.010	-0.157	0.199
-250.049	-200.000	-0.005	0.333
-249.034	-18.598	0.143	-0.115
-248.019	65.198	-0.224	-0.292
-247.005	-200.000	-0.047	0.375
-245.990	-125.458	0.229	0.045
-244.976	136.592	0.122	-0.207
-243.961	800.000	-0.083	-0.403
-242.946	-13.187	-0.190	0.159
-241.932	-63.297	-0.258	0.137
-240.917	800.000	-0.014	-0.057
-239.903	381.753	0.040	-0.108
-238.888	55.360	-0.016	-0.020
-237.873	199.590	-0.134	-0.266
-236.859	-54.693	0.213	-0.124
-235.844	-200.000	0.047	-0.429
-234.830	-161.755	0.217	0.014
-233.815	-121.670	0.583	-0.124
-232.800	51.126	0.043	0.053
-231.786	-20.544	-0.377	0.298
-230.771	31.306	0.295	0.327
-229.757	-200.000	-0.173	-0.000
-228.742	-125.263	-0.351	0.069
-227.727	-64.051	-0.278	0.146
-226.713	487.676	0.113	0.336
-225.698	9.072	0.099	-0.097
-224.684	-83.142	-0.288	-0.119
-223.669	-200.000	0.007	0.088
-222.655	48.456	0.294	-0.356
-221.640	800.000	0.051	0.238
-220.625	288.002	-0.201	-0.472
-219.611	-200.000	-0.045	-0.458
-218.596	800.000	-0.036	-0.158
-217.582	-200.000	0.018	-0.129
-216.567	-200.000	-0.001	-0.340
-215.552	-172.620	-0.365	-0.015
-214.538	-117.226	0.396	0.092
-213.523	-87.863	-0.391	-0.151
-212.509	-107.929	-0.150	-0.042
-211.494	-200.000	0.104	-0.000
-210.479	123.741	0.143	0.233
-209.465	184.803	0.013	-0.024
-208.450	63.926	0.231	-0.300
-207.436	76.789	-0.284	-0.389
-206.421	-200.000	-0.013	-0.148
-205.406	65.436	0.325	-0.425
-204.392	-152.094	0.480	-0.044
-203.377	800.000	0.081	-0.375
-202.363	-51.395	0.282	-0.169
-201.348	-48.897	-0.181	-0.111
-200.333	-41.888	-0.254	-0.167
-199.319	800.000	0.072	0.275
-198.304	163.968	0.086	0.157
-197.290	-17.308	0.277	-0.225
-196.275	800.000	0.090	-0.430
-195.260	333.472	-0.118	-0.295
-194.246	149.451	0.212	0.372
-193.231	11.372	0.260	0.257
-192.217	-128.481	-0.249	0.045
-191.202	10.195	-0.180	0.177
-190.187	-142.106	0.325	-0.041
-189.173	-200.000	0.615	-0.002
-188.158	151.715	-0.087	-0.153
-187.144	-85.991	0.201	-0.080
-186.129	-59.912	0.366	0.201
-185.114	-37.353	0.347	0.238
-184.100	-97.413	0.525	0.175
-183.085	179.755	0.259	-0.490
-182.071	-139.428	0.540	-0.074
-181.056	-45.390	0.150	-0.096
-180.042	800.000	-0.106	-0.556
-179.027	96.666	0.174	0.257
-178.012	-89.278	-0.695	-0.262
-176.998	-142.701	-0.524	0.065
-175.983	-103.923	0.494	0.148
-174.969	-9.409	0.172	0.148
-173.954	-200.000	0.010	-0.376
-172.939	-137.199	-0.213	-0.031
-171.925	103.398	0.225	0.341
-170.910	800.000	-0.077	-0.393
-169.896	118.038	-0.281	-0.446
-168.881	-175.059	-0.237	0.008
-167.866	-200.000	0.012	-0.149
-166.852	-9.429	0.141	0.121
-165.837	-192.733	-0.289	0.003
-164.823	121.651	0.188	-0.302
-163.808	-77.274	-0.320	-0.142
-162.793	-92.202	0.406	0.147
-161.779	800.000	0.027	-0.117
-160.764	360.093	-0.063	0.163
-159.750	457.608	0.126	0.362
-158.735	-96.218	-0.190	0.064
-157.720	800.000	-0.074	-0.284
-156.706	623.949	0.056	-0.182
-155.691	-84.218	0.280	-0.113
-154.677	239.538	0.104	-0.223
-153.662	-53.154	0.204	-0.120
-152.647	114.955	0.091	-0.143
-151.633	-76.362	0.206	-0.093
-150.618	-200.000	-0.040	-0.280
-149.604	168.039	-0.132	-0.241
-148.589	-98.725	0.362	-0.118
-147.574	-200.000	-0.009	0.094
-146.560	800.000	0.063	0.294
-145.545	-147.640	0.203	-0.022
-144.531	-200.000	0.060	-0.454
-143.516	-178.676	0.121	0.003
-142.502	-173.270	0.207	-0.008
-141.487	800.000	0.090	0.391
-140.472	170.315	-0.210	0.387
-139.458	800.000	-0.118	-0.443
-138.443	-12.513	-0.605	-0.507
-137.429	-133.451	-0.286	0.046
-136.414	50.969	0.326	-0.398
-135.399	800.000	-0.044	-0.162
-134.385	-200.000	0.021	-0.456
-133.370	800.000	-0.096	0.349
-132.356	-77.870	0.250	0.110
-131.341	-159.935	-0.289	-0.020
-130.326	37.854	-0.148	-0.169
-129.312	754.359	-0.076	0.266
-128.297	79.538	-0.186	-0.257
-127.283	657.762	-0.127	0.421
-126.268	-200.000	-0.009	-0.085
-125.253	128.268	-0.110	0.181
-124.239	109.446	-0.051	-0.079
-123.224	-200.000	0.009	0.172
-122.210	-4.308	0.360	-0.320
-121.195	-129.592	0.611	-0.108
