DTS Sentinel unit serial number:	SN409020Multiplexer serial number:	ORYXHardware model number:	OX4-SRSoftware version number:	ORYX F/W v3.00 Oryx Data Collector v3.7.2.0data status	okinstallation	HaddamTimeLapsedifferential loss correction	single-endedforward channel	channel 3reverse channel	N/Adate	2011/06/21time	13:46:16forward acquisition time	30.00reverse acquisition time	0.00gamma	498.7831k internal	0.1811k external	0.1811temperature offset calibration	1.0074default loss term (dB/km)	0.3790temperature slope calibration	1.3530multiplexer offset coefficient	1.0000multiplexer slope coefficient	1.0000fibre end	0.00T internal ref (°C)	35.56T ext. ref 1 (°C)	31.64T ext. ref 2 (°C)	0.22length (m)	temperature (°C)	Stokes	anti-Stokes-747.200	-93.166	-0.412	0.146
-746.185	287.089	0.209	0.486
-745.171	-18.273	0.359	0.288
-744.156	256.917	-0.176	0.389
-743.142	-43.025	-0.290	-0.188
-742.127	50.399	-0.198	0.240
-741.112	800.000	-0.063	0.275
-740.098	-79.395	-0.252	0.109
-739.083	-200.000	-0.035	0.267
-738.069	636.709	0.120	0.392
-737.054	-156.137	-0.006	-0.000
-736.039	-200.000	0.014	0.092
-735.025	-77.316	-0.400	-0.178
-734.010	132.240	-0.148	-0.246
-732.996	-38.823	0.366	-0.247
-731.981	1.208	0.183	0.169
-730.966	186.568	0.101	-0.194
-729.952	557.410	-0.013	-0.041
-728.937	-200.000	0.022	-0.140
-727.923	296.377	0.091	-0.216
-726.908	-158.995	-0.370	0.027
-725.894	187.452	-0.129	-0.247
-724.879	-60.596	-0.319	-0.173
-723.864	-186.565	0.370	0.007
-722.850	24.621	-0.182	-0.193
-721.835	800.000	0.099	-0.388
-720.821	-59.591	-0.021	-0.012
-719.806	-34.950	-0.263	-0.184
-718.791	-171.743	-0.087	-0.004
-717.777	-110.730	0.285	-0.075
-716.762	-136.907	-0.613	0.089
-715.748	74.945	-0.118	-0.159
-714.733	-200.000	0.033	-0.432
-713.718	-36.475	0.478	-0.329
-712.704	-200.000	-0.048	-0.524
-711.689	55.410	0.075	-0.094
-710.675	800.000	0.112	-0.629
-709.660	36.421	-0.281	-0.319
-708.645	-200.000	0.015	0.206
-707.631	-136.586	-0.008	-0.001
-706.616	123.398	0.167	-0.270
-705.602	169.956	-0.168	-0.308
-704.587	-88.509	-0.415	0.158
-703.572	322.440	-0.153	0.374
-702.558	800.000	-0.041	0.170
-701.543	-200.000	0.032	0.202
-700.529	-42.807	0.453	0.295
-699.514	16.042	0.286	-0.288
-698.499	-34.818	-0.223	-0.156
-697.485	800.000	0.143	-0.613
-696.470	-83.561	-0.243	0.099
-695.456	-131.155	0.166	0.028
-694.441	51.557	-0.275	-0.335
-693.426	-68.223	-0.155	-0.077
-692.412	377.179	-0.047	0.123
-691.397	314.231	-0.084	0.204
-690.383	755.060	0.002	0.006
-689.368	-73.058	0.182	-0.085
-688.354	561.726	-0.068	0.212
-687.339	86.285	-0.216	-0.306
-686.324	-117.783	-0.053	-0.012
-685.310	123.019	0.255	-0.410
-684.295	277.833	0.038	0.087
-683.281	-200.000	0.005	-0.316
-682.266	-54.677	-0.386	-0.223
-681.251	-134.369	-0.248	-0.039
-680.237	57.046	-0.043	-0.054
-679.222	-183.061	0.295	-0.007
-678.208	123.949	0.161	-0.260
-677.193	129.491	0.224	-0.368
-676.178	800.000	-0.020	0.110
-675.164	235.341	0.097	-0.205
-674.149	-82.573	-0.261	-0.108
-673.135	132.256	-0.057	-0.094
-672.120	119.115	-0.282	-0.447
-671.105	-128.242	-0.539	0.098
-670.091	56.969	0.411	-0.514
-669.076	-200.000	-0.025	0.219
-668.062	71.610	0.419	-0.559
-667.047	18.276	0.059	-0.061
-666.032	4.805	-0.408	-0.383
-665.018	195.459	-0.045	-0.087
-664.003	11.790	-0.174	-0.171
-662.989	-121.572	0.240	-0.051
-661.974	354.875	0.069	0.176
-660.959	5.883	-0.173	0.164
-659.945	-189.004	-0.763	-0.011
-658.930	800.000	-0.014	-0.065
-657.916	17.513	0.037	-0.038
-656.901	249.756	-0.198	0.431
-655.886	-97.379	-0.247	0.082
-654.872	-6.159	0.308	0.269
-653.857	-146.248	0.213	-0.024
-652.843	-200.000	0.026	-0.319
-651.828	-200.000	0.034	-0.576
-650.814	209.139	-0.267	-0.538
-649.799	-23.617	-0.413	-0.316
-648.784	-200.000	0.006	0.706
-647.770	2.768	-0.153	-0.142
-646.755	190.561	-0.117	0.226
-645.741	-105.205	0.084	-0.025
-644.726	-200.000	0.027	0.470
-643.711	236.614	-0.189	-0.402
-642.697	155.131	-0.136	0.240
-641.682	800.000	-0.076	0.315
-640.668	500.808	0.193	-0.571
-639.653	700.541	-0.182	-0.617
-638.638	800.000	-0.185	-0.673
-637.624	-128.763	-0.465	-0.083
-636.609	144.632	-0.081	0.139
-635.595	-47.390	0.247	-0.153
-634.580	-84.682	0.413	0.165
-633.565	154.657	-0.284	-0.501
-632.551	56.560	0.102	0.127
-631.536	52.072	-0.113	-0.138
-630.522	32.065	0.227	0.250
-629.507	-200.000	0.015	0.113
-628.492	-117.318	-0.401	-0.092
-627.478	-116.735	-0.308	-0.072
-626.463	22.078	-0.076	-0.080
-625.449	114.647	0.163	-0.254
-624.434	227.526	0.283	-0.590
-623.419	-200.000	-0.027	-0.185
-622.405	-36.134	-0.111	0.076
-621.390	4.464	-0.160	-0.150
-620.376	105.456	0.098	0.148
-619.361	-138.709	0.445	-0.062
-618.346	-159.713	-0.140	-0.010
-617.332	-57.061	-0.185	-0.104
-616.317	-99.136	-0.171	-0.055
-615.303	-41.798	0.067	-0.044
-614.288	-123.136	0.444	0.090
-613.273	156.533	-0.264	-0.466
-612.259	-200.000	-0.006	0.528
-611.244	-96.076	-0.030	-0.010
-610.230	-200.000	-0.030	-0.530
-609.215	156.485	0.069	-0.122
-608.201	-67.360	0.108	0.054
-607.186	-173.972	0.237	0.009
-606.171	-99.643	0.349	0.111
-605.157	-123.149	-0.414	0.084
-604.142	121.721	-0.097	0.155
-603.128	-57.134	0.392	0.220
-602.113	294.417	-0.097	-0.228
-601.098	800.000	-0.077	-0.290
-600.084	-65.516	-0.317	-0.162
-599.069	-20.397	-0.072	-0.056
-598.055	91.333	0.069	-0.099
-597.040	44.173	-0.177	-0.207
-596.025	-195.926	-0.520	-0.005
-595.011	-200.000	0.050	0.610
-593.996	-178.584	-0.245	-0.007
-592.982	-159.008	0.388	0.028
-591.967	27.333	-0.149	-0.160
-590.952	-16.590	-0.341	-0.276
-589.938	171.329	-0.093	-0.171
-588.923	-115.969	-0.357	-0.084
-587.909	39.867	-0.036	-0.041
-586.894	10.469	0.244	0.237
-585.879	111.918	-0.384	0.592
-584.865	-160.214	-0.273	-0.019
-583.850	-96.341	-0.322	-0.108
-582.836	-60.966	-0.210	-0.113
-581.821	-200.000	-0.065	-0.556
-580.806	206.761	-0.071	-0.141
-579.792	-167.323	-0.371	0.019
-578.777	59.928	-0.125	0.157
-577.763	4.701	0.244	0.229
-576.748	157.916	-0.123	-0.218
-575.733	-131.647	-0.352	-0.058
-574.719	-146.727	-0.160	-0.017
-573.704	-133.268	-0.320	-0.051
-572.690	-46.998	-0.228	0.142
-571.675	-119.042	0.221	0.049
-570.661	542.994	-0.143	-0.437
-569.646	54.153	0.131	0.161
-568.631	-20.669	0.115	0.090
-567.617	667.398	-0.085	0.281
-566.602	-62.830	0.544	0.286
-565.588	-34.711	0.217	0.151
-564.573	-200.000	-0.054	0.315
-563.558	151.472	-0.121	-0.210
-562.544	800.000	0.044	-0.209
-561.529	791.760	0.110	0.389
-560.515	319.732	0.073	0.177
-559.500	-127.448	-0.189	0.035
-558.485	0.886	0.447	0.408
-557.471	-116.836	0.518	-0.120
-556.456	-126.143	0.564	0.107
-555.442	351.283	-0.138	-0.349
-554.427	-129.987	-0.101	-0.017
-553.412	-59.026	-0.120	-0.066
-552.398	-42.712	0.420	-0.272
-551.383	-77.238	0.446	-0.197
-550.369	12.062	-0.109	-0.107
-549.354	244.511	0.074	0.159
-548.339	-143.752	0.121	-0.014
-547.325	-200.000	-0.012	-0.128
-546.310	800.000	0.100	0.491
-545.296	-134.452	-0.127	0.020
-544.281	-116.837	0.269	-0.062
-543.266	23.884	0.428	-0.450
-542.252	-15.315	-0.325	0.265
-541.237	82.701	0.032	0.045
-540.223	-86.969	-0.204	-0.079
-539.208	-131.233	0.325	0.055
-538.193	28.919	0.206	-0.222
-537.179	-200.000	0.032	0.224
-536.164	800.000	-0.052	-0.207
-535.150	-143.242	0.158	0.019
-534.135	-80.541	-0.296	0.125
-533.121	121.322	-0.234	0.371
-532.106	263.272	0.283	0.629
-531.091	-22.158	0.112	0.086
-530.077	-94.446	-0.470	0.162
-529.062	-90.369	-0.381	0.140
-528.048	-77.195	-0.245	-0.108
-527.033	-50.923	-0.190	0.113
-526.018	-169.207	0.241	-0.011
-525.004	-187.141	-0.096	-0.002
-523.989	-93.874	-0.335	-0.117
-522.975	169.152	-0.189	0.345
-521.960	261.175	0.095	-0.211
-520.945	-39.373	0.161	-0.107
-519.931	53.063	-0.253	-0.309
-518.916	-64.296	0.417	0.215
-517.902	16.020	0.016	0.016
-516.887	-168.210	0.173	0.008
-515.872	800.000	-0.038	0.181
-514.858	-38.362	0.492	-0.331
-513.843	430.880	0.135	0.374
-512.829	-200.000	0.030	-0.357
-511.814	-105.464	0.378	-0.109
-510.799	-146.162	0.462	-0.051
-509.785	-200.000	0.005	0.320
-508.770	-146.001	-0.342	0.038
-507.756	-126.346	-0.483	0.091
-506.741	63.514	-0.134	-0.172
-505.726	53.442	0.225	0.275
-504.712	-96.933	-0.414	0.137
-503.697	-200.000	-0.016	0.150
-502.683	752.816	-0.161	0.556
-501.668	16.918	-0.246	-0.248
-500.653	800.000	0.169	0.638
-499.639	297.975	0.152	0.358
-498.624	361.708	-0.022	-0.057
-497.610	106.217	0.135	0.204
-496.595	800.000	-0.131	0.512
-495.581	24.785	-0.261	0.275
-494.566	800.000	0.109	0.422
-493.551	102.489	0.083	0.124
-492.537	-55.714	0.341	-0.193
-491.522	19.001	-0.264	-0.269
-490.508	8.871	0.167	0.160
-489.493	39.928	-0.122	-0.140
-488.478	-200.000	-0.015	0.164
-487.464	-57.717	0.523	0.290
-486.449	-63.434	-0.317	0.165
-485.435	-198.721	0.258	-0.002
-484.420	-37.584	0.474	-0.320
-483.405	-72.643	0.195	0.091
-482.391	218.188	-0.249	-0.508
-481.376	-200.000	-0.002	0.247
-480.362	-181.754	-0.131	0.003
-479.347	-73.278	0.068	-0.031
-478.332	21.800	0.191	-0.197
-477.318	181.757	-0.123	-0.231
-476.303	-149.255	0.263	0.026
-475.289	160.926	-0.200	0.356
-474.274	-200.000	0.002	-0.182
-473.259	487.480	-0.182	0.530
-472.245	-124.073	0.099	-0.020
-471.230	-181.808	0.091	0.002
-470.216	-108.077	-0.191	0.052
-469.201	-60.090	-0.447	-0.241
-468.186	20.866	0.303	0.312
-467.172	128.795	-0.070	0.114
-466.157	-200.000	-0.017	-0.711
-465.143	800.000	-0.130	-0.541
-464.128	-200.000	-0.020	-0.295
-463.113	-76.273	0.233	0.104
-462.099	-200.000	-0.047	-0.445
-461.084	34.215	-0.029	-0.032
-460.070	-0.114	-0.237	-0.214
-459.055	-43.767	-0.328	0.210
-458.040	-200.000	-0.032	-0.218
-457.026	800.000	-0.112	-0.407
-456.011	34.151	0.060	-0.066
-454.997	-53.842	0.048	-0.027
-453.982	-82.527	0.168	-0.069
-452.968	-200.000	0.085	-0.576
-451.953	37.459	0.194	-0.219
-450.938	-36.602	-0.228	0.156
-449.924	56.186	0.280	-0.345
-448.909	4.508	-0.238	0.221
-447.895	-58.699	-0.237	0.130
-446.880	438.237	-0.155	0.432
-445.865	-9.192	-0.202	0.171
-444.851	-88.908	0.360	-0.135
-443.836	-41.636	-0.344	-0.224
-442.822	800.000	0.049	0.254
-441.807	-162.052	0.256	-0.016
-440.792	800.000	-0.091	0.418
-439.778	-44.867	-0.259	0.163
-438.763	-103.870	0.191	-0.056
-437.749	-158.551	-0.292	0.021
-436.734	60.032	-0.206	-0.258
-435.719	210.081	-0.061	0.122
-434.705	-200.000	-0.003	0.244
-433.690	-73.166	0.344	0.159
-432.676	189.982	-0.214	-0.409
-431.661	35.696	0.064	-0.072
-430.646	-25.846	0.074	0.055
-429.632	-110.821	0.174	0.045
-428.617	-200.000	0.003	-0.081
-427.603	-17.809	0.125	0.099
-426.588	457.583	0.232	-0.658
-425.573	-45.482	-0.406	0.254
-424.559	110.795	-0.161	-0.246
-423.544	32.898	-0.189	-0.208
-422.530	-159.393	0.198	0.014
-421.515	-95.553	-0.219	0.074
-420.500	-30.479	0.290	0.208
-419.486	800.000	-0.018	0.089
-418.471	50.800	-0.110	0.132
-417.457	-77.850	-0.401	0.175
-416.442	-121.490	0.150	-0.031
-415.428	6.456	0.180	-0.169
-414.413	-74.551	-0.275	0.125
-413.398	-136.225	-0.655	-0.096
-412.384	-200.000	-0.039	0.616
-411.369	-144.922	0.535	0.061
-410.355	201.881	0.186	0.364
-409.340	-88.627	-0.381	0.143
-408.325	-69.674	-0.212	-0.102
-407.311	-95.282	-0.350	0.119
-406.296	-153.765	-0.529	-0.045
-405.282	800.000	-0.006	-0.031
-404.267	71.488	0.146	-0.192
-403.252	307.809	0.066	0.157
-402.238	201.609	-0.124	-0.244
-401.223	-200.000	-0.056	0.434
-400.209	95.694	0.232	-0.336
-399.194	85.214	-0.036	0.050
-398.179	-160.056	0.200	-0.014
-397.165	-84.241	-0.202	0.081
-396.150	250.678	-0.040	-0.086
-395.136	-50.841	0.367	-0.218
-394.121	-5.423	-0.802	-0.697
-393.106	49.029	-0.221	-0.264
-392.092	191.565	-0.051	0.098
-391.077	-200.000	0.000	0.542
-390.063	18.672	0.339	0.344
-389.048	-43.040	-0.224	-0.144
-388.033	-86.814	-0.283	0.109
-387.019	460.529	0.130	-0.368
-386.004	309.982	-0.202	-0.480
-384.990	-200.000	-0.007	0.041
-383.975	-72.825	-0.148	0.069
-382.960	172.174	0.169	0.309
-381.946	114.286	0.020	-0.031
-380.931	43.614	0.120	-0.139
-379.917	-127.481	0.231	0.042
-378.902	-26.424	-0.200	0.148
-377.888	131.871	-0.206	0.336
-376.873	138.578	-0.126	0.209
-375.858	73.427	0.279	0.369
-374.844	231.484	0.179	-0.372
-373.829	-157.708	0.647	0.048
-372.815	-87.405	-0.129	0.049
-371.800	332.406	0.087	-0.214
-370.785	50.558	0.564	-0.675
-369.771	-62.503	0.404	-0.212
-368.756	-200.000	-0.006	0.193
-367.742	179.722	0.136	-0.252
-366.727	-200.000	-0.004	0.304
-365.712	-77.465	-0.180	-0.079
-364.698	-191.286	0.351	-0.004
-363.683	-148.954	0.064	0.006
-362.669	59.329	-0.057	0.071
-361.654	-106.201	0.313	0.088
-360.639	127.954	0.307	0.494
-359.625	32.816	0.057	-0.062
-358.610	800.000	-0.056	-0.255
-357.596	9.027	-0.265	-0.253
-356.581	-13.898	-0.229	0.187
-355.566	-127.536	-0.260	0.047
-354.552	800.000	-0.021	-0.113
-353.537	-155.632	0.145	-0.012
-352.523	-61.198	-0.182	0.097
-351.508	-153.294	0.469	-0.041
-350.493	-125.855	0.455	0.086
-349.479	-74.624	0.415	0.188
-348.464	-44.358	0.307	0.194
-347.450	-27.082	-0.230	0.169
-346.435	-66.057	0.305	-0.153
-345.420	-66.400	-0.444	0.222
-344.406	-59.018	0.084	-0.046
-343.391	343.177	-0.123	0.305
-342.377	-68.076	-0.293	0.144
-341.362	-68.150	-0.184	0.090
-340.348	-159.223	-0.190	-0.013
-339.333	-200.000	-0.001	0.029
-338.318	114.192	-0.078	0.121
-337.304	45.248	-0.140	-0.164
-336.289	107.966	-0.080	-0.121
-335.275	-157.318	0.227	-0.017
-334.260	-164.158	0.309	-0.018
-333.245	20.550	0.275	-0.281
-332.231	-64.259	-0.174	0.089
-331.216	304.813	-0.032	0.075
-330.202	8.197	-0.224	0.212
-329.187	106.341	-0.186	-0.279
-328.172	-115.821	0.254	0.059
-327.158	-22.698	-0.424	0.323
-326.143	-200.000	0.025	0.513
-325.129	-89.357	0.144	-0.053
-324.114	108.369	-0.120	0.181
-323.099	-97.948	0.330	0.107
-322.085	-82.866	0.370	-0.150
-321.070	-16.788	-0.307	-0.245
-320.056	-5.603	0.149	0.129
-319.041	7.120	0.256	0.241
-318.026	280.695	0.235	0.534
-317.012	-200.000	0.010	0.177
-315.997	-46.108	0.219	0.136
-314.983	-25.939	-0.052	-0.039
-313.968	321.513	0.178	-0.429
-312.953	112.261	0.289	0.441
-311.939	-132.479	-0.119	-0.019
-310.924	77.631	-0.090	-0.122
-309.910	-100.638	0.242	-0.075
-308.895	-13.293	0.269	0.220
-307.880	-200.000	-0.002	0.379
-306.866	800.000	-0.053	0.200
-305.851	-66.786	-0.165	0.082
-304.837	267.201	0.065	0.144
-303.822	67.959	0.187	-0.241
-302.807	258.403	0.138	0.302
-301.793	296.287	-0.094	-0.218
-300.778	227.447	-0.043	-0.090
-299.764	-8.176	-0.551	-0.468
-298.749	524.910	-0.220	-0.655
-297.735	-155.710	-0.256	-0.020
-296.720	-98.189	-0.413	-0.133
-295.705	75.879	0.179	0.239
-294.691	134.548	0.154	-0.252
-293.676	73.966	0.196	0.260
-292.662	-2.697	0.135	0.119
-291.647	20.624	-0.126	-0.128
-290.632	-110.133	-0.303	0.079
-289.618	5.488	-0.362	-0.337
-288.603	-106.303	0.269	-0.075
-287.589	73.416	0.194	-0.257
-286.574	-180.030	0.174	-0.005
-285.559	-200.000	0.004	0.205
-284.545	44.302	0.302	0.350
-283.530	-138.072	-0.344	-0.048
-282.516	388.383	-0.053	0.140
-281.501	237.189	0.091	-0.191
-280.486	151.155	0.058	0.100
-279.472	55.955	-0.070	-0.085
-278.457	-200.000	0.012	-0.076
-277.443	136.015	0.109	-0.180
-276.428	-44.344	-0.369	0.232
-275.413	-77.026	-0.311	0.136
-274.399	-77.548	0.381	-0.166
-273.384	153.136	0.134	0.232
-272.370	-123.236	0.195	0.039
-271.355	167.306	0.171	-0.307
-270.340	-200.000	-0.200	-0.000
-269.326	-200.000	0.023	0.438
-268.311	-140.430	0.360	0.047
-267.297	-68.102	-0.159	0.078
-266.282	-170.882	-0.478	0.020
-265.267	531.665	-0.065	-0.195
-264.253	705.345	0.103	0.343
-263.238	91.048	-0.180	0.255
-262.224	11.315	0.245	0.237
-261.209	-51.484	-0.276	0.162
-260.195	-114.082	-0.458	-0.111
-259.180	-92.621	-0.113	0.040
-258.165	800.000	0.079	0.333
-257.151	181.792	0.114	0.213
-256.136	800.000	-0.029	0.131
-255.122	402.532	0.123	0.327
-254.107	134.659	-0.178	0.292
-253.092	205.136	-0.113	0.222
-252.078	-197.546	-0.221	0.002
-251.063	37.106	0.305	-0.340
-250.049	-116.400	0.731	-0.169
-249.034	-144.781	0.398	0.045
-248.019	570.098	0.102	0.315
-247.005	290.503	-0.105	-0.240
-245.990	-93.765	-0.435	0.150
-244.976	-108.418	0.584	-0.157
-243.961	565.277	-0.051	-0.156
-242.946	-63.389	-0.372	0.192
-241.932	-61.663	0.087	-0.046
-240.917	175.206	0.288	0.526
-239.903	-20.717	-0.434	0.335
-238.888	151.083	0.116	-0.199
-237.873	-200.000	0.030	0.300
-236.859	-200.000	0.010	0.123
-235.844	-200.000	0.003	-0.228
-234.830	-36.900	-0.182	0.123
-233.815	-45.490	0.193	-0.120
-232.800	-200.000	0.002	-0.397
-231.786	27.525	0.277	0.294
-230.771	62.343	-0.328	0.413
-229.757	800.000	0.078	-0.371
-228.742	-200.000	0.010	-0.062
-227.727	-10.752	0.038	-0.032
-226.713	192.407	-0.080	-0.152
-225.698	-90.475	0.191	0.069
-224.684	19.808	0.247	0.251
-223.669	-71.927	0.108	-0.051
-222.655	660.607	-0.113	0.368
-221.640	402.731	-0.133	0.354
-220.625	52.515	-0.207	-0.249
-219.611	-18.691	-0.203	-0.159
-218.596	-7.057	0.131	0.112
-217.582	60.377	0.223	-0.278
-216.567	-95.715	-0.466	-0.156
-215.552	500.644	0.160	0.467
-214.538	192.968	-0.145	0.276
-213.523	-200.000	-0.050	-0.720
-212.509	800.000	-0.078	-0.422
-211.494	-73.234	-0.594	0.272
-210.479	56.162	0.147	-0.180
-209.465	-200.000	-0.006	0.288
-208.450	-200.000	0.002	0.067
-207.436	393.798	-0.103	-0.270
-206.421	-200.000	0.006	-0.326
-205.406	-140.870	-0.091	-0.012
-204.392	-157.557	0.758	-0.056
-203.377	-35.531	0.402	0.274
-202.363	-200.000	0.002	-0.040
-201.348	-149.013	-0.354	-0.035
-200.333	-200.000	-0.016	-0.161
-199.319	412.972	-0.151	0.407
-198.304	-107.055	0.344	0.095
-197.290	-200.000	0.034	0.322
-196.275	-200.000	-0.426	0.001
-195.260	-106.533	-0.453	0.126
-194.246	-200.000	-0.045	-0.447
-193.231	294.062	0.164	0.377
-192.217	-49.279	0.308	-0.185
-191.202	-200.000	-0.014	0.285
-190.187	-140.946	-0.145	0.018
-189.173	-75.718	0.332	-0.147
-188.158	15.939	0.335	-0.331
-187.144	406.454	0.181	-0.482
-186.129	-152.370	-0.238	0.021
-185.114	-73.355	-0.368	-0.168
-184.100	-19.501	-0.162	-0.126
-183.085	40.715	0.330	-0.374
-182.071	13.536	-0.170	-0.166
-181.056	-22.415	0.501	-0.381
-180.042	-21.463	0.501	-0.383
-179.027	190.061	-0.038	0.071
-178.012	-200.000	0.044	-0.551
-176.998	30.988	0.561	-0.605
-175.983	44.278	-0.260	-0.300
-174.969	54.663	-0.146	0.177
-173.954	-105.291	-0.659	0.187
-172.939	-50.551	0.458	-0.270
-171.925	-54.906	0.350	-0.198
-170.910	221.720	-0.127	-0.257
-169.896	142.096	0.043	0.072
-168.881	-67.577	0.225	-0.110
-167.866	9.011	0.150	0.142
-166.852	0.093	-0.172	-0.153
-165.837	-88.112	-0.590	-0.221
-164.823	-41.454	0.261	0.168
-163.808	-123.662	0.225	0.044
-162.793	800.000	-0.119	-0.428
-161.779	-200.000	0.024	-0.211
-160.764	-50.900	0.074	0.044
-159.750	800.000	-0.024	-0.124
-158.735	-44.678	0.336	-0.210
-157.720	-47.949	0.193	-0.117
-156.706	659.773	-0.048	-0.156
-155.691	181.452	0.135	-0.251
-154.677	203.481	-0.149	-0.290
-153.662	176.804	0.185	0.339
-152.647	-64.406	0.590	0.300
-151.633	-181.160	-0.142	0.003
-150.618	-39.888	-0.312	0.204
-149.604	82.029	0.199	0.271
-148.589	-200.000	-0.055	0.483
-147.574	-162.231	-0.240	-0.015
-146.560	-129.450	-0.192	-0.033
-145.545	202.403	0.372	-0.722
-144.531	-21.458	0.377	-0.288
-143.516	187.624	0.254	0.476
-142.502	173.391	0.298	0.540
-141.487	214.237	0.061	0.122
-140.472	600.685	0.041	0.130
-139.458	21.056	-0.104	-0.106
-138.443	59.385	0.269	0.332
-137.429	-200.000	0.019	0.271
-136.414	97.883	0.196	-0.284
-135.399	120.419	-0.176	0.274
-134.385	-122.468	-0.324	0.066
-133.370	-200.000	0.020	-0.206
-132.356	23.038	0.105	0.108
-131.341	-159.246	-0.052	0.004
-130.326	-144.267	0.239	-0.028
-129.312	-86.018	-0.248	-0.096
-128.297	411.807	-0.047	-0.126
-127.283	239.698	-0.248	-0.520
-126.268	-100.360	-0.127	0.039
-125.253	-200.000	0.022	-0.253
-124.239	-90.814	0.487	-0.175
-123.224	-200.000	-0.039	0.386
-122.210	-16.855	0.267	0.211
