DTS Sentinel unit serial number:	SN409020Multiplexer serial number:	ORYXHardware model number:	OX4-SRSoftware version number:	ORYX F/W v3.00 Oryx Data Collector v3.7.2.0data status	okinstallation	HaddamTimeLapsedifferential loss correction	single-endedforward channel	channel 3reverse channel	N/Adate	2011/06/22time	07:21:16forward acquisition time	30.00reverse acquisition time	0.00gamma	498.7831k internal	0.1755k external	0.1755temperature offset calibration	1.0074default loss term (dB/km)	0.3790temperature slope calibration	1.3530multiplexer offset coefficient	1.0000multiplexer slope coefficient	1.0000fibre end	0.00T internal ref (°C)	23.16T ext. ref 1 (°C)	20.16T ext. ref 2 (°C)	0.13length (m)	temperature (°C)	Stokes	anti-Stokes-747.200	-147.628	-0.207	-0.023
-746.185	-200.000	-0.021	0.171
-745.171	-105.968	-0.556	0.165
-744.156	122.826	-0.252	0.418
-743.142	-200.000	0.057	-0.432
-742.127	41.074	0.420	0.503
-741.112	560.820	0.067	-0.216
-740.098	27.194	0.135	0.150
-739.083	-156.243	0.266	-0.022
-738.069	535.864	-0.122	0.387
-737.054	-169.797	0.113	0.005
-736.039	-196.243	0.233	0.002
-735.025	-42.028	-0.087	0.059
-734.010	-172.778	0.152	0.006
-732.996	231.881	0.121	0.263
-731.981	-200.000	-0.010	-0.165
-730.966	337.087	-0.064	-0.165
-729.952	442.278	0.081	-0.237
-728.937	444.364	-0.295	-0.863
-727.923	-105.892	-0.432	0.128
-726.908	612.268	-0.052	0.173
-725.894	-95.917	-0.175	0.061
-724.879	356.057	-0.344	0.912
-723.864	-126.427	0.417	0.081
-722.850	-56.257	-0.068	-0.040
-721.835	379.720	0.138	-0.375
-720.821	-167.353	-0.167	0.009
-719.806	74.356	-0.111	0.154
-718.791	-16.496	-0.290	-0.243
-717.777	-94.562	0.408	-0.146
-716.762	-51.238	0.419	0.259
-715.748	-129.153	-0.427	-0.078
-714.733	7.189	-0.167	0.165
-713.718	-100.704	-0.520	-0.169
-712.704	-71.996	-0.264	-0.129
-711.689	-126.090	0.230	0.045
-710.675	-70.691	0.021	-0.011
-709.660	179.820	-0.183	0.357
-708.645	478.390	-0.123	0.372
-707.631	-200.000	-0.029	-0.224
-706.616	-200.000	0.036	0.308
-705.602	-62.659	0.107	0.059
-704.587	225.721	-0.161	-0.347
-703.572	-45.004	-0.361	-0.237
-702.558	71.581	-0.055	-0.076
-701.543	-200.000	-0.020	-0.151
-700.529	-200.000	0.027	-0.381
-699.514	-123.707	-0.260	-0.054
-698.499	-82.519	0.235	-0.100
-697.485	35.041	-0.051	-0.059
-696.470	1.673	-0.080	-0.077
-695.456	-185.165	-0.158	-0.003
-694.441	2.651	-0.175	-0.167
-693.426	-200.000	0.060	-0.360
-692.412	-91.648	-0.731	0.274
-691.397	-197.982	-0.207	0.002
-690.383	283.935	0.131	-0.313
-689.368	-101.210	0.087	0.028
-688.354	800.000	-0.108	-0.582
-687.339	226.878	-0.043	0.093
-686.324	-60.508	0.294	0.165
-685.310	-104.128	0.071	0.022
-684.295	-87.837	-0.340	-0.135
-683.281	94.518	0.078	-0.117
-682.266	7.595	-0.049	-0.049
-681.251	-200.000	0.054	-0.376
-680.237	686.962	-0.040	0.139
-679.222	81.250	-0.222	0.318
-678.208	-58.235	-0.101	-0.058
-677.193	18.545	0.248	-0.262
-676.178	101.688	0.126	-0.195
-675.164	800.000	0.043	0.192
-674.149	800.000	0.067	-0.299
-673.135	-12.770	0.111	0.096
-672.120	599.725	0.018	-0.058
-671.105	141.997	-0.036	0.063
-670.091	105.472	-0.198	0.309
-669.076	-195.193	0.231	0.002
-668.062	-49.439	-0.180	-0.113
-667.047	205.656	-0.141	0.290
-666.032	-37.318	0.353	-0.249
-665.018	150.824	0.214	-0.385
-664.003	-121.677	0.303	0.066
-662.989	-200.000	-0.005	-0.777
-661.974	77.389	-0.279	-0.393
-660.959	-200.000	-0.033	0.439
-659.945	170.133	0.045	0.085
-658.930	-105.068	-0.375	-0.113
-657.916	-166.555	0.208	0.011
-656.901	281.916	-0.146	0.347
-655.886	-35.206	0.425	-0.305
-654.872	257.515	-0.060	-0.136
-653.857	27.599	0.256	0.285
-652.843	-200.000	-0.062	0.442
-651.828	-24.722	0.451	0.353
-650.814	359.510	-0.230	-0.611
-649.799	107.215	-0.212	-0.334
-648.784	-200.000	-0.026	-0.347
-647.770	45.617	-0.077	-0.094
-646.755	146.688	0.117	-0.207
-645.741	18.904	0.151	-0.160
-644.726	-39.123	0.287	0.199
-643.711	-100.322	-0.156	0.051
-642.697	-101.862	-0.204	-0.065
-641.682	126.313	-0.205	0.344
-640.668	61.011	0.120	-0.157
-639.653	-10.961	-0.225	-0.196
-638.638	-200.000	0.002	0.204
-637.624	-125.763	-0.542	0.107
-636.609	-80.501	0.271	0.119
-635.595	-116.034	-0.140	0.034
-634.580	37.861	0.153	-0.179
-633.565	223.680	-0.189	-0.404
-632.551	310.265	0.109	0.270
-631.536	800.000	-0.028	0.107
-630.522	-17.085	-0.390	0.324
-629.507	-200.000	-0.046	0.529
-628.492	131.939	-0.079	-0.135
-627.478	-25.075	-0.102	-0.080
-626.463	800.000	-0.060	-0.246
-625.449	800.000	-0.040	-0.149
-624.434	-97.531	-0.304	-0.104
-623.419	67.456	-0.416	-0.561
-622.405	-77.429	0.685	0.312
-621.390	504.181	-0.077	0.236
-620.376	-169.520	0.110	0.005
-619.361	-103.645	0.693	-0.213
-618.346	70.452	-0.193	-0.263
-617.332	-200.000	-0.008	-0.300
-616.317	177.304	0.177	0.340
-615.303	-200.000	-0.016	-0.120
-614.288	56.681	-0.204	0.261
-613.273	95.422	-0.088	-0.133
-612.259	83.401	0.252	-0.363
-611.244	-159.194	-0.239	0.018
-610.230	-102.539	-0.517	-0.162
-609.215	-98.442	0.107	0.036
-608.201	-25.434	-0.346	-0.269
-607.186	15.751	-0.179	-0.185
-606.171	347.833	-0.132	-0.344
-605.157	800.000	0.055	-0.257
-604.142	397.917	0.039	-0.107
-603.128	-146.524	0.294	0.033
-602.113	-71.428	-0.371	0.182
-601.098	77.308	-0.127	0.178
-600.084	9.818	0.112	0.111
-599.069	-130.837	0.354	0.062
-598.055	72.772	-0.085	-0.117
-597.040	-200.000	-0.009	-0.184
-596.025	40.148	-0.182	-0.215
-595.011	-54.880	-0.531	0.314
-593.996	-200.000	-0.019	-0.598
-592.982	304.829	-0.245	0.602
-591.967	-200.000	0.079	0.535
-590.952	800.000	0.109	0.455
-589.938	199.155	0.022	-0.044
-588.923	-103.845	-0.230	-0.070
-587.909	112.372	0.077	0.123
-586.894	-72.836	0.382	-0.185
-585.879	-74.415	-0.185	-0.088
-584.865	8.291	-0.519	0.514
-583.850	-95.660	0.422	-0.148
-582.836	-160.162	0.150	0.011
-581.821	475.559	0.060	-0.179
-580.806	36.223	0.099	-0.115
-579.792	-12.722	-0.121	-0.103
-578.777	52.474	-0.181	0.228
-577.763	-69.562	-0.386	0.194
-576.748	4.345	-0.117	-0.113
-575.733	61.262	-0.202	0.265
-574.719	-35.734	-0.451	-0.321
-573.704	-135.187	-0.253	0.040
-572.690	241.982	-0.111	-0.244
-571.675	-90.458	0.347	-0.132
-570.661	-200.000	0.035	-0.339
-569.646	83.563	0.337	0.485
-568.631	228.708	0.122	-0.263
-567.617	203.477	0.194	-0.395
-566.602	800.000	0.083	0.328
-565.588	24.819	0.086	-0.094
-564.573	-191.359	-0.344	0.004
-563.558	-200.000	-0.007	0.425
-562.544	166.571	0.139	-0.260
-561.529	730.238	-0.037	-0.132
-560.515	-76.785	-0.270	-0.124
-559.500	66.789	-0.217	-0.291
-558.485	109.073	0.263	-0.415
-557.471	-128.870	0.272	0.050
-556.456	-37.765	0.270	0.188
-555.442	-66.842	0.202	-0.105
-554.427	63.130	0.174	-0.229
-553.412	-124.618	0.110	-0.022
-552.398	87.317	0.043	0.062
-551.383	128.829	-0.267	-0.448
-550.369	-6.174	0.497	-0.446
-549.354	-200.000	-0.058	-0.397
-548.339	-200.000	0.028	0.173
-547.325	-17.647	-0.435	0.359
-546.310	-200.000	0.030	-0.517
-545.296	-199.407	0.328	-0.002
-544.281	30.772	-0.340	0.383
-543.266	143.564	0.273	0.479
-542.252	800.000	0.066	0.275
-541.237	-168.891	-0.300	0.015
-540.223	-39.307	-0.543	-0.374
-539.208	251.195	-0.178	0.399
-538.193	18.820	0.067	0.070
-537.179	415.060	-0.172	0.484
-536.164	149.012	0.314	0.560
-535.150	6.939	-0.363	0.355
-534.135	-200.000	0.018	0.341
-533.121	-70.952	-0.592	0.292
-532.106	-40.845	0.111	-0.076
-531.091	-200.000	0.010	0.173
-530.077	-200.000	0.053	-0.333
-529.062	-3.500	0.336	0.307
-528.048	283.466	0.204	0.483
-527.033	800.000	0.024	-0.111
-526.018	17.507	0.155	0.161
-525.004	318.256	0.212	-0.529
-523.989	59.059	0.130	-0.169
-522.975	749.942	-0.090	0.321
-521.960	800.000	0.038	-0.152
-520.945	-38.835	-0.559	0.386
-519.931	800.000	0.105	0.397
-518.916	91.156	-0.177	-0.261
-517.902	-150.766	-0.048	-0.005
-516.887	88.957	-0.239	0.350
-515.872	800.000	-0.036	0.166
-514.858	-22.471	-0.098	0.078
-513.843	186.028	-0.156	0.306
-512.829	-200.000	0.092	-0.566
-511.814	-122.666	-0.247	0.052
-510.799	-200.000	-0.029	-0.304
-509.785	-200.000	-0.030	-0.222
-508.770	-118.964	0.400	-0.091
-507.756	-21.170	0.149	0.120
-506.741	5.032	-0.453	-0.438
-505.726	-154.291	0.078	0.007
-504.712	4.182	0.257	0.247
-503.697	263.399	0.097	-0.223
-502.683	-132.135	-0.403	0.068
-501.668	800.000	-0.077	0.282
-500.653	214.369	0.145	-0.302
-499.639	626.697	-0.083	-0.278
-498.624	15.080	0.420	-0.432
-497.610	-115.955	-0.386	-0.094
-496.595	-116.221	-0.199	0.048
-495.581	-200.000	0.006	-0.251
-494.566	-114.783	-0.358	-0.089
-493.551	-74.780	-0.396	0.186
-492.537	287.793	0.022	-0.051
-491.522	-88.970	-0.029	0.011
-490.508	-200.000	-0.008	0.113
-489.493	800.000	-0.037	0.178
-488.478	-13.859	-0.190	-0.161
-487.464	800.000	-0.061	0.294
-486.449	107.287	0.223	-0.349
-485.435	-78.758	0.334	-0.149
-484.420	-14.401	0.419	-0.353
-483.405	-152.076	-0.211	-0.020
-482.391	710.800	0.075	0.261
-481.376	-48.724	0.139	-0.087
-480.362	-43.358	-0.393	-0.260
-479.347	69.455	-0.105	0.143
-478.332	-103.997	0.140	0.042
-477.318	-126.392	-0.233	0.045
-476.303	-1.686	-0.041	0.038
-475.289	-83.541	-0.401	0.167
-474.274	-25.041	-0.545	-0.423
-473.259	323.178	0.170	-0.427
-472.245	92.470	0.173	-0.256
-471.230	793.318	-0.024	0.087
-470.216	-92.920	0.107	-0.039
-469.201	-154.751	0.097	-0.008
-468.186	-64.586	-0.180	-0.095
-467.172	-41.427	0.152	-0.102
-466.157	367.039	-0.018	0.049
-465.143	-12.920	0.146	0.124
-464.128	-160.201	-0.246	-0.017
-463.113	-72.169	-0.345	-0.167
-462.099	69.349	0.035	0.047
-461.084	-178.029	-0.136	0.004
-460.070	-17.826	0.116	-0.095
-459.055	-85.650	0.185	0.075
-458.040	-200.000	0.090	-0.544
-457.026	284.285	-0.042	-0.098
-456.011	-110.007	0.104	-0.028
-454.997	-60.989	-0.161	-0.089
-453.982	23.058	-0.052	0.056
-452.968	-60.966	0.485	0.268
-451.953	-113.209	-0.051	0.013
-450.938	-29.266	0.353	-0.264
-449.924	-30.158	0.211	0.157
-448.909	-76.631	-0.141	0.064
-447.895	471.845	-0.139	0.413
-446.880	-159.680	0.322	-0.023
-445.865	237.146	0.150	0.327
-444.851	-200.000	0.035	-0.260
-443.836	558.431	-0.027	-0.087
-442.822	-94.481	-0.538	-0.191
-441.807	-70.687	0.305	0.150
-440.792	207.717	-0.216	-0.443
-439.778	800.000	0.034	-0.155
-438.763	360.295	-0.048	0.125
-437.749	-74.776	-0.153	0.071
-436.734	173.669	0.104	-0.197
-435.719	47.122	-0.251	-0.306
-434.705	-87.788	-0.209	-0.082
-433.690	-75.028	0.349	0.163
-432.676	-174.755	0.427	0.016
-431.661	-46.435	-0.023	-0.015
-430.646	261.064	-0.108	-0.245
-429.632	-16.508	0.151	0.125
-428.617	100.754	0.317	-0.483
-427.603	-70.538	0.234	0.116
-426.588	-45.364	0.332	0.215
-425.573	121.246	-0.261	0.426
-424.559	178.323	0.113	0.217
-423.544	-121.517	-0.126	-0.027
-422.530	74.326	0.188	-0.259
-421.515	181.440	0.056	-0.109
-420.500	-161.533	-0.105	0.007
-419.486	-147.643	0.370	-0.040
-418.471	399.793	-0.127	0.350
-417.457	800.000	0.035	0.195
-416.442	-66.197	0.577	-0.300
-415.428	-56.897	0.346	-0.200
-414.413	-200.000	-0.007	0.110
-413.398	-62.771	-0.301	0.163
-412.384	-47.494	0.373	-0.237
-411.369	-27.409	-0.287	0.218
-410.355	-200.000	-0.012	0.152
-409.340	40.585	0.126	0.149
-408.325	242.400	-0.212	-0.466
-407.311	47.965	0.101	-0.124
-406.296	-57.266	0.094	0.054
-405.282	-200.000	-0.004	-0.123
-404.267	-151.439	0.180	-0.017
-403.252	181.262	-0.084	-0.162
-402.238	-45.122	-0.397	0.258
-401.223	-41.542	-0.053	0.035
-400.209	800.000	0.087	-0.352
-399.194	-11.251	0.151	-0.130
-398.179	82.740	0.146	-0.207
-397.165	25.659	0.224	-0.243
-396.150	177.949	-0.186	0.356
-395.136	197.225	-0.072	-0.145
-394.121	-200.000	0.008	-0.171
-393.106	-93.897	-0.452	0.162
-392.092	381.184	-0.077	-0.206
-391.077	-56.755	-0.340	-0.196
-390.063	40.975	0.178	0.210
-389.048	-123.261	0.164	0.034
-388.033	315.618	-0.160	0.396
-387.019	-124.214	-0.359	0.073
-386.004	-197.392	-0.212	0.002
-384.990	375.910	0.084	-0.225
-383.975	52.714	0.346	-0.432
-382.960	-6.584	0.410	0.365
-381.946	-200.000	-0.016	0.101
-380.931	-159.481	0.150	-0.011
-379.917	800.000	-0.037	-0.137
-378.902	-65.922	0.038	0.020
-377.888	-200.000	0.019	0.318
-376.873	-68.583	0.272	-0.137
-375.858	-52.649	0.282	-0.169
-374.844	-200.000	-0.010	0.083
-373.829	-85.625	0.200	-0.081
-372.815	51.563	-0.242	0.301
-371.800	-86.924	-0.154	0.061
-370.785	-75.899	0.301	0.139
-369.771	800.000	-0.089	-0.323
-368.756	-178.303	0.210	-0.006
-367.742	5.656	0.487	0.470
-366.727	-200.000	0.048	0.524
-365.712	800.000	0.030	-0.114
-364.698	253.961	0.080	0.179
-363.683	-200.000	-0.025	0.262
-362.669	800.000	0.087	-0.341
-361.654	-111.030	-0.479	0.127
-360.639	-44.643	-0.054	-0.035
-359.625	800.000	-0.052	-0.262
-358.610	-6.880	0.227	-0.201
-357.596	708.176	-0.087	-0.302
-356.581	68.345	-0.318	0.425
-355.566	31.938	-0.232	-0.261
-354.552	-200.000	0.002	0.316
-353.537	192.180	0.257	-0.508
-352.523	-13.278	-0.245	0.207
-351.508	-200.000	-0.012	0.126
-350.493	28.062	-0.183	-0.201
-349.479	-31.489	-0.292	-0.214
-348.464	274.604	-0.141	0.327
-347.450	-158.726	0.236	-0.017
-346.435	161.673	0.175	0.321
-345.420	796.752	0.154	0.556
-344.406	-170.139	-0.136	0.006
-343.391	-33.932	0.177	0.127
-342.377	-144.757	0.422	-0.050
-341.362	423.834	-0.057	-0.160
-340.348	-36.467	0.295	0.207
-339.333	-200.000	0.031	-0.259
-338.318	159.788	0.196	-0.356
-337.304	484.185	-0.101	0.300
-336.289	-73.968	0.157	0.074
-335.275	415.396	0.125	0.349
-334.260	-200.000	-0.034	0.359
-333.245	73.861	-0.177	0.242
-332.231	-96.012	-0.165	-0.057
-331.216	587.820	-0.112	0.362
-330.202	-137.965	0.240	0.035
-329.187	77.361	0.103	0.143
-328.172	800.000	0.082	0.321
-327.158	132.164	0.064	-0.108
-326.143	-87.533	0.180	-0.071
-325.129	-20.874	-0.290	0.231
-324.114	65.690	-0.244	-0.322
-323.099	800.000	-0.126	-0.586
-322.085	-40.451	-0.287	-0.194
-321.070	568.921	-0.078	0.248
-320.056	-37.572	-0.450	0.312
-319.041	800.000	-0.021	0.116
-318.026	-185.005	0.243	0.005
-317.012	287.444	-0.135	0.318
-315.997	-144.294	-0.423	0.051
-314.983	151.381	-0.097	-0.173
-313.968	103.654	0.259	-0.398
-312.953	188.450	0.259	-0.507
-311.939	667.314	0.078	-0.265
-310.924	703.002	-0.067	0.233
-309.910	-65.069	0.178	-0.093
-308.895	-131.108	0.309	0.053
-307.880	262.264	-0.168	0.381
-306.866	134.853	-0.151	-0.256
-305.851	174.035	-0.059	-0.112
-304.837	456.367	0.258	-0.750
-303.822	800.000	0.062	0.235
-302.807	-126.480	0.335	-0.064
-301.793	-90.316	0.274	-0.103
-300.778	-134.889	0.270	-0.042
-299.764	291.520	0.105	0.249
-298.749	217.681	0.086	0.178
-297.735	-88.840	0.244	-0.094
-296.720	716.840	0.147	0.513
-295.705	712.552	-0.215	0.746
-294.691	259.649	-0.145	-0.328
-293.676	-200.000	0.033	0.327
-292.662	800.000	0.028	-0.155
-291.647	-121.938	0.278	-0.059
-290.632	242.214	0.040	-0.087
-289.618	-123.966	0.390	0.079
-288.603	-14.983	-0.077	0.064
-287.589	623.406	0.146	0.483
-286.574	-75.736	0.120	0.055
-285.559	-200.000	-0.247	0.001
-284.545	-1.629	0.319	0.292
-283.530	416.915	-0.152	0.424
-282.516	327.462	0.181	0.455
-281.501	29.218	0.210	-0.232
-280.486	-95.494	0.299	-0.104
-279.472	8.882	-0.058	-0.057
-278.457	-71.091	0.241	0.117
-277.443	520.606	0.187	-0.573
-276.428	-15.003	0.183	-0.152
-275.413	185.910	-0.189	-0.367
-274.399	-164.450	0.347	0.020
-273.384	503.821	-0.116	-0.351
-272.370	-149.633	0.564	0.057
-271.355	-166.512	-0.512	-0.027
-270.340	18.877	-0.018	-0.019
-269.326	59.541	-0.091	-0.117
-268.311	507.315	-0.165	-0.501
-267.297	689.338	0.232	-0.793
-266.282	-76.520	0.328	-0.149
-265.267	158.547	0.156	-0.283
-264.253	-200.000	-0.066	0.462
-263.238	292.567	0.111	0.263
-262.224	178.899	-0.083	0.158
-261.209	294.275	-0.132	0.314
-260.195	-5.385	-0.104	0.092
-259.180	-157.660	0.251	0.019
-258.165	-56.732	-0.213	-0.122
-257.151	752.402	-0.090	0.317
-256.136	66.951	0.123	0.163
-255.122	151.923	0.329	-0.585
-254.107	185.888	-0.125	-0.241
-253.092	15.474	-0.155	-0.159
-252.078	-163.457	0.299	-0.018
-251.063	-200.000	0.017	0.198
-250.049	532.773	-0.042	0.130
-249.034	-131.539	0.129	-0.022
-248.019	106.132	0.123	0.189
-247.005	-81.017	-0.286	0.122
-245.990	-105.848	-0.369	0.108
-244.976	-13.923	-0.190	0.160
-243.961	-141.099	0.535	-0.070
-242.946	583.118	0.053	0.169
-241.932	-118.963	-0.544	0.123
-240.917	-200.000	-0.018	0.161
-239.903	-24.155	-0.056	-0.043
-238.888	-76.287	-0.423	-0.193
-237.873	335.995	-0.106	0.267
-236.859	-127.101	-0.076	0.014
-235.844	-97.401	-0.133	0.045
-234.830	-5.256	-0.232	-0.207
-233.815	-94.701	0.502	-0.176
-232.800	281.917	-0.162	-0.378
-231.786	-104.017	-0.123	0.037
-230.771	256.615	0.193	0.433
-229.757	315.947	0.213	0.525
-228.742	239.894	0.145	-0.316
-227.727	-88.397	-0.389	-0.150
-226.713	256.334	-0.315	-0.705
-225.698	-22.388	-0.123	-0.097
-224.684	-72.431	0.132	0.063
-223.669	329.020	0.048	0.119
-222.655	-137.666	-0.230	0.033
-221.640	-17.107	0.338	0.277
-220.625	-200.000	0.028	-0.369
-219.611	338.419	-0.182	-0.461
-218.596	-108.951	0.443	-0.122
-217.582	71.946	-0.310	0.419
-216.567	-144.137	0.169	0.020
-215.552	-130.892	-0.155	-0.027
-214.538	-129.703	0.223	-0.040
-213.523	31.163	-0.369	0.411
-212.509	-83.368	-0.263	-0.109
-211.494	-126.422	-0.268	-0.051
-210.479	185.957	0.119	0.230
-209.465	-200.000	-0.020	0.426
-208.450	4.138	0.245	0.233
-207.436	-7.162	0.379	-0.333
-206.421	800.000	-0.017	0.080
-205.406	-5.967	-0.170	0.151
-204.392	-5.632	0.186	-0.165
-203.377	-183.364	-0.448	0.010
-202.363	5.325	-0.254	0.243
-201.348	62.262	0.103	-0.133
-200.333	103.020	0.204	0.310
-199.319	-200.000	0.009	0.303
-198.304	46.376	-0.466	0.561
-197.290	72.527	0.126	-0.170
-196.275	-107.708	-0.227	-0.064
-195.260	-75.654	0.475	0.218
-194.246	-57.071	-0.267	0.152
-193.231	-4.714	-0.305	-0.273
-192.217	800.000	-0.035	-0.183
-191.202	-160.873	0.302	-0.020
-190.187	-15.855	-0.045	0.037
-189.173	173.169	0.154	-0.289
-188.158	-63.139	-0.536	0.286
-187.144	67.683	-0.266	0.352
-186.129	157.562	0.209	-0.376
-185.114	-63.753	-0.512	-0.271
-184.100	38.139	-0.226	0.261
-183.085	372.374	0.025	0.067
-182.071	282.736	0.239	0.559
-181.056	800.000	-0.051	0.284
-180.042	800.000	0.055	-0.227
-179.027	53.714	0.252	-0.314
-178.012	-65.147	0.189	-0.098
-176.998	-13.495	-0.461	-0.387
-175.983	-135.524	0.267	-0.041
-174.969	-93.941	0.208	0.074
-173.954	-4.321	0.238	0.213
-172.939	-156.363	-0.123	-0.010
-171.925	800.000	-0.148	-0.631
-170.910	-181.122	0.242	0.006
-169.896	-99.412	0.469	-0.152
-168.881	170.328	0.166	0.309
-167.866	-200.000	0.044	-0.414
-166.852	167.933	-0.059	-0.109
-165.837	-69.984	0.294	0.145
-164.823	525.771	-0.089	0.272
-163.808	-20.346	0.255	0.203
-162.793	-109.344	-0.145	0.039
-161.779	-96.054	0.509	0.174
-160.764	-51.376	-0.241	-0.146
-159.750	-129.150	-0.485	-0.087
-158.735	281.069	-0.101	0.235
-157.720	-104.216	-0.355	0.106
-156.706	197.396	-0.136	0.269
-155.691	-120.558	0.170	-0.037
-154.677	-178.304	0.646	-0.019
-153.662	-46.187	0.589	0.374
-152.647	800.000	-0.127	0.524
-151.633	-45.788	-0.365	-0.233
-150.618	-48.976	0.360	-0.222
-149.604	-31.182	-0.298	0.217
-148.589	-29.209	-0.164	-0.122
-147.574	-9.944	0.167	0.143
-146.560	-73.462	-0.615	0.289
-145.545	-114.182	-0.175	-0.044
-144.531	82.758	0.089	-0.125
-143.516	-62.578	0.350	0.188
-142.502	800.000	-0.059	-0.218
-141.487	-78.820	0.277	-0.122
-140.472	-73.242	-0.304	-0.143
-139.458	-8.802	-0.249	0.216
-138.443	-98.490	-0.177	-0.058
-137.429	-89.123	0.487	-0.185
-136.414	13.662	0.148	0.148
-135.399	774.843	-0.022	-0.077
-134.385	-136.682	0.308	0.046
-133.370	263.779	-0.139	0.314
-132.356	177.618	-0.131	-0.248
-131.341	800.000	0.089	-0.381
-130.326	-81.848	0.400	-0.169
-129.312	-118.512	0.189	0.043
-128.297	33.793	-0.198	-0.223
-127.283	86.594	-0.116	0.165
-126.268	118.738	-0.134	0.214
-125.253	359.009	-0.163	0.423
-124.239	77.440	0.235	0.324
-123.224	-97.724	-0.508	-0.169
-122.210	-127.872	0.231	-0.043
-121.195	-24.563	-0.114	0.088
