DTS Sentinel unit serial number:	SN409020Multiplexer serial number:	ORYXHardware model number:	OX4-SRSoftware version number:	ORYX F/W v3.00 Oryx Data Collector v3.7.2.0data status	okinstallation	HaddamTimeLapsedifferential loss correction	single-endedforward channel	channel 3reverse channel	N/Adate	2011/06/22time	01:41:16forward acquisition time	30.00reverse acquisition time	0.00gamma	498.7831k internal	0.1751k external	0.1751temperature offset calibration	1.0074default loss term (dB/km)	0.3790temperature slope calibration	1.3530multiplexer offset coefficient	1.0000multiplexer slope coefficient	1.0000fibre end	0.00T internal ref (°C)	22.47T ext. ref 1 (°C)	17.71T ext. ref 2 (°C)	0.01length (m)	temperature (°C)	Stokes	anti-Stokes-747.200	83.666	0.116	-0.168
-746.185	194.863	-0.094	0.190
-745.171	49.929	0.536	-0.672
-744.156	-91.274	0.277	-0.105
-743.142	96.046	-0.133	-0.203
-742.127	-102.624	-0.599	0.189
-741.112	-16.472	-0.232	-0.195
-740.098	-130.842	0.239	0.042
-739.083	-200.000	0.009	0.376
-738.069	-172.914	-0.325	0.013
-737.054	-24.252	-0.397	0.314
-736.039	-43.449	-0.537	0.360
-735.025	-74.636	-0.101	-0.048
-734.010	308.146	-0.081	-0.202
-732.996	-130.814	-0.546	0.096
-731.981	-165.337	0.436	-0.025
-730.966	-77.604	-0.247	-0.113
-729.952	-168.909	0.262	0.013
-728.937	-151.803	-0.582	0.056
-727.923	-69.113	-0.502	-0.255
-726.908	-148.100	-0.206	-0.022
-725.894	-19.471	-0.274	0.225
-724.879	5.385	0.021	0.021
-723.864	4.390	0.083	0.081
-722.850	-159.560	0.241	-0.017
-721.835	-200.000	-0.038	0.384
-720.821	222.797	0.102	0.219
-719.806	4.288	0.090	-0.087
-718.791	-12.208	-0.215	0.186
-717.777	-107.907	0.186	-0.053
-716.762	-114.640	-0.526	-0.133
-715.748	717.718	0.120	0.425
-714.733	-123.332	0.242	-0.051
-713.718	371.263	-0.051	-0.139
-712.704	-65.266	0.266	-0.142
-711.689	87.516	-0.208	0.305
-710.675	495.734	0.112	-0.342
-709.660	-132.478	0.242	-0.041
-708.645	-22.241	0.156	-0.125
-707.631	211.103	0.141	0.296
-706.616	-9.074	-0.151	-0.134
-705.602	800.000	-0.100	-0.530
-704.587	51.043	0.062	0.078
-703.572	800.000	-0.079	0.435
-702.558	-76.465	-0.140	-0.065
-701.543	-22.038	-0.147	0.118
-700.529	791.325	-0.039	0.145
-699.514	249.366	0.152	-0.344
-698.499	-82.734	-0.349	-0.149
-697.485	215.653	0.070	-0.148
-696.470	-148.098	0.396	-0.043
-695.456	-91.395	0.568	0.214
-694.441	-151.282	-0.268	0.026
-693.426	-162.561	-0.463	-0.030
-692.412	435.128	-0.043	0.126
-691.397	45.267	-0.136	0.166
-690.383	800.000	-0.101	0.391
-689.368	5.283	0.221	-0.216
-688.354	-46.876	-0.249	0.161
-687.339	102.043	0.084	-0.131
-686.324	-78.336	-0.208	-0.094
-685.310	-24.218	0.275	-0.217
-684.295	-171.433	-0.073	-0.003
-683.281	1.008	0.239	-0.227
-682.266	-85.837	-0.457	-0.186
-681.251	-7.261	-0.406	-0.364
-680.237	522.636	-0.021	0.067
-679.222	-176.879	0.500	0.016
-678.208	-58.879	0.363	0.207
-677.193	-80.311	-0.175	-0.077
-676.178	129.270	0.044	-0.074
-675.164	239.284	0.136	0.300
-674.149	800.000	0.069	0.285
-673.135	484.299	0.102	0.310
-672.120	800.000	-0.117	-0.488
-671.105	-9.998	0.184	-0.162
-670.091	289.399	-0.371	-0.894
-669.076	-5.678	0.475	-0.431
-668.062	800.000	-0.151	-0.756
-667.047	-100.088	-0.421	-0.138
-666.032	29.037	-0.199	0.223
-665.018	76.931	-0.166	0.234
-664.003	-117.722	-0.334	0.079
-662.989	-200.000	-0.005	-0.275
-661.974	-101.895	-0.142	0.045
-660.959	-164.888	0.152	0.009
-659.945	-153.615	-0.694	0.063
-658.930	172.077	-0.117	0.224
-657.916	-200.000	-0.036	0.350
-656.901	-93.276	0.198	0.072
-655.886	800.000	0.057	0.262
-654.872	-200.000	0.014	0.215
-653.857	32.099	-0.379	-0.432
-652.843	-200.000	-0.182	-0.001
-651.828	157.863	-0.226	0.416
-650.814	-75.742	-0.721	0.337
-649.799	246.173	0.064	-0.144
-648.784	-103.090	-0.101	-0.031
-647.770	205.637	0.059	0.122
-646.755	36.322	-0.311	-0.363
-645.741	-200.000	-0.088	-0.603
-644.726	-64.786	-0.067	0.036
-643.711	-163.547	0.125	0.008
-642.697	-157.785	0.105	-0.008
-641.682	-111.473	0.507	-0.136
-640.668	-143.929	-0.085	0.011
-639.653	-135.648	-0.186	-0.029
-638.638	648.442	-0.039	0.133
-637.624	-104.968	0.181	0.054
-636.609	125.033	0.138	-0.230
-635.595	-200.000	-0.318	-0.002
-634.580	379.418	-0.093	-0.253
-633.565	267.996	-0.110	-0.256
-632.551	-200.000	-0.046	-0.273
-631.536	-138.979	-0.239	-0.034
-630.522	-126.040	0.562	0.111
-629.507	53.856	-0.327	0.415
-628.492	416.993	0.047	0.133
-627.478	75.234	-0.081	0.113
-626.463	-200.000	0.093	-0.557
-625.449	101.073	-0.212	0.326
-624.434	-21.397	-0.133	0.107
-623.419	-52.103	0.397	0.243
-622.405	-135.609	0.141	-0.022
-621.390	166.621	0.137	-0.258
-620.376	-135.169	-0.327	0.051
-619.361	-191.558	-0.142	-0.002
-618.346	-200.000	-0.019	-0.208
-617.332	-140.625	-0.651	-0.088
-616.317	28.746	-0.216	-0.241
-615.303	-2.608	-0.201	0.185
-614.288	-200.000	0.041	-0.327
-613.273	-54.264	0.094	0.056
-612.259	13.649	-0.075	0.077
-611.244	-27.417	-0.405	0.311
-610.230	-104.574	-0.214	0.065
-609.215	-66.500	0.440	-0.230
-608.201	-25.388	-0.188	0.147
-607.186	451.119	-0.025	0.073
-606.171	-71.704	-0.267	-0.131
-605.157	-14.689	-0.117	0.099
-604.142	-200.000	-0.028	-0.752
-603.128	188.470	-0.243	0.482
-602.113	22.537	-0.265	-0.286
-601.098	211.741	-0.102	-0.213
-600.084	166.972	0.168	-0.316
-599.069	-155.554	-0.078	0.007
-598.055	195.135	-0.137	0.275
-597.040	-193.347	0.056	0.001
-596.025	-158.229	-0.317	-0.024
-595.011	-200.000	0.015	0.339
-593.996	-95.102	-0.242	-0.086
-592.982	616.823	0.068	-0.226
-591.967	26.181	0.298	-0.329
-590.952	-200.000	-0.012	0.381
-589.938	83.766	0.083	-0.119
-588.923	-200.000	0.053	0.535
-587.909	800.000	0.101	0.529
-586.894	-200.000	0.005	-0.088
-585.879	800.000	-0.093	0.418
-584.865	-119.223	-0.077	-0.018
-583.850	-110.649	0.070	0.019
-582.836	-59.009	-0.167	-0.095
-581.821	6.587	-0.346	-0.339
-580.806	-35.160	0.289	0.207
-579.792	125.153	-0.348	0.580
-578.777	17.639	-0.307	0.322
-577.763	800.000	0.049	0.248
-576.748	187.697	0.068	-0.134
-575.733	-200.000	-0.038	0.317
-574.719	-26.530	0.081	0.063
-573.704	278.341	0.136	0.321
-572.690	-48.216	0.117	-0.074
-571.675	-35.223	-0.291	0.209
-570.661	474.484	0.173	0.518
-569.646	800.000	0.050	0.279
-568.631	-65.286	-0.131	-0.069
-567.617	-57.673	0.032	-0.018
-566.602	-111.852	-0.344	0.091
-565.588	134.822	0.158	0.271
-564.573	-96.994	0.397	0.136
-563.558	-81.922	-0.405	-0.174
-562.544	800.000	-0.059	-0.271
-561.529	-158.832	-0.102	-0.008
-560.515	-200.000	0.013	-0.326
-559.500	11.357	0.394	-0.397
-558.485	7.703	-0.154	0.152
-557.471	-35.994	-0.518	0.368
-556.456	-15.099	0.283	0.239
-555.442	-70.961	0.209	-0.103
-554.427	271.781	-0.206	-0.481
-553.412	-200.000	-0.027	0.233
-552.398	152.532	-0.141	-0.254
-551.383	-115.645	-0.276	-0.068
-550.369	-159.912	-0.314	0.022
-549.354	0.018	0.185	-0.174
-548.339	-108.208	0.207	-0.058
-547.325	800.000	0.016	0.092
-546.310	-136.332	-0.447	0.068
-545.296	-75.251	-0.303	0.142
-544.281	-162.781	0.260	-0.016
-543.266	-199.790	0.284	-0.002
-542.252	107.196	-0.210	0.329
-541.237	-37.976	-0.283	0.198
-540.223	9.268	0.092	-0.091
-539.208	-122.540	-0.366	0.078
-538.193	-41.777	0.334	-0.226
-537.179	112.537	0.194	0.310
-536.164	1.033	0.226	0.213
-535.150	-161.794	0.354	0.023
-534.135	-4.275	-0.187	0.170
-533.121	-102.188	-0.400	-0.126
-532.106	8.791	0.267	-0.265
-531.091	-195.028	0.249	0.002
-530.077	45.545	-0.225	-0.273
-529.062	-200.000	-0.021	-0.394
-528.048	-98.137	0.347	-0.117
-527.033	-132.987	0.115	0.019
-526.018	14.878	-0.330	-0.340
-525.004	-200.000	-0.003	-0.044
-523.989	-156.882	0.102	-0.008
-522.975	157.997	-0.217	-0.397
-521.960	-66.424	-0.499	-0.260
-520.945	800.000	-0.103	-0.584
-519.931	-81.700	-0.144	0.062
-518.916	800.000	-0.155	0.613
-517.902	800.000	0.181	0.936
-516.887	-31.262	-0.188	0.139
-515.872	800.000	0.115	-0.421
-514.858	-108.468	-0.144	0.041
-513.843	-112.770	0.401	0.104
-512.829	800.000	0.082	-0.416
-511.814	-128.296	-0.357	0.066
-510.799	-61.445	-0.595	0.328
-509.785	-61.981	-0.661	0.362
-508.770	-91.674	-0.330	-0.123
-507.756	-175.592	0.222	-0.008
-506.741	-114.828	0.553	0.138
-505.726	-200.000	0.000	0.457
-504.712	-15.232	-0.031	-0.026
-503.697	-40.014	-0.516	-0.353
-502.683	-111.012	-0.411	-0.110
-501.668	800.000	0.036	0.183
-500.653	641.328	0.048	-0.160
-499.639	-118.366	0.088	-0.020
-498.624	91.422	-0.163	0.241
-497.610	-141.468	0.204	-0.027
-496.595	-30.762	0.179	-0.133
-495.581	-160.896	-0.364	-0.025
-494.566	-156.561	-0.583	-0.047
-493.551	18.524	-0.190	-0.199
-492.537	83.448	-0.143	-0.205
-491.522	-52.521	0.162	0.098
-490.508	-200.000	-0.001	-0.310
-489.493	40.747	0.183	-0.217
-488.478	-96.105	0.514	-0.179
-487.464	-35.417	0.106	0.076
-486.449	152.989	0.101	-0.183
-485.435	-59.783	-0.460	0.258
-484.420	37.331	0.062	0.072
-483.405	188.611	0.092	0.182
-482.391	488.391	0.072	-0.217
-481.376	800.000	0.049	0.241
-480.362	8.353	0.067	0.066
-479.347	243.107	-0.212	-0.468
-478.332	800.000	-0.064	0.342
-477.318	-78.288	0.437	0.196
-476.303	47.728	-0.104	0.128
-475.289	209.216	-0.061	0.126
-474.274	123.575	0.279	-0.461
-473.259	28.188	-0.211	0.235
-472.245	-26.844	-0.349	-0.268
-471.230	-138.034	-0.377	-0.055
-470.216	-142.616	-0.296	-0.038
-469.201	800.000	0.088	0.395
-468.186	60.665	-0.174	0.227
-467.172	-74.135	0.265	0.125
-466.157	32.385	-0.334	0.378
-465.143	-43.116	-0.066	0.044
-464.128	-9.947	-0.402	-0.351
-463.113	800.000	0.032	0.181
-462.099	-200.000	0.003	0.360
-461.084	-35.562	-0.093	0.066
-460.070	-80.373	0.098	0.043
-459.055	36.364	0.210	-0.243
-458.040	-159.042	0.238	0.017
-457.026	8.465	-0.172	-0.170
-456.011	204.059	0.078	0.159
-454.997	-45.386	0.505	0.328
-453.982	-200.000	-0.016	0.228
-452.968	800.000	-0.128	0.609
-451.953	59.465	0.211	0.274
-450.938	-101.888	0.363	0.114
-449.924	-157.522	0.618	-0.048
-448.909	-127.072	-0.203	-0.039
-447.895	26.956	0.172	-0.189
-446.880	635.639	-0.144	-0.481
-445.865	174.161	-0.005	-0.010
-444.851	800.000	-0.089	-0.481
-443.836	-20.743	0.493	-0.396
-442.822	-11.140	0.181	-0.157
-441.807	144.021	0.275	0.483
-440.792	123.289	-0.129	0.212
-439.778	224.358	-0.099	-0.210
-438.763	190.927	-0.126	-0.250
-437.749	-64.854	-0.188	-0.100
-436.734	106.162	0.373	-0.580
-435.719	-107.446	-0.113	0.032
-434.705	-172.033	0.240	0.010
-433.690	162.100	-0.070	-0.128
-432.676	117.016	0.156	0.251
-431.661	0.767	0.244	0.229
-430.646	-77.658	-0.260	0.118
-429.632	-165.051	0.891	0.051
-428.617	373.272	-0.052	-0.141
-427.603	127.746	-0.154	-0.256
-426.588	-200.000	-0.021	0.151
-425.573	800.000	0.013	-0.060
-424.559	235.860	0.071	-0.155
-423.544	-119.270	0.152	-0.034
-422.530	-200.000	0.032	-0.195
-421.515	10.976	-0.108	-0.108
-420.500	485.082	-0.099	-0.297
-419.486	-175.983	-0.414	0.014
-418.471	127.706	-0.083	0.139
-417.457	245.911	-0.090	-0.199
-416.442	86.604	0.154	-0.223
-415.428	-51.001	-0.154	-0.094
-414.413	-83.592	-0.284	-0.118
-413.398	-160.073	0.167	-0.012
-412.384	-156.712	-0.338	0.027
-411.369	-176.771	0.175	0.006
-410.355	-112.648	0.260	0.067
-409.340	-200.000	-0.002	-0.223
-408.325	60.735	0.113	-0.147
-407.311	-30.940	-0.402	-0.297
-406.296	66.583	0.204	-0.272
-405.282	-55.736	0.468	0.273
-404.267	-140.753	-0.179	0.024
-403.252	-140.506	0.533	-0.072
-402.238	-145.605	-0.057	0.007
-401.223	800.000	0.093	-0.387
-400.209	395.892	-0.174	-0.479
-399.194	-62.122	-0.130	0.071
-398.179	-200.000	0.014	-0.097
-397.165	12.117	-0.358	0.361
-396.150	84.599	-0.131	0.187
-395.136	-87.068	0.260	0.103
-394.121	64.879	0.062	-0.083
-393.106	-145.846	-0.058	-0.007
-392.092	-49.838	-0.218	-0.135
-391.077	-150.438	0.506	-0.050
-390.063	800.000	0.028	-0.158
-389.048	44.835	-0.073	0.088
-388.033	-138.709	0.154	0.022
-387.019	16.552	0.219	0.227
-386.004	-134.992	-0.337	0.053
-384.990	-112.738	-0.105	0.027
-383.975	800.000	-0.081	-0.436
-382.960	-89.297	-0.357	-0.137
-381.946	800.000	0.035	-0.179
-380.931	-169.693	-0.333	-0.016
-379.917	40.001	0.245	0.288
-378.902	608.016	-0.016	-0.053
-377.888	-23.549	0.118	0.093
-376.873	320.251	-0.112	0.279
-375.858	-200.000	-0.006	-0.227
-374.844	-200.000	0.003	0.428
-373.829	-137.360	-0.270	0.040
-372.815	-200.000	-0.001	0.120
-371.800	24.951	0.265	-0.288
-370.785	800.000	0.168	0.762
-369.771	760.311	-0.031	0.110
-368.756	13.870	-0.143	-0.145
-367.742	650.655	0.060	-0.201
-366.727	-162.939	-0.270	0.017
-365.712	-116.463	0.644	0.154
-364.698	-87.366	-0.447	-0.176
-363.683	-113.125	-0.460	-0.118
-362.669	-129.121	0.131	0.024
-361.654	-197.943	-0.169	0.001
-360.639	-52.592	0.060	-0.036
-359.625	773.552	-0.067	0.240
-358.610	-46.723	0.675	0.431
-357.596	-148.967	0.400	0.042
-356.581	-68.606	-0.421	0.212
-355.566	-105.548	0.158	-0.047
-354.552	-134.019	0.332	-0.053
-353.537	-200.000	0.019	0.203
-352.523	60.951	-0.178	0.232
-351.508	-39.104	0.536	-0.368
-350.493	-200.000	-0.013	-0.464
-349.479	-1.616	0.186	0.172
-348.464	-200.000	0.026	0.163
-347.450	166.827	0.183	-0.341
-346.435	-45.343	-0.164	-0.106
-345.420	-200.000	-0.000	-0.051
-344.406	800.000	0.113	0.413
-343.391	-140.303	0.196	-0.027
-342.377	313.261	0.179	-0.443
-341.362	169.958	-0.197	0.368
-340.348	-79.432	0.492	-0.217
-339.333	-200.000	0.011	0.112
-338.318	-178.039	-0.239	-0.007
-337.304	385.565	0.090	-0.245
-336.289	-73.298	-0.226	0.108
-335.275	46.337	-0.139	-0.168
-334.260	-82.440	-0.605	-0.255
-333.245	-200.000	-0.002	0.111
-332.231	-121.605	-0.346	0.074
-331.216	-111.368	-0.243	-0.064
-330.202	59.393	-0.026	0.034
-329.187	-200.000	-0.022	0.271
-328.172	532.378	-0.070	0.218
-327.158	-22.356	0.429	0.339
-326.143	-77.768	-0.197	0.088
-325.129	-68.747	0.501	0.252
-324.114	46.814	0.195	0.237
-323.099	12.027	-0.293	0.294
-322.085	800.000	-0.167	0.735
-321.070	-122.231	0.665	0.141
-320.056	-62.277	0.447	-0.242
-319.041	800.000	-0.113	0.640
-318.026	-50.564	-0.228	-0.140
-317.012	24.818	0.187	0.202
-315.997	-0.972	0.081	-0.075
-314.983	148.124	0.074	-0.131
-313.968	-107.622	0.457	-0.129
-312.953	-10.709	0.212	-0.183
-311.939	-148.772	0.069	0.007
-310.924	-50.102	-0.400	-0.246
-309.910	-200.000	-0.013	-0.273
-308.895	316.708	-0.156	-0.386
-307.880	-83.635	-0.204	-0.085
-306.866	33.669	0.311	-0.353
-305.851	59.431	0.121	-0.156
-304.837	-129.079	-0.353	0.064
-303.822	-43.098	0.276	-0.182
-302.807	433.730	-0.166	0.472
-301.793	-157.043	-0.429	0.034
-300.778	196.215	0.175	0.349
-299.764	-111.086	0.329	0.087
-298.749	-138.306	-0.121	0.017
-297.735	800.000	0.100	0.369
-296.720	173.646	0.387	-0.731
-295.705	-74.542	-0.406	-0.190
-294.691	-98.824	0.270	0.089
-293.676	-200.000	-0.020	0.491
-292.662	-200.000	0.069	0.524
-291.647	-101.370	-0.251	0.079
-290.632	114.979	-0.170	-0.271
-289.618	-93.455	0.557	0.200
-288.603	-106.603	0.419	-0.121
-287.589	-79.597	0.317	0.139
-286.574	-95.259	-0.229	-0.080
-285.559	-80.423	0.341	-0.148
-284.545	-118.979	-0.265	0.060
-283.530	-135.801	0.404	-0.062
-282.516	329.891	-0.126	-0.317
-281.501	-1.785	-0.168	0.154
-280.486	173.483	0.128	0.242
-279.472	-61.159	-0.292	0.160
-278.457	-60.445	0.044	-0.024
-277.443	149.226	0.197	-0.349
-276.428	-58.945	-0.350	0.196
-275.413	-49.595	0.053	-0.033
-274.399	-138.421	-0.222	0.032
-273.384	-108.786	-0.426	-0.118
-272.370	-6.691	-0.245	-0.217
-271.355	106.349	-0.272	-0.421
-270.340	7.651	0.251	0.244
-269.326	-107.143	-0.344	-0.098
-268.311	-23.229	0.171	0.134
-267.297	63.582	-0.089	0.116
-266.282	192.753	0.191	0.378
-265.267	267.466	0.209	0.480
-264.253	-0.430	0.141	-0.131
-263.238	-41.764	0.573	0.383
-262.224	192.004	0.199	-0.392
-261.209	-16.590	0.151	-0.124
-260.195	176.164	0.133	0.252
-259.180	800.000	0.049	-0.238
-258.165	-200.000	0.031	-0.275
-257.151	246.034	0.039	-0.085
-256.136	-200.000	0.098	0.000
-255.122	-13.084	0.227	-0.192
-254.107	21.419	0.219	0.232
-253.092	153.880	-0.112	-0.200
-252.078	-5.265	0.342	0.306
-251.063	-79.248	0.195	0.086
-250.049	-200.000	0.096	-0.611
-249.034	48.250	-0.049	0.060
-248.019	-89.363	-0.226	-0.086
-247.005	15.695	0.281	-0.287
-245.990	-26.982	-0.330	-0.250
-244.976	37.683	-0.147	-0.170
-243.961	99.410	0.110	0.167
-242.946	-37.397	0.281	0.195
-241.932	-14.225	0.164	0.137
-240.917	268.985	-0.006	0.015
-239.903	-200.000	0.000	-0.229
-238.888	-146.541	0.147	-0.017
-237.873	442.679	-0.083	-0.237
-236.859	-79.463	0.527	-0.231
-235.844	160.032	-0.459	-0.836
-234.830	-200.000	0.019	-0.193
-233.815	-5.962	-0.217	0.193
-232.800	-83.148	-0.065	0.027
-231.786	-151.568	-0.406	-0.039
-230.771	-200.000	-0.023	0.344
-229.757	698.500	-0.176	0.607
-228.742	800.000	-0.067	0.382
-227.727	49.994	-0.117	0.144
-226.713	-200.000	0.005	-0.376
-225.698	-31.386	-0.113	0.082
-224.684	-152.932	-0.392	-0.036
-223.669	-108.932	-0.130	-0.036
-222.655	-69.026	-0.416	-0.208
-221.640	-200.000	-0.034	-0.229
-220.625	-116.152	-0.095	-0.023
-219.611	18.127	0.243	0.252
-218.596	59.177	0.254	0.326
-217.582	-138.700	-0.640	-0.090
-216.567	-42.589	0.357	0.236
-215.552	241.994	0.187	0.408
-214.538	-200.000	0.069	0.413
-213.523	-200.000	-0.061	-0.413
-212.509	-42.526	-0.401	-0.265
-211.494	-135.001	0.270	0.042
-210.479	15.074	0.054	0.054
-209.465	-76.399	-0.187	-0.085
-208.450	800.000	-0.057	-0.259
-207.436	-73.359	0.368	0.174
-206.421	233.432	-0.205	0.439
-205.406	27.357	0.151	0.165
-204.392	-200.000	0.009	-0.125
-203.377	594.598	0.127	-0.410
-202.363	-100.854	0.551	0.175
-201.348	-9.856	-0.077	-0.066
-200.333	800.000	-0.072	-0.410
-199.319	-84.001	-0.189	0.078
-198.304	28.758	-0.221	0.244
-197.290	800.000	-0.054	0.293
-196.275	-32.491	0.122	-0.088
-195.260	-56.950	0.309	-0.177
-194.246	-102.472	0.378	-0.117
-193.231	4.463	0.081	-0.078
-192.217	-61.428	-0.202	0.110
-191.202	-10.714	0.453	-0.389
-190.187	-12.173	0.188	-0.159
-189.173	25.147	0.239	-0.258
-188.158	-131.542	-0.129	0.022
-187.144	271.265	-0.142	-0.325
-186.129	800.000	-0.083	-0.450
-185.114	-58.817	0.091	-0.051
-184.100	-200.000	-0.053	0.593
-183.085	-56.853	0.071	0.040
-182.071	116.753	-0.134	0.215
-181.056	101.865	0.276	-0.420
-180.042	-108.218	0.771	-0.215
-179.027	-120.598	0.605	0.132
-178.012	-200.000	0.010	0.318
-176.998	-75.878	0.235	0.108
-175.983	-41.147	0.188	-0.126
-174.969	800.000	-0.021	0.108
-173.954	-40.870	0.238	-0.159
-172.939	458.341	0.067	-0.194
-171.925	-200.000	0.067	-0.457
-170.910	9.579	0.116	0.114
-169.896	-176.217	0.280	0.009
-168.881	-42.691	-0.101	-0.067
-167.866	-41.247	-0.099	0.066
-166.852	-92.020	0.113	0.041
-165.837	583.189	-0.111	0.354
-164.823	-155.912	-0.467	-0.038
-163.808	-139.148	-0.436	0.060
-162.793	179.997	-0.188	0.360
-161.779	94.132	0.327	-0.482
-160.764	304.965	0.080	0.195
-159.750	-200.000	-0.058	0.350
-158.735	-75.271	-0.220	0.102
-157.720	-89.870	0.348	-0.131
-156.706	453.889	-0.093	0.269
-155.691	115.158	0.123	0.194
-154.677	58.738	-0.185	-0.236
-153.662	-1.276	-0.053	-0.048
-152.647	-164.292	-0.402	-0.024
-151.633	-108.902	0.179	0.049
-150.618	-124.256	-0.481	-0.097
-149.604	-162.254	-0.260	0.017
-148.589	116.612	-0.086	0.137
-147.574	68.319	-0.165	0.220
-146.560	-61.011	0.207	-0.113
-145.545	18.152	-0.041	0.043
-144.531	800.000	0.116	0.618
-143.516	346.813	0.098	0.252
-142.502	800.000	0.033	-0.170
-141.487	15.850	0.350	-0.357
-140.472	-124.063	-0.161	0.033
-139.458	68.381	0.153	-0.203
-138.443	-80.176	0.306	0.132
-137.429	-200.000	-0.023	0.161
-136.414	-114.677	0.417	0.103
-135.399	-75.156	0.121	-0.056
-134.385	-139.984	-0.203	0.027
-133.370	-67.931	-0.471	-0.238
-132.356	-4.721	-0.155	-0.139
-131.341	-200.000	0.023	0.213
-130.326	165.654	-0.178	0.328
-129.312	-164.160	0.544	0.032
-128.297	-200.000	0.028	0.178
-127.283	294.379	0.003	-0.008
-126.268	-132.952	-0.272	0.044
-125.253	-100.303	-0.277	-0.089
-124.239	-128.938	-0.134	-0.024
-123.224	-136.596	-0.730	0.108
-122.210	-43.571	-0.203	-0.133
