DTS Sentinel unit serial number:	SN409020Multiplexer serial number:	ORYXHardware model number:	OX4-SRSoftware version number:	ORYX F/W v3.00 Oryx Data Collector v3.7.2.0data status	okinstallation	HaddamTimeLapsedifferential loss correction	single-endedforward channel	channel 3reverse channel	N/Adate	2011/06/21time	21:11:17forward acquisition time	30.00reverse acquisition time	0.00gamma	498.7831k internal	0.1765k external	0.1765temperature offset calibration	1.0074default loss term (dB/km)	0.3790temperature slope calibration	1.3530multiplexer offset coefficient	1.0000multiplexer slope coefficient	1.0000fibre end	0.00T internal ref (°C)	27.25T ext. ref 1 (°C)	20.20T ext. ref 2 (°C)	0.02length (m)	temperature (°C)	Stokes	anti-Stokes-747.200	174.174	0.190	-0.362
-746.185	80.717	0.366	0.520
-745.171	800.000	-0.104	0.398
-744.156	221.772	-0.095	-0.203
-743.142	800.000	-0.070	-0.269
-742.127	180.305	-0.150	-0.291
-741.112	6.156	-0.145	-0.142
-740.098	142.761	0.172	0.302
-739.083	-82.153	-0.384	0.164
-738.069	-28.960	0.595	0.449
-737.054	188.398	-0.239	-0.472
-736.039	-89.841	-0.362	-0.139
-735.025	-68.618	-0.270	-0.137
-734.010	-200.000	0.013	0.151
-732.996	140.110	0.124	0.216
-731.981	41.549	-0.269	0.321
-730.966	141.921	-0.032	-0.056
-729.952	-126.173	-0.148	-0.029
-728.937	-119.734	-0.154	-0.035
-727.923	800.000	0.100	0.469
-726.908	136.881	0.140	0.242
-725.894	39.794	-0.099	0.117
-724.879	217.752	-0.015	0.032
-723.864	-103.727	-0.259	0.079
-722.850	-200.000	-0.023	-0.169
-721.835	800.000	0.177	-0.647
-720.821	-200.000	-0.078	-0.571
-719.806	-59.007	-0.243	-0.138
-718.791	222.475	0.081	0.173
-717.777	46.483	-0.200	0.244
-716.762	292.093	-0.198	-0.477
-715.748	153.891	-0.093	-0.167
-714.733	-16.235	0.144	-0.120
-713.718	-117.585	0.294	0.069
-712.704	-144.058	-0.662	0.081
-711.689	800.000	0.054	0.255
-710.675	-64.674	-0.454	0.241
-709.660	-95.426	-0.525	0.184
-708.645	800.000	-0.080	-0.345
-707.631	-82.395	-0.115	0.049
-706.616	-89.936	0.142	0.054
-705.602	-200.000	-0.014	-0.469
-704.587	-76.291	-0.357	0.165
-703.572	-117.855	0.103	0.024
-702.558	-79.520	-0.335	-0.148
-701.543	-152.227	0.485	0.046
-700.529	-200.000	-0.056	0.348
-699.514	8.523	-0.183	0.181
-698.499	-15.835	0.190	-0.159
-697.485	-154.256	0.474	0.041
-696.470	-138.141	0.170	-0.025
-695.456	-152.983	-0.401	0.037
-694.441	-92.336	0.134	-0.049
-693.426	-66.873	0.345	0.179
-692.412	-200.000	-0.014	0.271
-691.397	32.873	-0.295	-0.336
-690.383	-200.000	-0.009	0.474
-689.368	-200.000	0.003	0.139
-688.354	336.924	0.055	-0.141
-687.339	-75.833	0.085	-0.039
-686.324	60.234	0.172	0.223
-685.310	-200.000	0.040	0.601
-684.295	56.063	-0.281	-0.359
-683.281	132.389	-0.142	0.240
-682.266	-66.500	-0.176	-0.091
-681.251	800.000	-0.022	0.096
-680.237	-4.331	-0.174	0.158
-679.222	-83.599	-0.354	0.148
-678.208	-88.383	0.279	0.109
-677.193	90.966	0.303	0.447
-676.178	659.111	0.152	0.517
-675.164	-194.433	0.447	0.005
-674.149	-143.070	-0.350	0.044
-673.135	-149.174	-0.149	0.015
-672.120	154.978	-0.217	-0.392
-671.105	44.664	-0.359	-0.434
-670.091	6.954	0.360	0.352
-669.076	-146.791	0.384	-0.043
-668.062	173.413	0.105	0.200
-667.047	-143.465	-0.295	-0.037
-666.032	658.883	-0.048	0.162
-665.018	499.181	0.119	-0.362
-664.003	800.000	0.070	0.287
-662.989	-128.932	0.426	-0.078
-661.974	-116.118	0.235	-0.057
-660.959	104.544	0.065	-0.101
-659.945	-189.190	-0.363	0.006
-658.930	-60.405	0.344	0.192
-657.916	-53.065	0.373	0.224
-656.901	-141.437	-0.206	0.027
-655.886	-63.297	-0.207	-0.111
-654.872	800.000	0.048	-0.192
-653.857	56.196	-0.132	0.168
-652.843	-124.255	-0.154	0.031
-651.828	-97.713	-0.244	0.083
-650.814	17.974	-0.270	-0.283
-649.799	54.191	0.346	-0.438
-648.784	800.000	0.140	-0.778
-647.770	78.808	0.356	-0.500
-646.755	-26.700	-0.403	-0.309
-645.741	47.467	0.554	-0.678
-644.726	326.555	0.189	0.477
-643.711	-135.069	-0.201	-0.032
-642.697	-200.000	-0.243	0.001
-641.682	-90.024	0.281	0.107
-640.668	-200.000	0.001	0.004
-639.653	-78.606	0.142	-0.063
-638.638	-119.426	0.182	-0.041
-637.624	-200.000	-0.021	-0.154
-636.609	-200.000	-0.112	-0.697
-635.595	301.253	0.112	-0.272
-634.580	-200.000	0.020	-0.173
-633.565	-200.000	0.010	-0.226
-632.551	-89.681	0.530	-0.203
-631.536	-200.000	0.025	-0.456
-630.522	800.000	-0.080	-0.316
-629.507	-2.447	-0.177	-0.163
-628.492	-87.129	-0.386	-0.153
-627.478	460.448	-0.092	0.272
-626.463	50.938	-0.088	-0.110
-625.449	-18.712	-0.506	-0.413
-624.434	-200.000	0.067	-0.451
-623.419	-154.919	-0.364	-0.031
-622.405	-104.250	0.483	-0.146
-621.390	787.058	0.102	0.371
-620.376	26.316	-0.061	0.066
-619.361	270.018	0.149	-0.345
-618.346	231.002	-0.212	-0.456
-617.332	242.457	-0.199	-0.439
-616.317	-143.330	0.414	-0.051
-615.303	101.058	0.147	-0.224
-614.288	-42.844	0.125	-0.083
-613.273	800.000	0.053	-0.216
-612.259	299.234	-0.121	-0.294
-611.244	-74.833	-0.248	0.116
-610.230	-131.189	-0.352	-0.061
-609.215	-71.507	-0.235	-0.115
-608.201	-66.441	0.126	0.065
-607.186	107.429	0.278	-0.434
-606.171	-17.537	-0.137	0.113
-605.157	-106.420	-0.268	0.078
-604.142	-62.775	0.111	-0.060
-603.128	-8.880	-0.387	-0.340
-602.113	-10.995	-0.280	0.242
-601.098	-200.000	-0.004	0.147
-600.084	128.179	-0.035	-0.059
-599.069	223.398	-0.119	0.252
-598.055	20.653	-0.189	0.201
-597.040	-69.349	0.415	0.208
-596.025	-200.000	-0.016	-0.290
-595.011	189.993	-0.171	0.337
-593.996	800.000	0.076	-0.292
-592.982	-152.492	0.917	-0.085
-591.967	800.000	-0.043	0.179
-590.952	52.900	0.182	-0.228
-589.938	-156.435	-0.335	-0.027
-588.923	-55.519	0.574	-0.336
-587.909	-200.000	-0.471	-0.001
-586.894	242.783	0.126	0.276
-585.879	-179.339	0.208	0.006
-584.865	-23.175	0.474	0.373
-583.850	800.000	0.067	0.307
-582.836	-200.000	0.035	0.209
-581.821	-35.150	-0.107	0.076
-580.806	800.000	-0.017	0.077
-579.792	307.199	-0.247	0.604
-578.777	361.495	-0.114	0.302
-577.763	-126.141	0.070	-0.014
-576.748	65.800	-0.193	0.257
-575.733	170.681	0.104	0.196
-574.719	194.612	-0.123	-0.244
-573.704	-44.620	0.140	0.091
-572.690	-200.000	0.002	0.066
-571.675	363.382	-0.147	-0.389
-570.661	800.000	-0.046	-0.195
-569.646	-141.339	-0.188	-0.025
-568.631	-81.061	0.239	-0.103
-567.617	255.072	-0.191	0.429
-566.602	-200.000	0.019	0.316
-565.588	270.915	-0.086	-0.200
-564.573	-200.000	0.002	0.071
-563.558	715.324	0.048	0.166
-562.544	3.245	-0.250	0.237
-561.529	-124.938	-0.036	-0.007
-560.515	-74.367	0.055	-0.026
-559.500	800.000	0.116	0.537
-558.485	-136.303	-0.536	-0.081
-557.471	56.967	0.076	-0.097
-556.456	-140.145	-0.557	0.076
-555.442	646.843	-0.106	0.355
-554.427	800.000	-0.009	-0.036
-553.412	-135.126	0.135	-0.021
-552.398	-54.207	0.229	0.136
-551.383	552.504	-0.031	-0.098
-550.369	-200.000	-0.007	0.362
-549.354	-75.054	0.288	-0.134
-548.339	-46.309	-0.426	0.273
-547.325	800.000	-0.110	0.411
-546.310	107.368	-0.236	-0.368
-545.296	-43.379	0.503	-0.331
-544.281	-119.531	0.069	0.015
-543.266	800.000	-0.104	-0.454
-542.252	-200.000	-0.066	-0.467
-541.237	0.577	-0.174	-0.162
-540.223	-200.000	0.013	0.277
-539.208	80.611	-0.375	0.529
-538.193	-57.358	0.309	-0.177
-537.179	800.000	0.072	-0.350
-536.164	63.456	0.220	-0.288
-535.150	-128.585	-0.447	-0.082
-534.135	-28.468	-0.145	-0.109
-533.121	-124.963	-0.358	-0.071
-532.106	-109.627	-0.401	0.110
-531.091	-17.560	-0.413	0.339
-530.077	339.664	0.178	0.455
-529.062	-124.314	0.171	-0.035
-528.048	-200.000	-0.007	0.568
-527.033	100.303	-0.167	0.254
-526.018	-200.000	0.146	0.000
-525.004	-73.896	0.440	0.208
-523.989	149.862	0.350	0.621
-522.975	-200.000	-0.009	0.258
-521.960	190.956	-0.182	-0.359
-520.945	328.546	-0.135	0.340
-519.931	-166.403	-0.200	-0.011
-518.916	139.545	0.191	0.329
-517.902	-155.266	0.552	-0.046
-516.887	-177.397	-0.105	-0.003
-515.872	-200.000	0.018	0.175
-514.858	-101.895	0.103	-0.032
-513.843	-113.035	-0.205	0.052
-512.829	-36.800	-0.372	-0.260
-511.814	74.773	-0.178	0.246
-510.799	-46.814	0.414	0.264
-509.785	-3.074	-0.392	0.357
-508.770	-3.335	0.072	-0.066
-507.756	14.485	0.235	-0.240
-506.741	-81.084	0.485	-0.208
-505.726	81.055	-0.157	0.222
-504.712	-200.000	-0.021	0.527
-503.697	-172.394	-0.160	0.007
-502.683	-61.104	0.714	-0.392
-501.668	800.000	-0.085	-0.369
-500.653	-36.875	0.138	0.096
-499.639	251.220	0.137	0.305
-498.624	-121.690	-0.597	0.128
-497.610	-200.000	-0.007	0.436
-496.595	-136.231	-0.255	-0.039
-495.581	64.088	0.158	0.208
-494.566	-200.000	-0.004	-0.308
-493.551	14.859	0.296	-0.302
-492.537	-66.005	-0.261	0.135
-491.522	-114.691	-0.400	-0.099
-490.508	-200.000	0.061	0.536
-489.493	721.395	0.140	0.490
-488.478	-84.357	0.465	-0.191
-487.464	800.000	-0.115	-0.561
-486.449	-66.004	-0.317	-0.164
-485.435	34.434	-0.369	0.420
-484.420	152.650	-0.259	0.462
-483.405	-53.362	-0.357	0.213
-482.391	800.000	0.128	0.525
-481.376	800.000	-0.099	0.455
-480.362	-75.947	-0.115	-0.053
-479.347	-114.496	-0.460	-0.114
-478.332	250.763	0.183	-0.406
-477.318	-58.638	-0.488	-0.275
-476.303	-128.183	-0.204	0.038
-475.289	-37.381	0.232	0.161
-474.274	-132.381	-0.175	0.029
-473.259	-8.001	-0.139	-0.122
-472.245	-200.000	0.020	-0.178
-471.230	-113.207	-0.242	-0.062
-470.216	28.379	-0.221	-0.243
-469.201	-200.000	-0.030	-0.291
-468.186	-101.519	0.131	0.041
-467.172	-52.959	0.255	0.153
-466.157	-13.153	0.299	-0.253
-465.143	-56.612	-0.376	0.217
-464.128	800.000	0.046	0.179
-463.113	-105.669	0.285	0.083
-462.099	-197.468	-0.477	0.004
-461.084	-148.864	-0.161	0.017
-460.070	173.353	-0.156	0.294
-459.055	-200.000	-0.040	0.296
-458.040	-106.808	0.131	0.038
-457.026	-97.967	0.266	0.089
-456.011	-48.491	-0.098	-0.061
-454.997	-17.135	0.206	0.169
-453.982	17.170	0.573	0.591
-452.968	-38.445	0.078	0.054
-451.953	800.000	0.083	0.325
-450.938	-114.465	-0.249	-0.062
-449.924	62.551	-0.081	0.106
-448.909	32.396	0.009	-0.010
-447.895	-15.677	-0.177	-0.147
-446.880	199.361	-0.094	-0.189
-445.865	34.152	0.149	-0.169
-444.851	9.553	-0.125	0.123
-443.836	-200.000	0.006	0.167
-442.822	134.876	-0.152	-0.258
-441.807	-200.000	0.029	-0.410
-440.792	396.266	-0.121	-0.331
-439.778	404.011	0.181	-0.497
-438.763	-83.334	0.528	-0.220
-437.749	-134.349	0.325	-0.051
-436.734	127.853	0.098	0.162
-435.719	-95.606	-0.075	0.026
-434.705	-94.220	-0.393	0.139
-433.690	381.111	0.132	-0.355
-432.676	-71.346	0.156	-0.076
-431.661	-200.000	0.049	-0.327
-430.646	46.191	-0.332	-0.400
-429.632	-96.844	0.072	0.025
-428.617	341.396	-0.207	-0.529
-427.603	-9.769	-0.384	-0.333
-426.588	-32.359	0.204	0.148
-425.573	-70.462	0.437	-0.214
-424.559	-49.017	0.188	-0.117
-423.544	-49.901	0.497	0.306
-422.530	0.958	-0.312	0.291
-421.515	-50.459	0.641	0.392
-420.500	126.185	0.110	0.181
-419.486	202.587	0.092	-0.186
-418.471	23.417	0.205	-0.220
-417.457	89.593	0.196	-0.285
-416.442	232.415	0.065	-0.140
-415.428	14.601	0.323	-0.328
-414.413	-19.138	-0.169	0.136
-413.398	143.823	0.040	-0.069
-412.384	-111.788	0.189	-0.049
-411.369	4.833	-0.473	-0.452
-410.355	-59.042	-0.442	0.247
-409.340	-63.223	0.060	-0.032
-408.325	-110.236	-0.251	0.068
-407.311	-30.003	-0.414	0.306
-406.296	-65.835	-0.430	-0.223
-405.282	-123.824	0.461	0.094
-404.267	-200.000	-0.010	0.448
-403.252	-44.084	-0.251	0.163
-402.238	29.698	-0.116	-0.128
-401.223	-4.569	-0.273	-0.245
-400.209	148.143	-0.331	0.582
-399.194	-116.646	-0.626	0.149
-398.179	344.020	-0.169	0.432
-397.165	-97.269	0.410	0.138
-396.150	-200.000	0.052	-0.309
-395.136	101.724	0.157	0.238
-394.121	-200.000	0.054	0.373
-393.106	42.314	-0.248	0.294
-392.092	-187.401	-0.302	-0.005
-391.077	-111.178	0.182	0.048
-390.063	-20.992	0.172	-0.136
-389.048	580.659	0.047	-0.149
-388.033	11.703	0.121	-0.121
-387.019	-118.908	-0.457	0.103
-386.004	23.085	0.248	-0.265
-384.990	-200.000	0.009	-0.223
-383.975	800.000	-0.028	0.153
-382.960	710.224	0.075	-0.259
-381.946	58.329	0.236	-0.301
-380.931	-69.199	-0.407	0.202
-379.917	48.589	0.177	0.215
-378.902	-100.684	-0.115	-0.037
-377.888	149.257	0.354	0.624
-376.873	-200.000	0.042	-0.485
-375.858	218.463	0.098	0.205
-374.844	-60.532	-0.211	0.116
-373.829	-36.530	-0.209	-0.146
-372.815	164.613	0.103	-0.190
-371.800	33.179	0.120	-0.135
-370.785	96.021	-0.156	0.231
-369.771	-23.690	-0.167	0.130
-368.756	-200.000	0.002	0.239
-367.742	54.089	-0.035	-0.044
-366.727	-200.000	-0.033	0.573
-365.712	-106.512	-0.048	-0.014
-364.698	-200.000	-0.017	0.154
-363.683	-200.000	0.037	-0.280
-362.669	-120.824	-0.389	-0.085
-361.654	-117.009	-0.229	0.054
-360.639	-150.871	-0.229	0.022
-359.625	-88.082	0.565	-0.219
-358.610	-31.212	0.295	0.216
-357.596	134.068	0.138	0.233
-356.581	667.340	0.113	-0.381
-355.566	566.473	0.193	-0.613
-354.552	-48.572	-0.243	0.151
-353.537	149.626	0.317	0.560
-352.523	-105.996	-0.172	-0.050
-351.508	-200.000	-0.022	0.151
-350.493	1.149	0.226	-0.210
-349.479	-161.697	-0.438	0.029
-348.464	-200.000	-0.006	-0.467
-347.450	49.839	-0.358	0.439
-346.435	114.410	0.206	0.327
-345.420	-54.539	-0.077	-0.045
-344.406	-62.633	-0.310	-0.166
-343.391	-136.768	0.339	-0.050
-342.377	323.643	0.074	-0.183
-341.362	-111.503	0.096	0.025
-340.348	203.899	0.160	0.323
-339.333	-82.770	0.350	0.146
-338.318	-58.343	0.246	-0.139
-337.304	139.322	0.008	0.014
-336.289	135.377	-0.077	0.130
-335.275	-200.000	0.073	-0.545
-334.260	72.051	0.234	0.316
-333.245	-0.374	0.061	-0.056
-332.231	-85.589	0.178	-0.071
-331.216	204.404	0.013	0.027
-330.202	92.124	-0.303	-0.443
-329.187	19.712	-0.213	-0.222
-328.172	-124.029	-0.237	-0.048
-327.158	49.370	0.221	0.269
-326.143	153.108	-0.054	0.097
-325.129	-192.127	0.320	0.004
-324.114	-110.867	-0.269	-0.071
-323.099	57.428	0.343	0.434
-322.085	221.916	0.141	0.295
-321.070	-143.393	-0.218	0.027
-320.056	207.643	-0.209	0.424
-319.041	-142.885	0.521	-0.065
-318.026	-110.534	-0.185	-0.049
-317.012	-123.188	0.145	0.030
-315.997	800.000	0.072	-0.281
-314.983	-72.048	-0.654	-0.314
-313.968	-153.833	-0.474	-0.042
-312.953	-14.332	-0.265	0.221
-311.939	-53.057	-0.198	0.117
-310.924	-103.700	-0.312	0.094
-309.910	253.800	0.146	0.324
-308.895	170.518	-0.042	-0.077
-307.880	-118.323	0.194	-0.044
-306.866	28.413	0.346	-0.379
-305.851	-75.195	-0.657	-0.303
-304.837	455.154	0.128	-0.369
-303.822	138.163	0.256	-0.436
-302.807	47.294	0.111	0.135
-301.793	240.181	0.090	-0.195
-300.778	-3.640	-0.402	0.361
-299.764	-94.217	-0.299	-0.105
-298.749	-122.561	-0.468	0.098
-297.735	800.000	0.123	-0.590
-296.720	-119.256	0.240	0.054
-295.705	-159.256	0.450	-0.032
-294.691	-53.107	0.308	-0.183
-293.676	-200.000	-0.015	-0.331
-292.662	-4.031	-0.488	0.438
-291.647	-36.692	0.187	0.130
-290.632	-54.181	0.104	0.061
-289.618	-188.374	0.185	0.003
-288.603	344.417	-0.070	-0.178
-287.589	-159.547	0.406	0.029
-286.574	-152.829	0.487	0.044
-285.559	-26.890	0.325	-0.245
-284.545	-106.154	-0.165	0.048
-283.530	161.643	-0.173	0.315
-282.516	-200.000	0.002	-0.386
-281.501	274.482	0.096	0.221
-280.486	-132.573	0.653	0.107
-279.472	-200.000	-0.011	-0.140
-278.457	-38.915	0.168	0.114
-277.443	-108.079	-0.112	0.031
-276.428	133.822	-0.039	-0.065
-275.413	-88.200	-0.360	-0.139
-274.399	-104.950	-0.208	-0.061
-273.384	-71.863	-0.324	0.156
-272.370	91.326	-0.078	0.113
-271.355	-103.093	0.409	-0.124
-270.340	732.904	-0.077	0.269
-269.326	536.632	-0.089	-0.273
-268.311	800.000	0.143	-0.560
-267.297	42.864	-0.251	-0.296
-266.282	-200.000	-0.068	-0.395
-265.267	403.899	-0.035	0.096
-264.253	800.000	-0.029	-0.107
-263.238	-200.000	-0.042	0.274
-262.224	533.605	0.026	0.081
-261.209	800.000	0.084	0.395
-260.195	-138.858	-0.459	-0.064
-259.180	12.766	0.138	0.138
-258.165	133.910	-0.089	0.150
-257.151	82.503	0.112	0.158
-256.136	715.038	-0.200	-0.690
-255.122	-153.131	0.199	0.018
-254.107	14.932	0.218	0.220
-253.092	-35.865	-0.318	-0.222
-252.078	-200.000	0.057	-0.451
-251.063	468.775	0.061	0.177
-250.049	-143.623	0.223	0.027
-249.034	-99.004	-0.349	-0.114
-248.019	-146.379	-0.268	0.030
-247.005	-43.571	0.200	-0.130
-245.990	-200.000	-0.034	-0.484
-244.976	-64.712	-0.118	0.062
-243.961	275.196	-0.129	0.296
-242.946	800.000	0.162	-0.679
-241.932	-169.986	0.376	0.017
-240.917	-200.000	0.060	-0.421
-239.903	-174.603	-0.536	0.019
-238.888	-152.399	0.136	0.013
-237.873	-115.669	0.535	0.129
-236.859	800.000	-0.132	0.524
-235.844	-200.000	-0.033	-0.494
-234.830	-18.227	0.312	0.252
-233.815	368.495	-0.058	0.153
-232.800	-29.282	-0.171	-0.126
-231.786	-132.670	0.425	-0.070
-230.771	-145.020	0.310	0.036
-229.757	-200.000	-0.035	-0.501
-228.742	-59.085	0.480	-0.267
-227.727	25.980	0.327	0.352
-226.713	800.000	-0.073	0.327
-225.698	-200.000	-0.021	-0.288
-224.684	279.123	0.193	-0.445
-223.669	151.141	0.108	0.190
-222.655	24.679	0.190	0.203
-221.640	-200.000	-0.039	-0.226
-220.625	-24.311	-0.345	0.265
-219.611	237.005	0.042	0.090
-218.596	-69.207	0.036	0.018
-217.582	130.914	0.183	-0.303
-216.567	-1.443	0.282	-0.256
-215.552	-95.354	-0.393	0.136
-214.538	505.458	-0.086	-0.258
-213.523	-200.000	0.005	-0.078
-212.509	800.000	0.009	-0.042
-211.494	-200.000	-0.031	0.194
-210.479	73.457	-0.053	-0.072
-209.465	225.220	0.115	-0.241
-208.450	94.134	0.143	0.209
-207.436	-62.348	-0.282	-0.151
-206.421	-93.024	-0.141	-0.051
-205.406	55.482	-0.297	-0.371
-204.392	16.197	-0.149	-0.151
-203.377	-140.111	0.245	-0.033
-202.363	-162.791	0.536	0.033
-201.348	800.000	0.100	0.369
-200.333	59.660	0.286	0.365
-199.319	-200.000	0.038	0.315
-198.304	47.371	0.135	0.162
-197.290	47.318	0.230	0.276
-196.275	-200.000	-0.052	0.740
-195.260	-16.016	0.250	0.205
-194.246	800.000	0.055	0.200
-193.231	-70.126	0.188	0.092
-192.217	169.842	0.114	0.210
-191.202	4.964	0.092	0.087
-190.187	-138.588	-0.236	0.033
-189.173	-97.814	0.125	-0.042
-188.158	38.775	-0.270	0.311
-187.144	-157.042	0.279	0.022
-186.129	-200.000	0.263	-0.001
-185.114	103.210	-0.120	0.182
-184.100	-200.000	-0.116	0.702
-183.085	-87.140	-0.240	-0.094
-182.071	117.639	0.123	-0.196
-181.056	-61.297	-0.486	-0.263
-180.042	-145.106	-0.031	-0.004
-179.027	2.973	-0.411	0.384
-178.012	-131.550	0.076	0.013
-176.998	-118.987	0.518	0.116
-175.983	106.041	-0.591	0.903
-174.969	24.028	0.196	0.208
-173.954	127.361	0.189	0.309
-172.939	-29.141	0.295	0.218
-171.925	-141.332	-0.359	0.046
-170.910	-23.775	-0.264	-0.203
-169.896	-200.000	0.011	-0.080
-168.881	45.254	-0.038	-0.046
-167.866	84.801	0.126	-0.178
-166.852	19.575	0.119	0.123
-165.837	-117.250	0.065	-0.015
-164.823	-50.628	-0.297	0.180
-163.808	-83.329	-0.337	0.139
-162.793	-200.000	-0.024	0.136
-161.779	-160.651	0.492	0.033
-160.764	110.592	0.232	0.360
-159.750	648.343	0.025	-0.084
-158.735	-112.991	0.223	0.056
-157.720	172.757	0.158	-0.293
-156.706	588.850	0.097	-0.310
-155.691	-200.000	0.018	-0.115
-154.677	-150.981	-0.073	0.007
-153.662	-154.286	0.189	-0.016
-152.647	110.587	-0.214	-0.332
-151.633	123.869	0.048	-0.078
-150.618	2.311	0.521	0.485
-149.604	2.342	0.067	-0.062
-148.589	-104.601	-0.232	-0.069
-147.574	126.606	-0.133	-0.218
-146.560	21.968	0.112	-0.118
-145.545	-200.000	0.003	-0.177
-144.531	-170.172	0.347	-0.016
-143.516	-13.524	0.126	-0.105
-142.502	-32.943	0.481	0.343
-141.487	-17.409	-0.147	0.119
-140.472	-200.000	-0.022	0.214
-139.458	253.035	-0.073	0.161
-138.443	-144.051	-0.269	0.032
-137.429	-200.000	0.002	-0.073
-136.414	346.278	0.148	0.377
-135.399	-81.502	0.537	0.226
-134.385	-154.837	-0.256	-0.021
-133.370	602.626	-0.084	-0.271
-132.356	800.000	-0.043	0.172
-131.341	5.368	0.314	0.298
-130.326	89.278	-0.354	0.508
-129.312	-61.450	-0.350	0.189
-128.297	800.000	-0.095	0.397
-127.283	-53.587	-0.071	-0.042
-126.268	-200.000	0.011	0.155
-125.253	-135.684	0.518	-0.078
-124.239	311.059	-0.018	-0.042
-123.224	666.718	-0.078	0.261
-122.210	-103.802	0.152	0.046
