DTS Sentinel unit serial number:	SN409020Multiplexer serial number:	ORYXHardware model number:	OX4-SRSoftware version number:	ORYX F/W v3.00 Oryx Data Collector v3.7.2.0data status	okinstallation	HaddamTimeLapsedifferential loss correction	single-endedforward channel	channel 3reverse channel	N/Adate	2011/06/21time	22:21:16forward acquisition time	30.00reverse acquisition time	0.00gamma	498.7831k internal	0.1757k external	0.1757temperature offset calibration	1.0074default loss term (dB/km)	0.3790temperature slope calibration	1.3530multiplexer offset coefficient	1.0000multiplexer slope coefficient	1.0000fibre end	0.00T internal ref (°C)	24.31T ext. ref 1 (°C)	18.83T ext. ref 2 (°C)	0.04length (m)	temperature (°C)	Stokes	anti-Stokes-747.200	-24.155	0.321	-0.253
-746.185	240.166	-0.091	0.201
-745.171	-200.000	0.022	0.158
-744.156	122.220	0.360	0.597
-743.142	-103.755	-0.307	-0.094
-742.127	-103.063	0.584	0.182
-741.112	116.060	-0.181	0.293
-740.098	186.055	-0.122	0.241
-739.083	-150.326	0.349	0.035
-738.069	42.352	0.396	0.476
-737.054	327.826	0.136	0.346
-736.039	-200.000	0.024	0.481
-735.025	39.639	-0.648	-0.770
-734.010	112.279	0.182	-0.292
-732.996	85.933	0.357	-0.521
-731.981	-70.205	0.221	0.110
-730.966	-0.849	0.230	0.215
-729.952	-137.199	-0.165	0.025
-728.937	74.254	-0.349	-0.485
-727.923	38.815	0.206	-0.244
-726.908	31.918	0.138	-0.158
-725.894	181.680	0.196	0.383
-724.879	-149.220	0.608	-0.064
-723.864	-200.000	-0.040	-0.457
-722.850	-25.126	-0.150	0.117
-721.835	-200.000	-0.031	0.325
-720.821	-12.428	0.115	0.099
-719.806	-98.834	0.173	-0.058
-718.791	-18.613	-0.324	0.267
-717.777	-200.000	-0.020	0.206
-716.762	198.935	-0.102	-0.208
-715.748	-73.813	-0.459	-0.220
-714.733	369.638	-0.193	0.519
-713.718	187.855	0.199	0.394
-712.704	800.000	-0.067	-0.333
-711.689	-198.047	-0.371	-0.003
-710.675	-76.345	-0.243	0.113
-709.660	231.993	0.076	-0.164
-708.645	-200.000	0.083	-0.596
-707.631	-136.391	-0.237	-0.036
-706.616	199.802	-0.122	-0.247
-705.602	-51.911	0.473	0.290
-704.587	-27.267	-0.438	0.336
-703.572	-115.513	0.263	0.065
-702.558	800.000	-0.040	0.228
-701.543	137.485	0.092	-0.159
-700.529	-5.639	0.353	-0.320
-699.514	30.412	0.141	-0.159
-698.499	-105.137	-0.506	-0.152
-697.485	-180.360	0.139	0.004
-696.470	-30.830	0.190	0.142
-695.456	146.110	-0.158	-0.281
-694.441	-25.019	-0.148	0.116
-693.426	8.151	-0.244	0.242
-692.412	127.994	0.082	0.138
-691.397	101.620	0.280	-0.432
-690.383	-99.366	-0.273	0.090
-689.368	-92.947	-0.289	0.106
-688.354	-157.261	0.433	-0.034
-687.339	-58.174	0.112	0.064
-686.324	-79.931	0.191	0.084
-685.310	-200.000	0.023	-0.156
-684.295	-93.706	0.283	0.103
-683.281	-200.000	0.006	-0.054
-682.266	-76.705	-0.492	-0.227
-681.251	162.346	0.290	0.538
-680.237	-52.644	0.164	-0.099
-679.222	-200.000	0.009	0.060
-678.208	-113.520	0.238	0.061
-677.193	800.000	0.059	-0.305
-676.178	53.477	-0.449	-0.569
-675.164	64.974	-0.157	-0.209
-674.149	29.702	-0.167	-0.188
-673.135	-64.827	0.326	-0.173
-672.120	-18.917	0.180	-0.148
-671.105	-49.923	-0.122	0.076
-670.091	23.452	0.313	0.340
-669.076	-176.395	0.635	0.021
-668.062	558.391	0.125	-0.400
-667.047	-200.000	-0.075	-0.551
-666.032	-200.000	-0.081	-0.497
-665.018	54.539	0.239	0.304
-664.003	-55.708	0.187	-0.110
-662.989	105.634	0.094	0.147
-661.974	-200.000	-0.058	-0.556
-660.959	330.898	-0.126	0.323
-659.945	-58.631	0.115	-0.066
-658.930	13.114	0.338	0.345
-657.916	146.869	-0.079	0.141
-656.901	35.661	0.179	-0.208
-655.886	-7.464	-0.516	-0.460
-654.872	319.258	0.112	-0.282
-653.857	-110.437	-0.552	-0.150
-652.843	800.000	0.078	0.321
-651.828	-64.425	0.297	0.159
-650.814	-164.190	-0.344	-0.021
-649.799	-8.949	0.106	0.094
-648.784	33.067	-0.200	0.229
-647.770	-59.108	-0.154	-0.087
-646.755	28.851	0.307	0.343
-645.741	579.086	-0.129	-0.419
-644.726	284.138	0.213	-0.508
-643.711	-108.760	-0.771	0.216
-642.697	7.715	-0.195	0.192
-641.682	-125.384	0.144	0.029
-640.668	53.906	0.296	0.375
-639.653	-200.000	-0.005	0.182
-638.638	-102.078	-0.254	-0.080
-637.624	-97.939	0.139	0.047
-636.609	-33.521	0.078	-0.057
-635.595	1.910	-0.348	-0.331
-634.580	172.276	-0.208	0.396
-633.565	74.248	-0.220	0.305
-632.551	386.279	-0.099	0.272
-631.536	-99.575	0.146	-0.048
-630.522	42.202	0.387	0.464
-629.507	-67.839	-0.052	-0.027
-628.492	-46.159	-0.331	-0.214
-627.478	-200.000	0.119	0.000
-626.463	-200.000	0.057	-0.455
-625.449	767.261	-0.080	-0.289
-624.434	-10.361	0.050	-0.043
-623.419	-3.474	0.068	0.062
-622.405	800.000	-0.137	0.593
-621.390	-59.266	0.339	-0.192
-620.376	-43.620	-0.495	-0.328
-619.361	-38.943	0.114	0.079
-618.346	140.458	-0.097	-0.170
-617.332	25.537	0.133	-0.146
-616.317	119.372	-0.223	0.364
-615.303	16.082	0.185	0.192
-614.288	-200.000	-0.002	-0.542
-613.273	182.562	-0.074	0.145
-612.259	-95.498	0.373	0.131
-611.244	88.510	-0.093	0.136
-610.230	-26.655	0.330	0.254
-609.215	-124.124	0.520	0.106
-608.201	149.571	-0.201	-0.359
-607.186	-35.677	0.272	-0.194
-606.171	-155.699	-0.513	-0.043
-605.157	211.181	0.132	0.274
-604.142	-123.356	-0.133	-0.028
-603.128	-31.383	-0.474	0.351
-602.113	-132.295	-0.301	0.051
-601.098	278.869	0.109	-0.257
-600.084	385.382	-0.038	0.103
-599.069	15.275	-0.316	0.326
-598.055	800.000	-0.081	0.342
-597.040	234.341	-0.201	0.437
-596.025	-200.000	-0.005	-0.474
-595.011	-108.304	-0.209	0.059
-593.996	-60.305	-0.416	0.233
-592.982	202.567	-0.170	0.346
-591.967	175.388	0.246	0.471
-590.952	800.000	0.041	-0.226
-589.938	-105.538	-0.562	-0.167
-588.923	100.009	-0.129	-0.197
-587.909	-131.633	-0.231	0.040
-586.894	114.040	0.143	0.229
-585.879	-60.633	-0.224	-0.125
-584.865	-53.974	-0.430	-0.257
-583.850	-68.148	0.072	0.037
-582.836	432.027	0.061	-0.175
-581.821	-184.746	0.065	-0.001
-580.806	-89.717	0.383	0.147
-579.792	22.206	-0.195	-0.210
-578.777	74.769	0.252	-0.350
-577.763	-118.570	0.038	-0.009
-576.748	226.729	-0.120	-0.256
-575.733	-38.143	0.160	-0.111
-574.719	-116.713	-0.257	-0.062
-573.704	-34.982	0.194	-0.139
-572.690	-94.118	-0.163	0.058
-571.675	-44.724	-0.556	-0.364
-570.661	139.362	-0.113	-0.196
-569.646	-107.707	-0.183	0.052
-568.631	232.485	0.260	0.563
-567.617	-20.329	0.168	0.136
-566.602	-53.016	-0.288	0.174
-565.588	-77.589	-0.157	-0.071
-564.573	-60.203	-0.175	-0.098
-563.558	70.646	0.162	-0.220
-562.544	-190.595	0.675	-0.009
-561.529	610.014	-0.106	0.350
-560.515	-92.181	0.409	0.151
-559.500	-87.624	0.278	0.110
-558.485	253.833	0.141	-0.317
-557.471	39.765	-0.103	0.122
-556.456	87.257	0.265	0.385
-555.442	104.753	-0.117	-0.181
-554.427	-200.000	-0.009	-0.283
-553.412	800.000	0.053	0.214
-552.398	-12.256	-0.412	-0.354
-551.383	256.220	-0.093	-0.212
-550.369	-71.014	-0.470	-0.231
-549.354	-79.499	-0.259	0.114
-548.339	320.968	-0.025	0.062
-547.325	37.313	0.075	-0.087
-546.310	-53.006	-0.256	0.154
-545.296	-38.706	-0.204	0.141
-544.281	445.616	-0.134	0.389
-543.266	-156.104	-0.482	0.039
-542.252	-114.506	-0.266	-0.066
-541.237	-135.915	0.174	-0.027
-540.223	-11.984	0.286	0.246
-539.208	40.602	-0.150	-0.178
-538.193	-164.828	-0.307	0.018
-537.179	-27.640	-0.124	0.094
-536.164	69.557	0.236	-0.319
-535.150	-27.079	-0.248	0.190
-534.135	516.463	-0.073	0.225
-533.121	-54.479	-0.351	-0.208
-532.106	36.911	-0.325	-0.378
-531.091	-200.000	-0.025	0.205
-530.077	111.886	-0.081	-0.128
-529.062	-50.652	-0.206	0.127
-528.048	22.938	-0.288	0.310
-527.033	383.925	0.103	-0.281
-526.018	-108.307	0.426	-0.120
-525.004	-136.814	0.258	-0.039
-523.989	-77.316	-0.174	-0.079
-522.975	42.642	-0.259	-0.309
-521.960	301.082	-0.166	0.405
-520.945	-121.727	-0.409	0.088
-519.931	-59.695	-0.281	-0.157
-518.916	-168.274	-0.367	-0.018
-517.902	-94.461	-0.223	-0.079
-516.887	24.521	0.139	0.151
-515.872	-36.360	-0.485	-0.342
-514.858	-120.472	0.331	0.073
-513.843	509.318	-0.083	-0.255
-512.829	55.219	0.108	-0.137
-511.814	18.371	-0.456	-0.477
-510.799	800.000	0.055	-0.229
-509.785	-31.064	-0.312	0.230
-508.770	-200.000	0.000	0.145
-507.756	-100.163	0.066	0.021
-506.741	-34.183	0.129	-0.092
-505.726	88.675	0.074	0.108
-504.712	-97.712	-0.066	-0.022
-503.697	22.701	-0.073	-0.078
-502.683	586.307	-0.111	-0.361
-501.668	-200.000	-0.004	0.056
-500.653	-37.488	-0.117	-0.082
-499.639	-177.058	0.166	-0.005
-498.624	141.283	0.011	0.019
-497.610	-200.000	-0.006	-0.127
-496.595	-71.678	-0.403	-0.196
-495.581	800.000	-0.137	-0.726
-494.566	-35.084	-0.078	0.055
-493.551	-136.146	0.164	0.025
-492.537	-200.000	-0.029	-0.222
-491.522	-34.538	0.428	0.307
-490.508	-42.995	0.257	0.171
-489.493	800.000	-0.051	-0.239
-488.478	460.638	0.172	-0.505
-487.464	-65.211	-0.211	0.111
-486.449	-103.683	-0.506	0.154
-485.435	800.000	0.117	0.444
-484.420	322.559	0.055	0.137
-483.405	125.035	-0.131	0.217
-482.391	29.366	-0.205	0.228
-481.376	-120.792	0.443	0.097
-480.362	-23.216	-0.127	0.100
-479.347	601.176	0.041	-0.135
-478.332	34.552	0.173	-0.198
-477.318	-200.000	0.047	0.321
-476.303	-87.107	0.068	0.027
-475.289	-104.261	-0.052	0.016
-474.274	-156.000	-0.199	-0.016
-473.259	-32.758	-0.386	-0.281
-472.245	627.350	0.097	0.322
-471.230	112.061	-0.199	0.315
-470.216	-200.000	-0.014	-0.445
-469.201	-43.666	-0.305	-0.201
-468.186	-200.000	0.015	-0.345
-467.172	144.117	0.241	-0.422
-466.157	-116.333	-0.227	0.054
-465.143	-161.310	0.380	0.025
-464.128	221.110	-0.155	0.327
-463.113	-106.474	0.139	-0.040
-462.099	800.000	-0.061	0.257
-461.084	0.578	0.228	-0.214
-460.070	-30.900	0.199	-0.147
-459.055	-101.813	-0.503	0.159
-458.040	-2.777	-0.482	0.441
-457.026	-116.050	0.068	0.016
-456.011	314.604	-0.084	0.208
-454.997	172.980	0.193	-0.365
-453.982	570.109	0.086	0.275
-452.968	-44.482	0.460	0.300
-451.953	51.658	0.318	-0.397
-450.938	-99.824	-0.049	-0.016
-449.924	-26.592	-0.194	-0.149
-448.909	59.066	-0.080	-0.103
-447.895	-27.769	0.373	-0.283
-446.880	-130.440	0.113	0.020
-445.865	69.898	-0.164	-0.221
-444.851	800.000	0.099	-0.363
-443.836	122.949	-0.230	-0.377
-442.822	-47.339	-0.088	0.056
-441.807	86.663	-0.251	-0.363
-440.792	800.000	-0.046	-0.203
-439.778	511.856	0.275	-0.842
-438.763	-19.276	-0.339	-0.275
-437.749	-115.650	-0.601	-0.146
-436.734	240.159	0.064	-0.141
-435.719	-155.857	0.266	0.022
-434.705	28.598	0.460	0.509
-433.690	-59.851	0.408	-0.228
-432.676	797.903	0.137	-0.496
-431.661	800.000	0.037	0.161
-430.646	-200.000	0.064	0.511
-429.632	-30.346	-0.211	0.156
-428.617	800.000	0.086	0.394
-427.603	-46.000	0.578	-0.372
-426.588	-198.870	-0.484	-0.003
-425.573	800.000	0.119	0.513
-424.559	-200.000	-0.023	0.205
-423.544	-124.525	-0.518	0.104
-422.530	-90.523	-0.256	-0.096
-421.515	32.808	-0.299	-0.338
-420.500	800.000	-0.107	-0.480
-419.486	-38.033	-0.215	-0.149
-418.471	57.339	0.062	-0.079
-417.457	-200.000	-0.052	-0.376
-416.442	446.912	-0.075	-0.216
-415.428	800.000	-0.098	-0.455
-414.413	360.026	-0.245	-0.644
-413.398	-116.624	0.953	-0.227
-412.384	48.723	-0.102	-0.126
-411.369	68.562	-0.185	-0.248
-410.355	-93.282	-0.723	-0.261
-409.340	-200.000	0.026	-0.397
-408.325	800.000	-0.042	0.154
-407.311	-164.093	-0.129	0.008
-406.296	800.000	0.104	-0.423
-405.282	48.021	0.338	-0.413
-404.267	-103.150	-0.045	0.014
-403.252	-47.283	0.542	0.344
-402.238	-9.738	0.240	0.208
-401.223	19.371	0.125	0.131
-400.209	-39.187	0.215	-0.147
-399.194	-200.000	-0.086	0.558
-398.179	800.000	-0.037	0.183
-397.165	2.502	0.452	0.427
-396.150	62.911	-0.225	0.294
-395.136	-106.399	-0.118	0.034
-394.121	250.438	-0.175	0.389
-393.106	-101.392	0.476	-0.151
-392.092	-116.174	0.330	0.079
-391.077	-159.074	0.186	-0.014
-390.063	-107.604	-0.309	0.088
-389.048	-111.366	-0.196	-0.052
-388.033	150.702	0.125	-0.222
-387.019	410.959	0.108	-0.301
-386.004	800.000	-0.081	-0.427
-384.990	96.340	-0.069	0.104
-383.975	127.662	0.251	0.418
-382.960	-61.052	-0.316	-0.174
-381.946	-26.855	-0.437	-0.333
-380.931	300.091	-0.135	-0.327
-379.917	-130.102	-0.136	0.024
-378.902	-118.534	0.490	-0.112
-377.888	106.858	-0.192	-0.298
-376.873	742.752	0.076	-0.267
-375.858	-177.881	0.614	0.019
-374.844	-200.000	0.006	0.292
-373.829	83.905	0.237	0.337
-372.815	578.326	-0.028	0.090
-371.800	786.570	0.124	-0.446
-370.785	-200.000	-0.009	-0.132
-369.771	265.034	0.197	0.449
-368.756	800.000	0.038	0.186
-367.742	169.049	-0.186	0.348
-366.727	-89.783	-0.286	-0.108
-365.712	-111.716	0.304	-0.080
-364.698	-200.000	0.094	0.691
-363.683	-200.000	-0.002	-0.090
-362.669	-200.000	-0.010	-0.579
-361.654	-69.995	-0.477	0.236
-360.639	682.543	0.048	0.164
-359.625	-139.367	-0.412	0.057
-358.610	429.968	-0.150	0.426
-357.596	-68.845	0.241	0.121
-356.581	-86.949	0.248	0.098
-355.566	800.000	-0.094	0.426
-354.552	282.084	0.121	0.284
-353.537	93.141	-0.205	0.302
-352.523	-53.619	-0.499	-0.296
-351.508	800.000	0.199	-0.723
-350.493	-63.990	0.321	-0.171
-349.479	-200.000	-0.040	-0.359
-348.464	-90.681	0.754	-0.282
-347.450	-200.000	-0.042	0.251
-346.435	-200.000	0.031	0.373
-345.420	134.377	0.148	-0.250
-344.406	-189.974	0.469	0.007
-343.391	-61.381	-0.132	-0.072
-342.377	-158.148	0.070	-0.005
-341.362	-78.304	0.273	0.121
-340.348	-200.000	-0.013	0.183
-339.333	-97.136	0.291	-0.098
-338.318	-21.890	0.206	0.163
-337.304	-120.803	-0.704	0.153
-336.289	256.347	0.075	-0.168
-335.275	633.663	-0.058	-0.194
-334.260	-19.192	0.271	-0.219
-333.245	-70.468	-0.231	0.114
-332.231	-90.689	-0.622	0.233
-331.216	651.489	-0.025	-0.085
-330.202	-100.557	0.235	0.075
-329.187	81.093	-0.023	-0.032
-328.172	249.953	0.078	0.173
-327.158	196.860	-0.028	0.055
-326.143	660.966	-0.025	-0.083
-325.129	-7.743	-0.147	-0.129
-324.114	-27.112	0.280	-0.212
-323.099	57.100	-0.228	-0.289
-322.085	-197.782	-0.411	-0.003
-321.070	250.451	-0.250	-0.555
-320.056	-30.819	0.288	-0.211
-319.041	53.381	-0.172	0.214
-318.026	-125.376	-0.347	-0.068
-317.012	-153.650	0.163	-0.014
-315.997	496.835	0.097	0.293
-314.983	38.665	0.243	0.283
-313.968	-200.000	-0.038	0.397
-312.953	20.188	0.060	0.063
-311.939	38.914	-0.440	0.512
-310.924	155.758	-0.185	0.332
-309.910	-156.657	-0.232	-0.018
-308.895	-200.000	-0.001	-0.012
-307.880	-106.494	0.299	-0.086
-306.866	-200.000	-0.202	0.001
-305.851	-33.979	0.135	0.097
-304.837	260.519	0.065	-0.146
-303.822	-195.011	-0.376	-0.004
-302.807	800.000	0.107	-0.438
-301.793	153.953	-0.129	-0.231
-300.778	800.000	-0.110	-0.426
-299.764	-1.927	0.302	-0.276
-298.749	758.470	0.055	-0.196
-297.735	-118.966	0.279	0.063
-296.720	117.377	0.125	-0.200
-295.705	-106.432	0.346	-0.100
-294.691	-33.758	0.179	0.128
-293.676	-132.811	0.342	0.056
-292.662	-43.506	0.351	-0.230
-291.647	-137.320	0.315	-0.046
-290.632	-42.172	0.208	0.138
-289.618	-25.283	-0.137	0.105
-288.603	-53.651	0.148	0.088
-287.589	-13.720	0.160	0.134
-286.574	-44.516	0.143	0.093
-285.559	14.732	-0.192	-0.195
-284.545	-85.868	0.198	0.079
-283.530	-44.530	-0.113	0.073
-282.516	118.249	-0.372	0.598
-281.501	74.575	0.102	0.139
-280.486	-177.040	0.419	0.013
-279.472	-200.000	-0.043	-0.331
-278.457	139.984	0.065	0.112
-277.443	-146.130	-0.234	0.026
-276.428	341.630	0.165	0.420
-275.413	67.121	0.178	0.236
-274.399	22.859	0.456	0.485
-273.384	-46.507	0.161	0.102
-272.370	-26.663	0.225	0.171
-271.355	-200.000	0.000	0.118
-270.340	-87.650	-0.295	-0.115
-269.326	89.285	0.083	0.121
-268.311	60.835	0.167	-0.216
-267.297	65.083	-0.098	0.129
-266.282	83.945	0.248	0.353
-265.267	-66.445	0.150	-0.077
-264.253	44.843	0.113	-0.135
-263.238	123.005	0.235	-0.383
-262.224	-200.000	0.046	-0.488
-261.209	-118.930	0.201	0.045
-260.195	48.158	0.205	-0.249
-259.180	-200.000	0.036	-0.211
-258.165	800.000	0.213	-0.843
-257.151	107.985	-0.284	0.440
-256.136	800.000	-0.076	0.277
-255.122	-183.990	-0.287	-0.006
-254.107	-135.578	-0.174	0.027
-253.092	68.567	0.145	0.193
-252.078	-94.586	-0.268	-0.094
-251.063	-178.986	-0.334	-0.010
-250.049	9.175	-0.482	0.473
-249.034	28.030	-0.339	0.372
-248.019	-19.442	0.110	-0.089
-247.005	-170.425	-0.432	-0.019
-245.990	800.000	-0.065	-0.250
-244.976	591.972	0.088	0.283
-243.961	-83.250	0.607	0.252
-242.946	216.298	0.258	0.534
-241.932	-64.758	-0.191	-0.100
-240.917	-66.017	-0.289	-0.149
-239.903	-115.014	0.289	0.071
-238.888	-82.307	-0.122	-0.051
-237.873	-59.017	-0.465	-0.260
-236.859	111.843	-0.070	0.109
-235.844	-68.352	0.521	0.262
-234.830	-200.000	0.017	0.129
-233.815	-114.714	0.559	0.138
-232.800	-200.000	-0.071	0.446
-231.786	32.634	-0.239	0.268
-230.771	-88.496	0.022	0.009
-229.757	-2.113	0.253	0.230
-228.742	800.000	0.135	0.526
-227.727	-38.099	0.315	-0.216
-226.713	-200.000	0.031	-0.181
-225.698	-98.718	0.283	0.093
-224.684	-200.000	-0.003	-0.425
-223.669	277.914	0.057	-0.131
-222.655	-89.429	-0.322	-0.122
-221.640	101.540	0.292	0.442
-220.625	-123.072	0.422	-0.087
-219.611	-60.397	0.324	0.178
-218.596	-31.324	-0.207	-0.151
-217.582	139.876	0.190	0.325
-216.567	-65.064	-0.203	-0.106
-215.552	-123.654	0.622	0.127
-214.538	-114.972	0.113	0.028
-213.523	-48.990	-0.200	0.124
-212.509	-26.056	-0.268	0.204
-211.494	-53.578	-0.219	0.129
-210.479	-125.010	0.246	-0.049
-209.465	-121.859	0.118	-0.025
-208.450	18.654	-0.064	0.067
-207.436	-103.683	0.467	-0.141
-206.421	-126.384	0.443	0.085
-205.406	384.047	0.007	-0.019
-204.392	800.000	0.015	-0.061
-203.377	-67.159	-0.218	0.111
-202.363	-186.176	0.331	-0.006
-201.348	-146.411	0.192	-0.022
-200.333	-149.750	0.265	0.027
-199.319	-72.734	0.206	0.098
-198.304	-200.000	0.005	0.274
-197.290	-97.013	0.323	-0.109
-196.275	704.684	0.084	-0.289
-195.260	-55.423	-0.335	0.194
-194.246	373.258	-0.103	0.272
-193.231	75.022	0.169	0.231
-192.217	314.286	0.150	0.369
-191.202	-158.129	-0.192	0.014
-190.187	-40.056	0.267	0.180
-189.173	-200.000	-0.021	-0.230
-188.158	179.389	0.067	-0.127
-187.144	-200.000	-0.050	0.362
-186.129	69.509	-0.202	-0.269
-185.114	-141.057	0.290	-0.038
-184.100	-59.310	0.474	-0.264
-183.085	-43.156	0.058	0.038
-182.071	-100.808	0.782	-0.248
-181.056	63.860	-0.299	0.389
-180.042	-36.059	0.335	0.234
-179.027	151.474	-0.242	0.428
-178.012	159.686	-0.194	0.351
-176.998	-151.078	-0.115	0.011
-175.983	45.862	0.333	0.400
-174.969	-200.000	-0.008	0.255
-173.954	167.514	-0.141	-0.260
-172.939	800.000	0.065	-0.264
-171.925	41.426	0.074	-0.087
-170.910	486.957	0.133	-0.394
-169.896	-40.278	0.430	0.289
-168.881	-93.260	0.075	0.027
-167.866	-92.180	0.109	0.040
-166.852	132.826	-0.248	-0.416
-165.837	-97.060	0.279	-0.094
-164.823	800.000	-0.081	0.416
-163.808	-200.000	0.001	-0.297
-162.793	-176.159	0.047	-0.002
-161.779	800.000	-0.034	-0.144
-160.764	686.851	-0.118	-0.400
-159.750	800.000	0.132	0.480
-158.735	43.920	0.156	0.185
-157.720	99.457	-0.096	-0.144
-156.706	-69.713	0.230	-0.113
-155.691	46.072	-0.202	-0.242
-154.677	111.154	-0.202	-0.315
-153.662	-2.683	0.129	0.116
-152.647	8.251	-0.382	0.371
-151.633	-82.697	-0.248	-0.103
-150.618	-93.222	-0.232	-0.083
-149.604	314.939	0.238	0.583
-148.589	129.412	0.137	0.226
-147.574	439.798	0.078	-0.220
-146.560	49.226	-0.077	0.094
-145.545	234.549	0.100	0.213
-144.531	10.571	-0.261	0.257
-143.516	-47.067	0.452	0.285
-142.502	-120.355	0.358	0.078
-141.487	-62.030	0.287	0.154
-140.472	-64.366	0.064	0.034
-139.458	-200.000	-0.007	0.071
-138.443	800.000	0.055	0.294
-137.429	-62.890	0.528	0.281
-136.414	15.267	0.260	0.264
-135.399	-87.656	-0.234	-0.091
-134.385	-17.880	0.133	0.108
-133.370	-33.505	0.495	0.353
-132.356	-109.972	0.089	0.024
-131.341	-157.191	0.157	0.012
-130.326	50.662	0.229	-0.280
-129.312	800.000	0.029	0.132
-128.297	-165.780	0.452	-0.025
-127.283	10.006	-0.240	0.236
-126.268	-3.616	-0.039	0.035
-125.253	205.497	0.046	-0.093
-124.239	-68.271	0.308	0.154
-123.224	-59.111	0.300	0.167
-122.210	19.487	-0.237	0.247
-121.195	-38.635	-0.187	-0.128
-120.180	149.330	-0.087	-0.152
