DTS Sentinel unit serial number:	SN409020Multiplexer serial number:	ORYXHardware model number:	OX4-SRSoftware version number:	ORYX F/W v3.00 Oryx Data Collector v3.7.2.0data status	okinstallation	HaddamTimeLapsedifferential loss correction	single-endedforward channel	channel 3reverse channel	N/Adate	2011/06/22time	05:31:17forward acquisition time	30.00reverse acquisition time	0.00gamma	498.7831k internal	0.1751k external	0.1751temperature offset calibration	1.0074default loss term (dB/km)	0.3790temperature slope calibration	1.3530multiplexer offset coefficient	1.0000multiplexer slope coefficient	1.0000fibre end	0.00T internal ref (°C)	22.56T ext. ref 1 (°C)	17.82T ext. ref 2 (°C)	0.16length (m)	temperature (°C)	Stokes	anti-Stokes-747.200	-79.105	-0.368	-0.165
-746.185	-59.604	-0.278	0.158
-745.171	315.423	-0.219	-0.551
-744.156	-90.660	-0.472	0.180
-743.142	-132.036	0.075	-0.013
-742.127	-29.932	0.339	0.256
-741.112	-200.000	0.009	0.112
-740.098	-200.000	0.026	0.230
-739.083	800.000	0.004	-0.025
-738.069	-200.000	-0.087	0.722
-737.054	-114.201	-0.509	0.130
-736.039	168.851	-0.114	-0.216
-735.025	29.032	0.178	0.200
-734.010	-114.308	0.445	-0.113
-732.996	-83.134	-0.689	0.293
-731.981	124.094	0.321	0.536
-730.966	800.000	-0.045	-0.171
-729.952	-37.562	-0.062	-0.044
-728.937	-67.898	-0.268	-0.138
-727.923	-200.000	0.029	-0.243
-726.908	-29.453	-0.602	-0.456
-725.894	-200.000	0.069	-0.564
-724.879	-29.954	0.194	-0.146
-723.864	28.311	-0.355	-0.399
-722.850	80.152	-0.367	-0.524
-721.835	17.140	0.340	-0.358
-720.821	729.166	0.153	-0.544
-719.806	-3.044	0.118	-0.109
-718.791	-15.546	0.189	-0.160
-717.777	-108.737	0.214	0.060
-716.762	-200.000	-0.016	0.206
-715.748	584.855	0.110	-0.361
-714.733	-18.635	0.097	-0.080
-713.718	-200.000	0.018	-0.503
-712.704	-8.515	-0.017	0.015
-711.689	-37.941	-0.266	-0.187
-710.675	-200.000	0.005	-0.337
-709.660	-39.869	0.441	0.305
-708.645	151.131	0.189	-0.342
-707.631	-200.000	-0.030	-0.243
-706.616	-61.700	-0.203	0.112
-705.602	46.031	0.205	0.252
-704.587	-16.482	-0.265	0.223
-703.572	-77.545	0.069	0.032
-702.558	398.908	0.097	-0.272
-701.543	-48.926	0.438	-0.277
-700.529	33.315	0.530	0.610
-699.514	35.747	-0.180	-0.209
-698.499	256.907	0.039	-0.088
-697.485	800.000	0.026	-0.153
-696.470	312.656	-0.155	-0.388
-695.456	-154.858	-0.372	0.032
-694.441	-166.711	-0.703	-0.038
-693.426	-171.691	0.076	-0.003
-692.412	445.161	-0.071	0.207
-691.397	-134.906	0.271	-0.043
-690.383	-109.704	-0.291	-0.081
-689.368	28.864	-0.268	-0.302
-688.354	-200.000	-0.006	-0.613
-687.339	-127.123	0.290	-0.056
-686.324	-200.000	0.008	0.060
-685.310	120.002	0.105	-0.173
-684.295	81.161	0.211	-0.302
-683.281	-88.660	0.159	0.062
-682.266	251.005	0.053	-0.120
-681.251	13.865	0.171	0.176
-680.237	800.000	0.057	-0.225
-679.222	18.479	0.240	-0.254
-678.208	-119.207	0.256	-0.059
-677.193	-13.395	0.182	0.156
-676.178	257.327	0.090	-0.205
-675.164	188.667	-0.261	-0.519
-674.149	-91.072	-0.413	0.156
-673.135	-45.371	-0.032	-0.021
-672.120	-200.000	0.058	-0.386
-671.105	800.000	0.156	-0.807
-670.091	-153.434	0.063	-0.006
-669.076	-58.402	0.213	-0.122
-668.062	-174.202	-0.168	-0.006
-667.047	-75.695	0.355	-0.166
-666.032	-144.011	-0.443	-0.054
-665.018	-66.190	0.107	-0.056
-664.003	-93.391	0.213	-0.078
-662.989	-113.024	-0.390	-0.101
-661.974	-106.259	0.346	0.102
-660.959	-52.304	0.508	0.311
-659.945	80.371	0.319	-0.456
-658.930	-108.722	0.431	-0.121
-657.916	-59.087	-0.208	-0.118
-656.901	-70.868	-0.333	-0.165
-655.886	-149.120	0.351	-0.037
-654.872	129.699	0.073	0.124
-653.857	-59.466	-0.278	0.157
-652.843	-20.042	-0.185	-0.150
-651.828	800.000	0.117	-0.451
-650.814	27.608	-0.102	0.114
-649.799	10.866	-0.010	0.010
-648.784	-134.673	-0.293	-0.047
-647.770	148.283	0.279	0.499
-646.755	-200.000	-0.098	0.594
-645.741	100.229	-0.103	-0.158
-644.726	-14.413	-0.326	0.277
-643.711	-200.000	0.028	0.216
-642.697	-74.955	0.058	0.027
-641.682	-19.756	0.605	-0.494
-640.668	800.000	-0.092	-0.354
-639.653	-57.735	-0.371	-0.214
-638.638	-138.100	-0.277	-0.040
-637.624	-200.000	0.045	0.309
-636.609	211.606	0.058	-0.121
-635.595	-156.764	-0.151	-0.012
-634.580	-106.138	-0.146	0.043
-633.565	-37.526	-0.487	-0.343
-632.551	-120.360	0.198	0.044
-631.536	-200.000	0.015	-0.236
-630.522	-84.301	-0.328	-0.137
-629.507	-115.970	0.198	0.048
-628.492	-58.235	0.271	-0.156
-627.478	7.580	-0.252	0.249
-626.463	-132.719	-0.091	0.015
-625.449	62.118	-0.130	0.172
-624.434	-200.000	-0.021	-0.525
-623.419	800.000	-0.211	-0.905
-622.405	35.280	-0.161	0.186
-621.390	-81.304	-0.177	0.077
-620.376	511.611	-0.041	-0.126
-619.361	-200.000	-0.017	-0.350
-618.346	-104.176	-0.368	-0.112
-617.332	153.749	0.166	0.302
-616.317	795.951	-0.085	0.312
-615.303	-83.703	0.457	-0.192
-614.288	1.508	-0.327	-0.311
-613.273	-93.354	0.238	-0.087
-612.259	-147.329	0.257	0.029
-611.244	-95.249	-0.470	-0.166
-610.230	207.888	-0.063	-0.131
-609.215	105.163	0.225	-0.352
-608.201	304.366	0.094	-0.230
-607.186	-200.000	-0.014	-0.270
-606.171	-33.873	0.337	0.244
-605.157	118.087	0.184	-0.300
-604.142	2.258	0.285	0.272
-603.128	28.644	0.207	-0.231
-602.113	-103.325	-0.334	0.103
-601.098	-200.000	0.028	-0.194
-600.084	800.000	0.078	0.384
-599.069	-27.923	-0.134	-0.102
-598.055	208.723	0.049	0.102
-597.040	309.363	0.139	0.344
-596.025	157.643	0.107	0.196
-595.011	-151.013	0.361	0.035
-593.996	109.577	0.170	-0.269
-592.982	-200.000	-0.047	-0.365
-591.967	86.044	-0.337	-0.490
-590.952	-10.105	0.062	-0.054
-589.938	-200.000	0.052	0.318
-588.923	-54.150	0.222	0.133
-587.909	-159.520	-0.272	-0.020
-586.894	543.679	-0.158	0.500
-585.879	24.238	0.150	0.163
-584.865	800.000	-0.006	0.026
-583.850	-200.000	0.022	-0.275
-582.836	30.720	-0.164	0.186
-581.821	296.756	0.162	-0.393
-580.806	-92.134	0.300	0.111
-579.792	-102.398	0.385	-0.121
-578.777	134.198	0.160	-0.275
-577.763	21.153	-0.307	0.329
-576.748	12.286	0.148	-0.150
-575.733	-103.062	0.209	0.065
-574.719	84.651	0.173	0.250
-573.704	126.280	0.135	0.227
-572.690	122.159	-0.164	0.271
-571.675	-153.724	-0.150	-0.013
-570.661	800.000	-0.059	0.239
-569.646	-107.440	-0.229	0.066
-568.631	-200.000	0.001	0.184
-567.617	-149.199	0.422	0.044
-566.602	-87.252	-0.524	0.209
-565.588	-107.182	0.132	-0.038
-564.573	-136.911	-0.071	0.011
-563.558	11.117	-0.309	0.312
-562.544	-143.442	-0.289	0.036
-561.529	-200.000	-0.008	0.201
-560.515	29.647	0.486	0.546
-559.500	90.672	0.366	-0.542
-558.485	-119.107	0.576	-0.132
-557.471	-74.874	-0.446	-0.210
-556.456	-107.129	-0.722	-0.209
-555.442	-200.000	-0.008	-0.153
-554.427	769.317	0.116	0.418
-553.412	350.313	-0.096	-0.253
-552.398	-200.000	-0.046	-0.291
-551.383	800.000	0.089	0.419
-550.369	94.358	-0.080	0.120
-549.354	35.314	0.102	0.118
-548.339	214.985	0.199	-0.418
-547.325	-32.490	-0.126	0.092
-546.310	3.080	0.197	0.188
-545.296	87.348	0.052	-0.076
-544.281	239.453	0.145	-0.319
-543.266	37.884	0.169	0.198
-542.252	-57.001	0.525	0.304
-541.237	-4.941	0.302	0.274
-540.223	-200.000	0.023	0.315
-539.208	-200.000	0.005	0.418
-538.193	69.257	-0.077	-0.104
-537.179	19.789	-0.165	-0.175
-536.164	-200.000	-0.039	0.449
-535.150	-57.295	0.226	0.130
-534.135	119.575	-0.186	0.305
-533.121	800.000	0.017	-0.075
-532.106	65.212	0.147	0.196
-531.091	-76.352	0.530	0.244
-530.077	265.306	0.222	0.511
-529.062	-159.893	-0.423	-0.030
-528.048	140.087	0.055	-0.096
-527.033	-200.000	-0.048	-0.519
-526.018	137.723	-0.153	-0.264
-525.004	-98.820	0.275	-0.092
-523.989	-174.004	0.275	0.010
-522.975	646.123	-0.121	0.409
-521.960	100.979	0.135	0.207
-520.945	-129.641	-0.339	-0.061
-519.931	800.000	0.084	-0.342
-518.916	-69.663	-0.140	-0.070
-517.902	800.000	-0.144	-0.613
-516.887	-7.789	-0.122	0.108
-515.872	-200.000	-0.090	-0.543
-514.858	-67.129	0.325	-0.168
-513.843	-135.702	0.404	0.062
-512.829	-58.378	0.420	0.239
-511.814	102.447	0.305	0.470
-510.799	800.000	0.016	0.061
-509.785	-200.000	0.015	0.426
-508.770	-173.584	0.470	-0.018
-507.756	-71.512	-0.038	-0.019
-506.741	-127.550	0.106	0.020
-505.726	153.438	0.191	-0.345
-504.712	216.899	-0.130	-0.273
-503.697	-66.955	-0.220	0.114
-502.683	-57.889	-0.288	0.165
-501.668	-84.056	-0.395	-0.164
-500.653	-181.596	-0.351	0.009
-499.639	34.447	-0.157	-0.180
-498.624	-102.366	0.383	-0.120
-497.610	-86.426	0.381	-0.153
-496.595	576.133	0.128	0.414
-495.581	36.238	0.308	0.357
-494.566	200.955	-0.099	-0.201
-493.551	800.000	-0.077	-0.297
-492.537	-5.729	0.181	0.163
-491.522	-200.000	-0.062	0.377
-490.508	63.328	0.080	-0.106
-489.493	-152.042	0.358	0.034
-488.478	-200.000	-0.022	-0.431
-487.464	-119.643	-0.769	-0.173
-486.449	-200.000	0.045	-0.298
-485.435	-118.337	0.505	-0.117
-484.420	800.000	0.033	0.185
-483.405	535.602	-0.162	0.509
-482.391	-13.424	0.262	0.223
-481.376	-18.275	0.352	-0.289
-480.362	48.509	-0.238	0.293
-479.347	-54.785	0.251	0.148
-478.332	-48.293	0.234	0.148
-477.318	-100.719	0.155	0.050
-476.303	-37.018	-0.261	0.184
-475.289	-80.164	-0.141	0.062
-474.274	-146.788	-0.437	0.049
-473.259	-129.418	-0.283	0.051
-472.245	-163.434	-0.455	0.028
-471.230	-104.410	0.478	-0.145
-470.216	152.117	0.062	0.111
-469.201	-200.000	-0.037	0.394
-468.186	-3.331	-0.186	0.170
-467.172	282.480	0.101	0.238
-466.157	800.000	0.078	-0.306
-465.143	640.913	0.114	0.384
-464.128	216.912	0.081	-0.170
-463.113	315.516	0.224	-0.557
-462.099	310.432	-0.122	0.301
-461.084	201.540	-0.033	-0.067
-460.070	266.243	-0.054	0.124
-459.055	800.000	0.115	0.473
-458.040	-75.591	-0.177	-0.082
-457.026	687.015	0.129	0.444
-456.011	-83.134	0.365	0.154
-454.997	-91.410	0.417	0.156
-453.982	643.798	-0.038	0.128
-452.968	-27.429	0.123	0.094
-451.953	436.864	-0.042	-0.120
-450.938	800.000	-0.039	0.199
-449.924	-200.000	-0.035	0.354
-448.909	187.220	0.146	0.287
-447.895	-186.472	-0.194	-0.004
-446.880	-200.000	-0.039	-0.337
-445.865	-38.473	0.572	-0.396
-444.851	-55.095	0.441	-0.260
-443.836	-200.000	0.054	0.479
-442.822	800.000	0.049	-0.242
-441.807	-59.021	-0.239	0.135
-440.792	-21.434	0.215	0.172
-439.778	-173.916	-0.038	-0.001
-438.763	117.582	-0.055	0.090
-437.749	-67.960	0.278	0.142
-436.734	151.667	0.082	-0.147
-435.719	73.245	0.242	-0.333
-434.705	76.888	0.185	-0.259
-433.690	-129.550	0.085	0.015
-432.676	-117.097	0.090	-0.021
-431.661	-19.067	-0.152	0.124
-430.646	-200.000	0.051	-0.311
-429.632	-92.906	-0.571	-0.208
-428.617	-200.000	0.004	0.188
-427.603	-77.053	0.096	-0.044
-426.588	-38.191	0.118	0.082
-425.573	13.363	-0.097	-0.099
-424.559	-76.444	0.185	0.085
-423.544	-200.000	0.007	0.309
-422.530	-147.853	-0.383	0.041
-421.515	-86.454	-0.333	0.133
-420.500	349.455	-0.063	0.164
-419.486	-113.747	0.454	0.115
-418.471	-79.019	0.280	-0.124
-417.457	-80.621	-0.332	0.144
-416.442	396.829	-0.138	0.379
-415.428	-30.342	0.096	-0.072
-414.413	-98.636	0.591	0.196
-413.398	13.552	0.181	0.185
-412.384	4.978	0.077	0.075
-411.369	-200.000	0.027	0.159
-410.355	-75.762	-0.349	0.162
-409.340	218.979	0.074	0.155
-408.325	41.573	0.330	-0.391
-407.311	-88.903	-0.295	0.114
-406.296	117.281	-0.094	0.151
-405.282	-60.782	0.335	0.185
-404.267	-24.191	-0.181	0.141
-403.252	48.576	-0.095	-0.117
-402.238	-66.835	-0.465	0.240
-401.223	133.988	0.278	-0.473
-400.209	800.000	0.089	-0.462
-399.194	23.079	0.071	-0.077
-398.179	-118.858	-0.513	0.117
-397.165	-60.491	0.131	-0.073
-396.150	-200.000	-0.003	-0.182
-395.136	-136.094	-0.475	-0.072
-394.121	218.909	0.109	0.229
-393.106	-200.000	0.073	-0.472
-392.092	-200.000	-0.019	0.210
-391.077	102.057	0.158	-0.243
-390.063	800.000	-0.046	-0.245
-389.048	-124.833	-0.438	0.088
-388.033	-73.658	-0.256	-0.122
-387.019	193.412	-0.157	-0.312
-386.004	-30.566	0.216	0.160
-384.990	-83.515	-0.319	-0.133
-383.975	-185.901	-0.479	0.009
-382.960	-172.289	0.175	-0.007
-381.946	78.573	0.175	0.245
-380.931	-200.000	-0.067	0.596
-379.917	28.074	-0.510	0.563
-378.902	382.490	0.141	-0.382
-377.888	116.630	-0.125	-0.201
-376.873	-23.942	-0.182	-0.142
-375.858	-100.362	-0.164	-0.053
-374.844	-107.698	0.284	0.081
-373.829	-149.525	-0.093	-0.009
-372.815	-131.310	0.665	0.114
-371.800	-44.220	0.547	0.358
-370.785	123.479	-0.211	0.347
-369.771	-43.030	-0.569	-0.377
-368.756	124.038	-0.108	-0.177
-367.742	-166.216	-0.210	-0.011
-366.727	-82.968	-0.349	0.147
-365.712	27.930	-0.213	0.235
-364.698	107.676	0.123	0.192
-363.683	800.000	0.095	-0.346
-362.669	800.000	-0.073	-0.280
-361.654	734.840	-0.063	-0.223
-360.639	109.349	0.064	0.100
-359.625	418.257	-0.031	0.088
-358.610	93.025	0.125	0.185
-357.596	-119.675	-0.497	0.111
-356.581	-200.000	-0.052	-0.365
-355.566	-124.347	0.523	-0.106
-354.552	-65.043	-0.112	-0.059
-353.537	52.164	-0.323	-0.403
-352.523	-142.955	0.120	0.015
-351.508	-1.666	0.097	-0.089
-350.493	88.926	-0.253	0.369
-349.479	41.917	0.197	-0.234
-348.464	-128.664	0.344	-0.063
-347.450	7.633	-0.275	0.269
-346.435	-124.884	0.344	0.069
-345.420	-181.908	-0.139	-0.003
-344.406	-200.000	0.008	-0.522
-343.391	-200.000	-0.029	-0.395
-342.377	-163.845	0.375	0.023
-341.362	-109.047	0.234	-0.065
-340.348	-96.941	-0.165	-0.056
-339.333	-200.000	0.020	0.212
-338.318	177.157	-0.050	-0.096
-337.304	-113.188	0.113	0.029
-336.289	-26.891	-0.359	0.274
-335.275	-13.362	-0.102	0.086
-334.260	539.280	0.143	0.447
-333.245	-32.210	0.142	0.104
-332.231	-10.598	0.415	-0.359
-331.216	-3.398	-0.276	-0.251
-330.202	800.000	0.014	-0.052
-329.187	-200.000	0.002	0.364
-328.172	-4.164	-0.182	-0.165
-327.158	-16.104	0.606	-0.502
-326.143	-47.350	-0.326	0.207
-325.129	-200.000	-0.007	0.327
-324.114	83.859	0.125	0.178
-323.099	497.008	0.166	0.501
-322.085	-200.000	0.028	0.393
-321.070	-200.000	-0.023	0.262
-320.056	390.197	-0.140	-0.382
-319.041	135.847	0.241	-0.412
-318.026	264.525	0.178	-0.407
-317.012	800.000	0.101	0.472
-315.997	-5.615	0.311	-0.278
-314.983	586.338	-0.059	0.191
-313.968	-200.000	0.005	0.073
-312.953	-28.350	-0.277	-0.209
-311.939	-65.544	0.289	-0.151
-310.924	-17.856	-0.071	0.058
-309.910	-128.501	-0.257	0.047
-308.895	55.487	0.242	0.306
-307.880	-66.818	-0.310	-0.160
-306.866	-117.446	0.203	0.048
-305.851	-200.000	-0.017	0.553
-304.837	-114.658	-0.253	-0.063
-303.822	199.475	-0.139	-0.279
-302.807	171.460	-0.280	-0.527
-301.793	-168.408	0.193	-0.010
-300.778	316.140	0.032	-0.080
-299.764	-200.000	-0.024	-0.369
-298.749	-34.127	0.434	0.311
-297.735	-24.623	0.099	0.077
-296.720	161.239	0.241	0.441
-295.705	313.713	0.187	0.461
-294.691	-56.891	-0.113	-0.065
-293.676	800.000	0.059	0.251
-292.662	-112.731	0.129	0.033
-291.647	800.000	-0.097	-0.413
-290.632	11.413	0.401	-0.401
-289.618	-200.000	0.018	-0.192
-288.603	122.214	0.094	-0.153
-287.589	69.323	0.132	-0.177
-286.574	-134.915	-0.613	0.096
-285.559	518.334	0.059	-0.182
-284.545	633.245	-0.046	0.152
-283.530	-98.108	0.121	0.040
-282.516	-200.000	-0.020	0.295
-281.501	-98.013	0.201	-0.067
-280.486	23.510	-0.069	0.074
-279.472	-105.130	-0.186	-0.055
-278.457	-200.000	-0.081	-0.503
-277.443	-128.591	0.364	-0.066
-276.428	-200.000	-0.026	-0.539
-275.413	-200.000	-0.013	-0.583
-274.399	-23.913	-0.165	-0.128
-273.384	55.161	0.175	0.220
-272.370	-67.523	-0.263	-0.134
-271.355	-57.610	-0.124	0.071
-270.340	-141.252	-0.013	-0.002
-269.326	-30.707	0.180	-0.133
-268.311	800.000	-0.041	0.160
-267.297	91.826	0.101	0.148
-266.282	-149.652	-0.155	0.016
-265.267	-6.358	0.160	-0.142
-264.253	-99.766	0.260	0.084
-263.238	17.354	0.178	-0.184
-262.224	-56.687	0.246	-0.141
-261.209	-88.541	0.271	-0.105
-260.195	-68.487	-0.315	-0.159
-259.180	-32.919	0.130	-0.094
-258.165	-105.071	0.451	0.134
-257.151	-72.837	-0.477	0.228
-256.136	150.467	-0.276	-0.489
-255.122	-73.407	-0.109	-0.052
-254.107	56.111	-0.171	-0.217
-253.092	-170.740	-0.245	-0.011
-252.078	-200.000	0.053	-0.310
-251.063	800.000	0.084	-0.467
-250.049	-200.000	0.023	0.195
-249.034	174.750	0.220	0.416
-248.019	81.947	-0.109	-0.154
-247.005	-200.000	-0.046	-0.339
-245.990	34.167	-0.192	0.218
-244.976	-38.553	0.464	-0.319
-243.961	17.977	-0.365	0.379
-242.946	-117.905	-0.538	-0.125
-241.932	-128.243	-0.177	0.033
-240.917	-95.201	0.263	-0.092
-239.903	-56.870	0.090	0.052
-238.888	121.116	0.245	-0.398
-237.873	75.056	0.134	0.185
-236.859	-63.170	0.132	0.071
-235.844	800.000	-0.040	-0.154
-234.830	-200.000	-0.019	-0.302
-233.815	-96.933	0.317	0.107
-232.800	170.880	0.329	0.615
-231.786	93.831	0.260	-0.384
-230.771	-81.819	-0.205	0.087
-229.757	-107.542	-0.087	0.025
-228.742	-76.367	0.474	0.216
-227.727	800.000	0.044	-0.249
-226.713	481.473	-0.199	-0.590
-225.698	800.000	0.026	-0.112
-224.684	308.802	-0.061	-0.150
-223.669	-91.203	-0.313	-0.116
-222.655	-3.911	0.318	0.286
-221.640	800.000	0.031	0.146
-220.625	800.000	0.124	0.490
-219.611	-156.915	-0.416	-0.033
-218.596	-200.000	-0.025	-0.188
-217.582	14.682	0.103	-0.105
-216.567	-6.399	-0.331	-0.293
-215.552	196.658	-0.105	0.209
-214.538	64.996	0.151	-0.199
-213.523	-115.544	-0.526	-0.128
-212.509	-48.432	0.161	0.101
-211.494	-115.206	-0.209	-0.051
-210.479	25.092	0.315	0.340
-209.465	-200.000	0.032	0.189
-208.450	8.398	0.109	0.107
-207.436	-200.000	0.014	0.251
-206.421	-28.443	-0.270	-0.202
-205.406	-135.143	-0.413	-0.064
-204.392	-69.729	0.489	-0.242
-203.377	-80.080	-0.264	-0.115
-202.363	-76.437	-0.225	-0.103
-201.348	-200.000	0.025	0.309
-200.333	90.766	-0.091	-0.133
-199.319	9.201	-0.235	0.230
-198.304	-118.691	-0.678	-0.154
-197.290	800.000	0.052	0.191
-196.275	-18.573	0.239	-0.193
-195.260	56.518	-0.213	0.269
-194.246	800.000	0.069	-0.288
-193.231	-124.847	-0.084	0.017
-192.217	-38.056	-0.270	0.186
-191.202	800.000	-0.036	-0.166
-190.187	-4.146	0.106	0.096
-189.173	3.416	-0.193	-0.183
-188.158	-200.000	0.038	0.268
-187.144	-14.800	-0.306	-0.255
-186.129	800.000	0.016	0.086
-185.114	89.227	0.290	0.420
-184.100	-97.606	-0.221	0.074
-183.085	-138.594	-0.235	-0.033
-182.071	-91.414	-0.371	0.137
-181.056	570.521	-0.159	-0.506
-180.042	127.876	-0.080	0.132
-179.027	800.000	0.114	-0.529
-178.012	800.000	-0.043	-0.178
-176.998	-55.984	0.206	0.119
-175.983	-74.437	-0.363	-0.169
-174.969	-30.391	-0.409	-0.301
-173.954	137.920	-0.235	0.401
-172.939	-105.395	-0.474	-0.139
-171.925	-111.409	-0.238	-0.063
-170.910	111.083	-0.148	-0.232
-169.896	800.000	-0.055	-0.271
-168.881	462.732	-0.174	0.508
-167.866	82.459	-0.272	-0.384
-166.852	139.668	0.124	-0.212
-165.837	-200.000	0.022	-0.367
-164.823	-65.451	0.071	-0.037
-163.808	133.095	0.314	0.529
-162.793	-140.903	0.608	-0.080
-161.779	-38.133	-0.127	0.087
-160.764	-106.684	-0.413	-0.119
-159.750	-90.298	-0.198	-0.074
-158.735	56.019	0.089	-0.113
-157.720	-200.000	0.034	0.488
-156.706	-94.182	-0.298	-0.105
-155.691	-15.209	-0.397	0.329
-154.677	800.000	0.022	-0.087
-153.662	512.190	-0.212	0.645
-152.647	-109.782	0.266	0.072
-151.633	-112.335	-0.100	0.026
-150.618	-111.514	0.100	-0.026
-149.604	-200.000	0.009	-0.055
-148.589	800.000	-0.048	-0.190
-147.574	-34.622	-0.161	-0.114
-146.560	-200.000	0.075	-0.598
-145.545	397.782	-0.111	-0.304
-144.531	-200.000	0.059	-0.350
-143.516	-124.664	-0.420	0.084
-142.502	-200.000	-0.019	-0.519
-141.487	-200.000	0.003	0.061
-140.472	15.202	-0.305	-0.311
-139.458	-200.000	0.014	0.312
-138.443	-63.560	-0.227	-0.120
-137.429	63.609	0.090	0.117
-136.414	-57.690	-0.330	-0.187
-135.399	-118.295	-0.311	-0.071
-134.385	-200.000	0.059	-0.365
-133.370	800.000	0.023	0.084
-132.356	-102.507	-0.347	-0.107
-131.341	-100.203	0.171	0.055
-130.326	80.733	0.202	-0.283
-129.312	-10.391	-0.175	0.151
-128.297	460.964	0.164	-0.478
-127.283	193.102	0.177	-0.348
-126.268	-102.883	-0.391	0.120
-125.253	-200.000	0.015	-0.401
-124.239	800.000	0.156	-0.572
-123.224	238.133	-0.264	-0.570
-122.210	-0.736	-0.055	-0.050
