DTS Sentinel unit serial number:	SN409020Multiplexer serial number:	ORYXHardware model number:	OX4-SRSoftware version number:	ORYX F/W v3.00 Oryx Data Collector v3.7.2.0data status	okinstallation	HaddamTimeLapsedifferential loss correction	single-endedforward channel	channel 3reverse channel	N/Adate	2011/06/21time	15:31:17forward acquisition time	30.00reverse acquisition time	0.00gamma	498.7831k internal	0.1813k external	0.1813temperature offset calibration	1.0074default loss term (dB/km)	0.3790temperature slope calibration	1.3530multiplexer offset coefficient	1.0000multiplexer slope coefficient	1.0000fibre end	0.00T internal ref (°C)	37.53T ext. ref 1 (°C)	28.39T ext. ref 2 (°C)	0.23length (m)	temperature (°C)	Stokes	anti-Stokes-747.200	-37.088	-0.323	-0.221
-746.185	-120.123	-0.110	0.024
-745.171	-176.788	0.546	0.017
-744.156	-163.138	-0.258	-0.016
-743.142	34.925	0.280	0.314
-742.127	120.319	0.275	0.438
-741.112	-173.669	-0.048	-0.002
-740.098	-200.000	-0.032	0.353
-739.083	-87.661	-0.237	-0.091
-738.069	-93.373	0.560	0.198
-737.054	69.902	-0.177	-0.234
-736.039	-6.131	0.108	0.094
-735.025	-34.673	-0.155	0.109
-734.010	800.000	0.090	-0.337
-732.996	-83.362	-0.328	-0.134
-731.981	-171.482	0.461	-0.019
-730.966	-135.302	-0.235	-0.036
-729.952	800.000	-0.080	-0.411
-728.937	-83.361	-0.446	0.183
-727.923	-40.299	0.422	-0.281
-726.908	-200.000	-0.036	-0.237
-725.894	-200.000	-0.008	-0.349
-724.879	394.033	-0.047	-0.126
-723.864	-97.707	0.269	0.089
-722.850	800.000	0.099	0.423
-721.835	1.054	0.296	0.272
-720.821	-153.736	-0.140	0.012
-719.806	186.446	-0.049	-0.093
-718.791	-34.529	-0.234	-0.164
-717.777	-94.230	-0.407	-0.142
-716.762	-200.000	0.039	-0.242
-715.748	10.737	-0.170	0.166
-714.733	-200.000	0.019	0.440
-713.718	-69.564	0.072	0.035
-712.704	-146.201	-0.519	0.058
-711.689	333.026	-0.112	-0.279
-710.675	48.848	0.279	-0.336
-709.660	-50.405	-0.117	0.071
-708.645	47.151	-0.276	-0.329
-707.631	523.851	-0.050	0.150
-706.616	-107.380	-0.374	-0.105
-705.602	22.789	-0.165	-0.174
-704.587	-200.000	0.003	0.230
-703.572	-4.116	-0.136	0.120
-702.558	-200.000	-0.005	0.360
-701.543	161.435	-0.008	-0.014
-700.529	-33.827	-0.117	-0.083
-699.514	-26.551	-0.171	0.128
-698.499	329.645	0.115	-0.283
-697.485	-43.931	-0.370	0.238
-696.470	-103.503	-0.573	0.171
-695.456	-44.048	-0.154	-0.099
-694.441	101.292	0.147	-0.219
-693.426	800.000	-0.025	0.104
-692.412	-92.633	0.338	-0.121
-691.397	-102.416	0.446	0.136
-690.383	-8.340	-0.245	-0.211
-689.368	-200.000	-0.005	0.236
-688.354	19.968	0.270	0.278
-687.339	-47.910	-0.273	-0.169
-686.324	-167.986	-0.211	0.010
-685.310	-200.000	-0.023	-0.480
-684.295	-39.733	-0.328	-0.219
-683.281	106.359	0.318	-0.483
-682.266	5.068	-0.081	0.076
-681.251	-61.840	-0.679	-0.362
-680.237	-200.000	-0.010	-0.080
-679.222	57.769	-0.010	0.013
-678.208	-200.000	0.178	-0.001
-677.193	286.833	-0.084	-0.194
-676.178	54.137	0.042	-0.051
-675.164	459.335	-0.176	0.503
-674.149	53.626	-0.203	-0.250
-673.135	-41.132	-0.197	0.130
-672.120	109.941	0.070	-0.108
-671.105	656.342	0.108	-0.356
-670.091	135.557	-0.171	-0.285
-669.076	-200.000	0.047	-0.283
-668.062	273.782	-0.146	-0.332
-667.047	666.528	0.124	-0.413
-666.032	-134.095	0.442	0.069
-665.018	-1.394	0.304	0.274
-664.003	-97.402	-0.222	-0.073
-662.989	800.000	-0.068	-0.254
-661.974	-40.450	-0.243	0.161
-660.959	-122.054	0.284	-0.059
-659.945	-119.683	0.171	-0.038
-658.930	-62.319	-0.344	-0.182
-657.916	-110.595	-0.080	-0.021
-656.901	-200.000	-0.029	0.276
-655.886	-165.523	0.307	0.017
-654.872	800.000	-0.038	0.166
-653.857	-90.733	0.060	-0.022
-652.843	315.757	-0.142	-0.345
-651.828	-187.447	-0.266	0.004
-650.814	-70.181	0.086	-0.042
-649.799	-81.661	0.152	-0.064
-648.784	-94.282	-0.111	-0.039
-647.770	-93.178	-0.401	0.142
-646.755	-123.060	-0.303	0.062
-645.741	-35.630	0.181	-0.125
-644.726	314.398	0.130	-0.315
-643.711	386.617	-0.110	-0.292
-642.697	-121.875	0.289	-0.060
-641.682	-53.781	0.546	-0.318
-640.668	303.322	0.081	0.192
-639.653	-122.645	-0.269	-0.055
-638.638	800.000	0.119	-0.431
-637.624	-28.767	-0.178	0.130
-636.609	-59.916	-0.701	-0.382
-635.595	-200.000	-0.032	-0.394
-634.580	-80.173	-0.455	0.194
-633.565	208.512	-0.105	0.210
-632.551	-52.024	-0.330	-0.195
-631.536	-159.816	-0.195	-0.013
-630.522	-112.446	-0.387	-0.098
-629.507	264.578	-0.200	-0.446
-628.492	270.963	-0.016	-0.037
-627.478	-123.340	-0.467	0.094
-626.463	429.833	-0.137	-0.380
-625.449	-45.637	-0.163	-0.103
-624.434	-64.562	-0.191	-0.099
-623.419	40.565	0.229	-0.264
-622.405	-93.183	-0.370	-0.131
-621.390	76.847	-0.116	-0.157
-620.376	341.634	-0.265	-0.665
-619.361	-27.601	0.271	-0.201
-618.346	164.300	0.034	0.061
-617.332	103.961	0.171	-0.258
-616.317	144.549	0.198	-0.339
-615.303	594.508	-0.086	-0.274
-614.288	-53.723	-0.308	0.179
-613.273	-123.760	-0.186	-0.037
-612.259	-11.659	-0.555	-0.465
-611.244	-48.491	-0.523	-0.320
-610.230	12.054	-0.135	-0.133
-609.215	-200.000	-0.019	-0.151
-608.201	-134.932	0.065	0.010
-607.186	231.619	-0.345	0.724
-606.171	-52.148	-0.235	0.138
-605.157	-103.507	-0.341	0.102
-604.142	-126.064	0.232	0.044
-603.128	272.220	0.021	0.047
-602.113	800.000	-0.077	-0.320
-601.098	183.920	0.162	0.307
-600.084	-10.662	0.283	0.238
-599.069	-18.582	0.534	-0.424
-598.055	-61.108	0.433	0.232
-597.040	-48.551	0.407	-0.249
-596.025	84.651	0.074	-0.104
-595.011	-79.867	-0.217	-0.093
-593.996	135.311	-0.245	0.407
-592.982	-200.000	-0.089	-0.000
-591.967	-14.034	0.119	-0.098
-590.952	800.000	-0.021	0.104
-589.938	-111.543	-0.342	0.088
-588.923	-33.404	-0.229	-0.161
-587.909	163.743	-0.065	-0.117
-586.894	-185.795	0.414	-0.008
-585.879	9.719	-0.100	-0.096
-584.865	-97.437	-0.209	-0.069
-583.850	246.905	0.235	0.507
-582.836	-16.372	0.187	0.151
-581.821	398.510	0.110	-0.295
-580.806	270.771	0.228	-0.514
-579.792	727.919	-0.098	-0.335
-578.777	61.932	-0.088	0.112
-577.763	-61.336	0.203	0.108
-576.748	60.111	0.070	-0.088
-575.733	-200.000	-0.067	0.403
-574.719	-9.010	-0.342	0.291
-573.704	30.327	-0.222	-0.242
-572.690	120.023	0.073	-0.116
-571.675	-98.826	0.154	0.049
-570.661	128.551	0.208	-0.338
-569.646	294.146	-0.184	0.430
-568.631	86.907	0.132	0.187
-567.617	-40.237	0.495	0.328
-566.602	141.709	-0.231	0.390
-565.588	-124.652	0.292	0.057
-564.573	800.000	-0.166	0.632
-563.558	-110.918	-0.345	0.090
-562.544	-34.918	0.192	-0.133
-561.529	-117.770	0.122	-0.028
-560.515	-120.602	-0.237	-0.051
-559.500	-108.879	0.611	0.165
-558.485	-200.000	0.036	-0.280
-557.471	-104.795	-0.333	-0.097
-556.456	-200.000	0.024	0.236
-555.442	-1.703	0.362	0.324
-554.427	-28.506	0.192	0.140
-553.412	-36.415	-0.138	0.094
-552.398	-51.966	-0.016	-0.010
-551.383	104.458	0.450	0.676
-550.369	-79.451	0.455	-0.195
-549.354	-23.191	0.222	-0.170
-548.339	-44.242	-0.241	0.154
-547.325	-200.000	0.027	-0.540
-546.310	-200.000	-0.064	-0.495
-545.296	-125.601	-0.679	0.130
-544.281	-60.964	0.550	0.295
-543.266	-137.576	-0.296	0.042
-542.252	53.517	-0.225	0.274
-541.237	156.236	0.037	0.066
-540.223	-95.507	0.193	0.066
-539.208	-173.264	0.637	0.024
-538.193	-70.410	0.314	0.151
-537.179	-183.354	-0.352	0.008
-536.164	-38.380	-0.166	0.112
-535.150	-200.000	0.061	-0.462
-534.135	-120.277	-0.459	-0.099
-533.121	149.220	0.102	-0.177
-532.106	-46.225	-0.023	-0.014
-531.091	-75.649	0.202	-0.091
-530.077	-41.156	-0.172	-0.112
-529.062	70.143	-0.174	0.229
-528.048	-177.855	-0.462	0.014
-527.033	-151.993	-0.231	-0.021
-526.018	-45.372	-0.103	0.065
-525.004	97.132	0.017	-0.024
-523.989	401.042	-0.139	0.374
-522.975	-96.788	0.175	-0.058
-521.960	69.035	-0.345	-0.451
-520.945	163.887	-0.126	0.226
-519.931	-148.102	-0.213	-0.022
-518.916	-38.835	0.318	0.213
-517.902	432.428	0.026	0.071
-516.887	433.245	0.093	-0.259
-515.872	223.661	0.203	-0.418
-514.858	-53.495	-0.379	0.220
-513.843	164.693	0.316	-0.568
-512.829	165.226	-0.184	0.331
-511.814	-29.976	0.058	-0.042
-510.799	800.000	0.020	0.114
-509.785	800.000	-0.125	0.582
-508.770	-11.465	0.286	0.239
-507.756	90.254	-0.086	0.123
-506.741	-181.468	-0.220	0.005
-505.726	-109.362	-0.231	-0.062
-504.712	9.824	-0.157	0.151
-503.697	165.927	-0.124	0.224
-502.683	-200.000	-0.002	0.051
-501.668	-176.663	-0.367	0.012
-500.653	-54.328	-0.226	-0.130
-499.639	-134.148	-0.292	-0.045
-498.624	55.920	0.366	-0.452
-497.610	305.999	0.102	0.243
-496.595	66.122	-0.212	0.274
-495.581	257.939	0.153	0.335
-494.566	-77.242	0.514	-0.226
-493.551	-3.778	0.349	-0.307
-492.537	-200.000	0.037	0.309
-491.522	24.422	0.376	-0.395
-490.508	113.731	0.248	-0.383
-489.493	-190.294	0.050	0.001
-488.478	104.074	0.200	-0.299
-487.464	14.386	0.432	-0.428
-486.449	198.937	0.375	-0.732
-485.435	70.953	-0.131	0.172
-484.420	800.000	0.015	-0.062
-483.405	136.209	0.270	-0.448
-482.391	190.819	0.216	-0.413
-481.376	-108.597	0.498	0.135
-480.362	-74.777	0.326	-0.148
-479.347	-7.033	-0.319	-0.274
-478.332	349.768	0.083	0.209
-477.318	240.736	0.162	0.345
-476.303	-10.033	0.083	-0.070
-475.289	-68.052	-0.105	-0.052
-474.274	800.000	0.063	-0.282
-473.259	70.230	0.253	0.332
-472.245	-56.377	-0.058	0.033
-471.230	-179.505	-0.362	-0.010
-470.216	-200.000	-0.002	-0.213
-469.201	-74.354	0.295	0.135
-468.186	45.450	0.251	0.294
-467.172	-147.540	0.499	0.053
-466.157	-200.000	0.031	-0.406
-465.143	-200.000	-0.016	0.332
-464.128	-82.101	0.407	0.168
-463.113	800.000	0.017	-0.068
-462.099	-94.249	-0.259	0.090
-461.084	800.000	0.142	-0.502
-460.070	15.907	0.343	-0.342
-459.055	170.635	-0.243	-0.443
-458.040	-118.360	0.124	0.028
-457.026	669.753	0.129	-0.426
-456.011	-110.125	-0.213	0.056
-454.997	203.561	0.128	0.252
-453.982	140.466	-0.077	-0.129
-452.968	-200.000	0.058	0.427
-451.953	317.788	0.017	0.041
-450.938	-26.967	-0.376	-0.278
-449.924	-0.991	-0.213	-0.191
-448.909	-42.544	0.114	0.073
-447.895	-200.000	-0.011	-0.113
-446.880	-91.975	-0.184	0.066
-445.865	136.943	-0.334	0.554
-444.851	-200.000	0.038	0.419
-443.836	58.044	0.413	-0.513
-442.822	36.921	0.127	-0.142
-441.807	-32.519	-0.141	0.099
-440.792	-133.181	0.111	-0.018
-439.778	-200.000	0.019	-0.190
-438.763	42.173	0.094	-0.108
-437.749	-200.000	-0.015	0.440
-436.734	-127.570	-0.252	0.046
-435.719	-166.058	-0.113	-0.006
-434.705	-62.509	0.289	-0.152
-433.690	687.032	-0.062	0.206
-432.676	151.393	0.223	-0.386
-431.661	53.841	0.252	-0.308
-430.646	139.134	0.268	0.447
-429.632	224.348	0.134	-0.276
-428.617	800.000	-0.028	-0.148
-427.603	-21.370	0.130	-0.100
-426.588	-113.543	-0.116	0.029
-425.573	236.401	-0.061	0.128
-424.559	-18.967	-0.334	-0.263
-423.544	-92.835	0.287	0.101
-422.530	-200.000	0.322	0.001
-421.515	327.600	-0.073	-0.179
-420.500	0.870	0.088	0.080
-419.486	-58.928	0.699	0.381
-418.471	800.000	-0.085	0.356
-417.457	-200.000	0.020	0.260
-416.442	-190.058	0.394	0.005
-415.428	-97.391	0.345	0.113
-414.413	-177.507	0.173	-0.005
-413.398	-150.999	0.176	-0.017
-412.384	800.000	-0.118	0.504
-411.369	219.614	-0.198	0.403
-410.355	800.000	0.052	-0.250
-409.340	211.500	0.086	0.172
-408.325	-9.133	0.107	-0.091
-407.311	-158.128	-0.523	0.038
-406.296	-135.245	-0.505	0.076
-405.282	-200.000	-0.018	0.497
-404.267	-112.865	0.418	0.104
-403.252	-200.000	0.003	0.196
-402.238	447.792	-0.111	0.310
-401.223	-200.000	-0.023	0.358
-400.209	-83.045	0.098	-0.040
-399.194	-200.000	-0.057	0.330
-398.179	10.249	-0.090	0.087
-397.165	-52.880	0.073	-0.043
-396.150	-146.834	-0.087	0.009
-395.136	671.176	-0.054	0.178
-394.121	-115.410	-0.411	0.097
-393.106	-85.332	-0.365	-0.143
-392.092	-119.048	0.208	-0.046
-391.077	-115.991	0.514	-0.120
-390.063	728.065	0.065	-0.220
-389.048	-70.222	-0.251	-0.120
-388.033	-42.597	-0.378	0.243
-387.019	-27.170	0.093	-0.068
-386.004	27.446	-0.088	-0.094
-384.990	1.926	0.160	-0.146
-383.975	-63.633	-0.271	-0.140
-382.960	-53.540	-0.434	-0.251
-381.946	-96.622	0.378	0.125
-380.931	61.338	-0.425	-0.534
-379.917	-148.054	-0.199	0.021
-378.902	-200.000	-0.043	-0.239
-377.888	-60.822	-0.217	-0.116
-376.873	-130.676	0.159	-0.027
-375.858	-200.000	-0.024	-0.238
-374.844	87.096	0.051	-0.071
-373.829	800.000	0.054	0.252
-372.815	-200.000	0.007	0.307
-371.800	21.286	0.312	-0.320
-370.785	-93.461	0.301	-0.105
-369.771	-34.374	-0.343	0.238
-368.756	111.587	0.216	0.330
-367.742	-119.135	-0.320	-0.070
-366.727	-77.023	0.375	0.165
-365.712	-68.446	-0.133	0.065
-364.698	164.628	-0.100	0.180
-363.683	-73.708	-0.285	-0.130
-362.669	-50.013	0.190	-0.114
-361.654	-200.000	-0.010	-0.062
-360.639	-89.401	-0.101	-0.037
-359.625	-135.468	-0.351	0.052
-358.610	-200.000	-0.037	-0.311
-357.596	174.415	-0.086	0.157
-356.581	-56.446	-0.204	0.114
-355.566	-9.406	-0.409	0.344
-354.552	-200.000	0.001	0.031
-353.537	-116.957	0.281	-0.064
-352.523	-4.730	0.167	-0.146
-351.508	28.169	0.202	-0.216
-350.493	-105.599	0.169	-0.048
-349.479	188.881	0.166	0.315
-348.464	-114.809	-0.221	-0.053
-347.450	618.040	-0.056	-0.179
-346.435	-200.000	0.002	-0.307
-345.420	-27.476	-0.376	-0.276
-344.406	-104.991	-0.624	-0.179
-343.391	800.000	-0.041	0.216
-342.377	444.607	-0.084	0.234
-341.362	-47.979	0.328	0.200
-340.348	-31.261	0.007	0.005
-339.333	9.420	-0.299	0.286
-338.318	-71.636	-0.330	0.155
-337.304	-131.067	-0.225	-0.038
-336.289	-18.398	0.389	-0.306
-335.275	666.640	-0.131	-0.431
-334.260	635.308	0.070	-0.227
-333.245	21.776	-0.282	-0.290
-332.231	676.843	-0.056	-0.184
-331.216	307.477	0.186	0.441
-330.202	65.308	-0.056	-0.072
-329.187	-194.990	-0.574	-0.005
-328.172	-102.721	-0.131	0.039
-327.158	9.834	-0.336	0.322
-326.143	-103.138	0.499	0.148
-325.129	-124.355	0.350	0.068
-324.114	-163.275	-0.438	-0.026
-323.099	-9.928	-0.258	0.217
-322.085	242.300	0.311	0.660
-321.070	-200.000	0.042	0.385
-320.056	800.000	-0.051	0.178
-319.041	800.000	-0.027	0.141
-318.026	-106.577	0.474	-0.132
-317.012	-0.008	0.107	-0.096
-315.997	-40.874	-0.316	0.206
-314.983	705.382	-0.118	0.395
-313.968	-16.385	0.079	0.063
-312.953	23.518	0.276	0.286
-311.939	-21.277	-0.304	-0.234
-310.924	10.465	0.178	0.171
-309.910	-52.454	-0.523	-0.304
-308.895	-11.338	0.160	0.133
-307.880	257.302	0.217	0.473
-306.866	-143.028	0.258	0.031
-305.851	4.456	0.377	-0.348
-304.837	92.853	-0.068	-0.096
-303.822	-124.117	0.149	0.029
-302.807	-66.609	-0.042	-0.021
-301.793	-112.998	-0.510	0.126
-300.778	800.000	0.071	0.332
-299.764	-49.812	0.286	-0.171
-298.749	46.589	-0.326	0.382
-297.735	-131.155	-0.351	0.058
-296.720	-181.036	-0.625	0.016
-295.705	40.486	0.174	-0.198
-294.691	-102.712	0.222	0.066
-293.676	5.820	-0.473	0.441
-292.662	-153.125	-0.168	0.015
-291.647	80.039	-0.111	-0.151
-290.632	-77.566	-0.435	0.189
-289.618	-51.105	-0.209	0.123
-288.603	-200.000	0.010	-0.119
-287.589	-82.475	0.064	-0.026
-286.574	18.836	-0.080	0.081
-285.559	-200.000	-0.060	0.340
-284.545	41.885	-0.219	0.250
-283.530	-108.574	-0.260	0.070
-282.516	15.315	-0.476	-0.471
-281.501	-27.094	-0.311	-0.228
-280.486	4.770	0.203	-0.188
-279.472	-76.913	-0.450	-0.197
-278.457	800.000	-0.060	-0.293
-277.443	-108.749	-0.405	0.108
-276.428	116.179	-0.234	-0.362
-275.413	-43.696	0.236	0.150
-274.399	747.454	-0.182	0.623
-273.384	800.000	0.077	-0.402
-272.370	134.302	0.070	0.114
-271.355	130.091	-0.032	0.052
-270.340	-160.073	-0.392	-0.026
-269.326	70.038	0.138	0.179
-268.311	-142.397	0.557	0.068
-267.297	11.645	0.136	-0.131
-266.282	-193.594	0.377	0.004
-265.267	32.053	-0.122	0.133
-264.253	800.000	0.027	-0.110
-263.238	-114.822	0.349	-0.083
-262.224	715.191	0.115	-0.385
-261.209	-66.741	0.321	0.159
-260.195	-94.542	0.350	-0.119
-259.180	-116.960	0.225	-0.051
-258.165	629.645	0.090	0.287
-257.151	322.958	-0.084	-0.201
-256.136	559.469	-0.160	0.490
-255.122	-43.869	0.292	0.184
-254.107	-51.401	0.437	-0.256
-253.092	222.622	0.107	-0.217
-252.078	-39.345	0.500	0.330
-251.063	-192.675	-0.110	-0.001
-250.049	-200.000	-0.001	-0.118
-249.034	35.674	0.191	-0.211
-248.019	1.707	-0.092	-0.084
-247.005	177.788	0.182	0.335
-245.990	93.618	0.151	-0.216
-244.976	443.165	-0.093	0.258
-243.961	800.000	0.055	0.231
-242.946	-124.415	-0.348	0.068
-241.932	-168.493	-0.171	0.008
-240.917	-50.480	0.065	-0.038
-239.903	16.412	-0.248	-0.247
-238.888	800.000	-0.052	0.216
-237.873	-183.768	0.188	-0.004
-236.859	-2.745	0.237	-0.208
-235.844	44.740	0.064	0.074
-234.830	-194.334	0.606	0.006
-233.815	45.266	0.150	-0.174
-232.800	-78.161	-0.503	-0.217
-231.786	-200.000	0.213	0.001
-230.771	-32.169	-0.554	0.389
-229.757	88.989	0.105	-0.148
-228.742	25.272	0.158	0.165
-227.727	323.861	-0.025	-0.059
-226.713	-200.000	0.006	-0.099
-225.698	-130.086	0.459	0.078
-224.684	-98.294	0.383	0.123
-223.669	800.000	-0.096	0.475
-222.655	237.804	-0.189	0.396
-221.640	667.000	-0.144	0.470
-220.625	-57.204	-0.096	-0.053
-219.611	-48.280	-0.282	0.170
-218.596	303.526	-0.159	0.371
-217.582	-126.460	0.548	0.101
-216.567	148.789	-0.049	-0.084
-215.552	-86.077	0.250	-0.096
-214.538	-200.000	0.385	0.000
-213.523	800.000	-0.055	-0.248
-212.509	183.422	-0.156	0.291
-211.494	-74.597	0.327	-0.147
-210.479	800.000	0.099	0.346
-209.465	525.539	-0.107	-0.318
-208.450	-94.075	0.527	-0.180
-207.436	-108.081	0.154	0.042
-206.421	619.638	0.103	-0.328
-205.406	-200.000	-0.001	-0.354
-204.392	18.984	0.089	0.090
-203.377	684.456	0.034	-0.112
-202.363	-135.346	-0.866	-0.129
-201.348	193.472	-0.150	-0.285
-200.333	63.331	-0.213	0.269
-199.319	800.000	0.038	0.207
-198.304	446.029	-0.115	-0.318
-197.290	-143.731	0.360	-0.042
-196.275	76.604	-0.162	0.216
-195.260	479.879	-0.215	0.614
-194.246	-109.657	-0.308	-0.081
-193.231	-189.643	0.267	-0.004
-192.217	336.257	0.238	-0.583
-191.202	36.375	-0.283	0.313
-190.187	113.927	-0.112	0.172
-189.173	-200.000	-0.051	-0.734
-188.158	60.670	-0.132	-0.164
-187.144	110.796	-0.223	-0.338
-186.129	147.839	-0.166	0.281
-185.114	-32.909	-0.060	0.042
-184.100	338.246	-0.078	0.190
-183.085	-127.967	-0.318	-0.057
-182.071	-100.519	-0.277	0.085
-181.056	185.087	0.285	0.532
-180.042	185.945	-0.187	0.350
-179.027	-57.175	-0.090	0.050
-178.012	111.267	0.167	-0.253
-176.998	-69.634	0.373	-0.179
-175.983	-64.932	0.644	-0.326
-174.969	-200.000	0.013	-0.589
-173.954	228.366	-0.131	0.269
-172.939	-123.493	-0.392	-0.078
-171.925	-200.000	0.033	-0.267
-170.910	-73.051	0.183	-0.084
-169.896	-88.125	0.061	-0.023
-168.881	-149.144	0.438	0.044
-167.866	425.987	0.041	0.112
-166.852	123.109	0.138	-0.217
-165.837	-16.730	0.323	0.256
-164.823	-136.866	0.343	0.049
-163.808	-200.000	0.036	-0.374
-162.793	-200.000	-0.001	0.051
-161.779	-200.000	-0.006	0.391
-160.764	-92.758	0.536	-0.187
-159.750	-42.066	0.095	-0.061
-158.735	-72.146	0.165	-0.076
-157.720	140.197	0.293	0.485
-156.706	-118.643	-0.106	0.023
-155.691	-138.943	0.307	-0.041
-154.677	148.655	-0.116	0.198
-153.662	800.000	0.049	0.194
-152.647	-200.000	0.034	0.325
-151.633	39.555	-0.332	-0.373
-150.618	-70.451	0.208	-0.098
-149.604	24.189	-0.139	0.144
-148.589	138.652	-0.059	-0.097
-147.574	-138.039	0.419	-0.058
-146.560	346.841	0.048	-0.119
-145.545	-100.267	-0.371	-0.115
-144.531	149.925	-0.115	-0.195
-143.516	-94.154	-0.293	0.100
-142.502	-124.208	0.507	-0.099
-141.487	-168.207	-0.316	-0.015
-140.472	-102.034	-0.325	0.098
-139.458	-64.370	0.053	0.027
-138.443	-69.922	-0.334	0.159
-137.429	-64.420	-0.077	-0.039
-136.414	-76.301	0.291	-0.128
-135.399	-113.471	0.356	-0.087
-134.385	-200.000	-0.007	0.360
-133.370	800.000	-0.122	0.465
-132.356	-200.000	-0.013	-0.082
-131.341	23.984	0.313	-0.323
-130.326	632.983	0.027	0.086
-129.312	800.000	-0.107	-0.396
-128.297	-126.226	-0.124	0.023
-127.283	-47.083	0.240	-0.147
-126.268	-200.000	0.008	-0.524
-125.253	-39.569	-0.334	0.218
-124.239	-94.393	-0.033	-0.011
-123.224	-86.358	0.135	0.052
-122.210	93.190	-0.129	-0.183
