DTS Sentinel unit serial number:	SN409020Multiplexer serial number:	ORYXHardware model number:	OX4-SRSoftware version number:	ORYX F/W v3.00 Oryx Data Collector v3.7.2.0data status	okinstallation	HaddamTimeLapsedifferential loss correction	single-endedforward channel	channel 3reverse channel	N/Adate	2011/06/22time	05:26:16forward acquisition time	30.00reverse acquisition time	0.00gamma	498.7831k internal	0.1752k external	0.1752temperature offset calibration	1.0074default loss term (dB/km)	0.3790temperature slope calibration	1.3530multiplexer offset coefficient	1.0000multiplexer slope coefficient	1.0000fibre end	0.00T internal ref (°C)	22.62T ext. ref 1 (°C)	17.75T ext. ref 2 (°C)	0.16length (m)	temperature (°C)	Stokes	anti-Stokes-747.200	40.143	-0.161	-0.192
-746.185	-129.223	-0.129	0.024
-745.171	-81.858	0.372	0.161
-744.156	-200.000	-0.328	0.001
-743.142	-74.660	0.221	0.105
-742.127	634.629	0.082	0.276
-741.112	-200.000	0.003	-0.308
-740.098	-92.426	0.230	0.086
-739.083	28.823	-0.365	0.411
-738.069	521.736	0.029	0.092
-737.054	87.873	-0.162	-0.238
-736.039	-48.851	-0.338	0.214
-735.025	81.538	-0.117	-0.169
-734.010	31.113	0.425	-0.484
-732.996	-119.542	0.321	0.073
-731.981	305.828	-0.192	-0.475
-730.966	-170.883	-0.178	-0.008
-729.952	800.000	0.090	0.357
-728.937	-123.715	0.249	-0.052
-727.923	-200.000	-0.020	-0.149
-726.908	800.000	-0.055	-0.237
-725.894	-200.000	-0.012	0.096
-724.879	34.120	-0.164	-0.189
-723.864	800.000	0.054	-0.286
-722.850	38.044	-0.121	0.143
-721.835	-59.147	-0.120	-0.068
-720.821	68.222	-0.207	0.282
-719.806	8.975	0.320	0.320
-718.791	-155.894	0.750	-0.062
-717.777	-62.874	0.483	-0.264
-716.762	-36.484	-0.404	-0.288
-715.748	-70.343	0.337	0.169
-714.733	129.693	-0.084	-0.143
-713.718	81.353	-0.071	0.102
-712.704	-200.000	0.042	-0.496
-711.689	-200.000	-0.015	0.296
-710.675	25.805	0.148	0.164
-709.660	-78.015	-0.391	-0.178
-708.645	256.650	-0.140	-0.321
-707.631	66.810	-0.195	0.263
-706.616	-48.648	-0.038	0.024
-705.602	800.000	-0.091	-0.526
-704.587	211.625	0.146	-0.306
-703.572	-200.000	0.008	-0.339
-702.558	-64.025	-0.420	0.227
-701.543	-200.000	-0.054	0.470
-700.529	131.614	0.031	-0.053
-699.514	192.199	0.116	0.232
-698.499	20.717	0.207	-0.223
-697.485	-82.765	0.069	0.030
-696.470	140.182	0.281	0.492
-695.456	800.000	-0.046	-0.213
-694.441	-119.149	-0.427	0.098
-693.426	163.229	-0.074	0.137
-692.412	385.427	0.081	0.223
-691.397	-13.652	0.353	0.302
-690.383	-200.000	-0.028	0.203
-689.368	-200.000	0.014	0.118
-688.354	800.000	0.101	0.387
-687.339	-125.043	0.199	0.040
-686.324	59.323	-0.483	0.630
-685.310	-98.035	0.473	0.160
-684.295	18.752	-0.327	0.347
-683.281	-200.000	0.072	-0.461
-682.266	-112.540	-0.316	0.083
-681.251	6.222	-0.072	-0.071
-680.237	-200.000	0.046	-0.614
-679.222	246.459	0.160	-0.359
-678.208	-79.594	-0.262	0.117
-677.193	-157.837	-0.489	-0.038
-676.178	169.289	0.066	-0.124
-675.164	-70.445	-0.460	-0.230
-674.149	-87.984	0.177	-0.070
-673.135	-81.274	-0.405	0.176
-672.120	-25.890	-0.242	-0.188
-671.105	-93.216	-0.209	0.076
-670.091	65.464	-0.214	0.286
-669.076	-85.944	0.353	-0.144
-668.062	321.929	0.074	-0.188
-667.047	-28.135	0.383	0.293
-666.032	32.686	0.023	0.026
-665.018	-106.714	-0.172	-0.050
-664.003	117.395	0.139	0.227
-662.989	-86.306	-0.393	0.159
-661.974	67.056	-0.219	-0.296
-660.959	-94.260	0.402	0.145
-659.945	-159.261	-0.102	-0.007
-658.930	-108.667	-0.116	-0.033
-657.916	-103.626	-0.357	-0.110
-656.901	54.279	0.540	-0.688
-655.886	-144.717	0.232	0.028
-654.872	45.465	-0.086	-0.105
-653.857	-177.249	-0.124	-0.004
-652.843	285.857	0.156	-0.375
-651.828	-40.145	-0.269	0.185
-650.814	-38.994	0.189	0.131
-649.799	449.584	-0.082	0.239
-648.784	-52.345	-0.172	0.105
-647.770	562.275	0.047	-0.151
-646.755	588.411	0.127	-0.415
-645.741	4.060	-0.156	-0.151
-644.726	539.515	-0.061	0.194
-643.711	40.615	0.181	-0.215
-642.697	676.237	-0.039	-0.134
-641.682	800.000	-0.055	-0.296
-640.668	-74.556	0.382	0.181
-639.653	299.799	0.092	0.225
-638.638	-171.315	0.128	-0.006
-637.624	-200.000	-0.035	-0.411
-636.609	-52.979	-0.323	0.196
-635.595	459.773	0.016	-0.048
-634.580	800.000	0.054	0.311
-633.565	800.000	0.074	-0.289
-632.551	38.087	-0.238	-0.280
-631.536	-156.584	-0.545	0.044
-630.522	759.089	-0.101	-0.364
-629.507	381.114	-0.116	0.317
-628.492	33.310	-0.425	0.487
-627.478	56.321	0.185	-0.238
-626.463	-138.959	0.233	0.033
-625.449	-200.000	-0.716	0.000
-624.434	-119.886	-0.268	0.060
-623.419	54.897	0.134	-0.171
-622.405	-200.000	0.003	0.045
-621.390	-113.333	0.067	-0.017
-620.376	-9.810	0.385	0.338
-619.361	-200.000	-0.036	0.345
-618.346	-85.788	-0.370	-0.151
-617.332	-200.000	0.013	-0.118
-616.317	-142.235	-0.138	0.018
-615.303	-104.563	-0.473	-0.143
-614.288	-128.464	-0.403	0.075
-613.273	-200.000	-0.070	0.409
-612.259	498.707	0.194	-0.592
-611.244	-127.906	-0.594	-0.112
-610.230	-73.095	-0.566	-0.273
-609.215	-82.913	0.585	-0.248
-608.201	-41.136	0.334	-0.227
-607.186	-200.000	0.019	-0.370
-606.171	-147.766	-0.237	0.026
-605.157	-55.730	0.385	0.227
-604.142	487.927	0.157	0.475
-603.128	314.089	-0.096	0.239
-602.113	111.666	0.247	0.394
-601.098	19.309	-0.142	-0.150
-600.084	-44.163	0.415	-0.274
-599.069	-88.967	-0.310	-0.121
-598.055	-96.998	-0.126	0.043
-597.040	450.959	-0.088	-0.256
-596.025	-24.058	0.331	0.261
-595.011	-7.258	-0.407	-0.364
-593.996	-97.763	-0.151	0.051
-592.982	242.168	-0.092	0.204
-591.967	-80.902	-0.278	0.121
-590.952	105.751	0.261	-0.409
-589.938	-71.177	-0.295	-0.145
-588.923	55.344	0.174	0.222
-587.909	-23.895	-0.224	0.176
-586.894	236.355	-0.087	-0.191
-585.879	-132.869	-0.512	-0.085
-584.865	-89.816	0.302	-0.116
-583.850	-200.000	0.014	-0.733
-582.836	-157.794	0.391	-0.030
-581.821	468.630	-0.118	0.352
-580.806	245.603	0.015	0.034
-579.792	-200.000	0.044	0.535
-578.777	-97.266	0.336	0.115
-577.763	216.560	0.117	0.247
-576.748	-200.000	-0.014	0.082
-575.733	40.151	0.305	-0.361
-574.719	-159.131	0.399	0.029
-573.704	55.212	0.246	-0.313
-572.690	183.738	-0.233	-0.455
-571.675	74.839	0.312	-0.434
-570.661	-67.932	-0.187	0.096
-569.646	100.437	-0.084	0.129
-568.631	-0.646	-0.121	-0.114
-567.617	-126.206	0.195	0.038
-566.602	110.711	-0.189	0.300
-565.588	13.968	0.084	0.086
-564.573	71.877	0.055	0.076
-563.558	40.264	-0.098	-0.116
-562.544	-140.048	-0.567	-0.078
-561.529	-84.834	0.360	0.148
-560.515	-200.000	0.035	0.209
-559.500	141.647	-0.207	-0.363
-558.485	-89.459	-0.525	0.202
-557.471	-110.750	-0.300	0.081
-556.456	-81.350	-0.146	-0.063
-555.442	4.992	-0.110	0.107
-554.427	-141.733	0.189	-0.025
-553.412	-85.246	0.135	-0.055
-552.398	-120.330	-0.253	-0.056
-551.383	544.229	-0.113	0.357
-550.369	536.455	-0.075	-0.234
-549.354	-60.398	0.577	-0.322
-548.339	-154.842	-0.299	-0.026
-547.325	-16.865	0.180	0.150
-546.310	-56.876	-0.648	-0.376
-545.296	-166.611	0.207	-0.011
-544.281	285.474	0.145	0.346
-543.266	-200.000	-0.020	-0.299
-542.252	7.867	-0.252	-0.248
-541.237	-111.929	-0.208	0.055
-540.223	-200.000	-0.020	0.316
-539.208	204.926	0.032	0.065
-538.193	-140.808	0.418	0.056
-537.179	-67.978	0.225	-0.115
-536.164	50.050	-0.202	0.252
-535.150	10.490	0.180	0.181
-534.135	264.547	-0.211	-0.485
-533.121	-91.291	-0.302	-0.113
-532.106	-200.000	-0.032	-0.370
-531.091	361.084	0.181	-0.480
-530.077	-181.341	0.232	0.006
-529.062	-177.514	-0.114	-0.004
-528.048	-111.792	0.551	0.146
-527.033	50.476	-0.115	0.143
-526.018	-137.625	-0.026	0.004
-525.004	-105.916	0.233	-0.069
-523.989	800.000	0.044	0.165
-522.975	-93.357	-0.361	-0.131
-521.960	82.545	0.167	-0.239
-520.945	9.192	0.168	0.167
-519.931	35.613	0.103	-0.119
-518.916	-106.962	-0.461	0.133
-517.902	-200.000	0.037	-0.380
-516.887	-23.259	-0.541	0.427
-515.872	-200.000	-0.013	0.166
-514.858	-19.329	-0.137	0.111
-513.843	-93.969	-0.175	0.063
-512.829	-61.737	0.170	0.094
-511.814	-135.064	-0.352	-0.055
-510.799	9.729	-0.088	0.087
-509.785	41.121	-0.447	0.532
-508.770	104.299	-0.288	-0.446
-507.756	-57.452	-0.162	-0.093
-506.741	-53.229	0.249	0.150
-505.726	-61.756	-0.443	0.243
-504.712	-200.000	-0.024	0.359
-503.697	800.000	-0.087	0.468
-502.683	-200.000	0.021	0.175
-501.668	-106.881	-0.422	-0.122
-500.653	291.704	-0.107	-0.256
-499.639	-51.694	0.535	0.327
-498.624	800.000	0.051	0.292
-497.610	441.194	-0.048	0.139
-496.595	708.042	-0.102	0.357
-495.581	800.000	0.020	0.113
-494.566	-147.020	0.279	-0.031
-493.551	410.508	0.110	-0.309
-492.537	-200.000	-0.067	-0.520
-491.522	-111.068	0.514	-0.138
-490.508	-8.823	0.307	-0.271
-489.493	-121.641	-0.498	-0.108
-488.478	63.076	0.118	-0.155
-487.464	216.218	0.139	0.291
-486.449	324.177	-0.084	0.212
-485.435	-54.475	-0.416	0.247
-484.420	136.879	0.339	0.584
-483.405	-111.365	0.332	0.088
-482.391	-142.672	-0.048	-0.006
-481.376	-8.399	0.087	-0.077
-480.362	-137.632	-0.265	-0.039
-479.347	38.848	0.370	-0.434
-478.332	-72.582	-0.440	-0.213
-477.318	10.704	0.127	0.127
-476.303	-164.686	0.251	0.015
-475.289	-192.610	0.442	0.005
-474.274	-77.487	0.798	0.362
-473.259	-39.526	0.179	0.123
-472.245	-115.077	0.343	0.085
-471.230	17.798	-0.092	0.096
-470.216	-18.560	0.212	0.174
-469.201	-200.000	0.042	-0.306
-468.186	689.273	-0.194	-0.671
-467.172	-36.769	-0.561	0.394
-466.157	-69.107	0.027	0.014
-465.143	-78.703	-0.376	0.168
-464.128	-131.288	-0.232	-0.040
-463.113	-183.336	0.174	0.004
-462.099	-88.812	0.071	0.028
-461.084	46.745	-0.063	-0.076
-460.070	10.560	-0.019	-0.019
-459.055	-36.029	0.380	-0.269
-458.040	127.076	0.154	-0.258
-457.026	-84.042	-0.030	-0.013
-456.011	-99.145	-0.275	0.091
-454.997	-177.331	0.529	-0.017
-453.982	-113.811	0.525	-0.133
-452.968	-116.909	-0.064	0.015
-451.953	797.533	-0.076	-0.276
-450.938	-32.490	0.250	0.182
-449.924	18.921	-0.224	-0.236
-448.909	-14.956	0.309	0.260
-447.895	189.815	-0.205	0.404
-446.880	800.000	0.082	0.392
-445.865	-92.545	-0.306	-0.112
-444.851	-84.602	0.298	-0.123
-443.836	313.721	-0.094	-0.233
-442.822	-200.000	0.012	0.305
-441.807	191.926	0.130	-0.258
-440.792	-148.310	-0.136	-0.015
-439.778	-126.373	0.236	0.046
-438.763	64.800	-0.052	0.069
-437.749	29.657	-0.259	-0.289
-436.734	-53.889	-0.504	-0.300
-435.719	-44.850	0.114	-0.074
-434.705	135.644	0.299	-0.512
-433.690	-21.845	0.310	0.247
-432.676	800.000	-0.081	-0.413
-431.661	-200.000	-0.008	0.411
-430.646	800.000	0.143	0.555
-429.632	-74.342	-0.507	0.239
-428.617	-11.641	0.245	-0.211
-427.603	-63.549	-0.286	-0.153
-426.588	-136.375	0.136	-0.021
-425.573	32.300	0.172	0.195
-424.559	-87.097	0.420	-0.167
-423.544	-119.269	0.305	0.069
-422.530	-143.061	0.087	0.011
-421.515	-35.633	-0.164	0.116
-420.500	-99.008	0.110	-0.036
-419.486	51.606	-0.223	-0.278
-418.471	90.391	0.122	-0.180
-417.457	-72.220	-0.247	-0.120
-416.442	129.346	0.087	-0.146
-415.428	-200.000	-0.023	0.284
-414.413	365.548	-0.102	0.270
-413.398	-163.916	-0.517	0.031
-412.384	216.796	0.200	-0.418
-411.369	74.432	0.175	0.241
-410.355	338.434	0.241	-0.617
-409.340	-179.583	0.445	-0.012
-408.325	-140.540	0.173	-0.023
-407.311	-67.356	-0.029	0.015
-406.296	-200.000	-0.007	-0.172
-405.282	-191.254	-0.274	-0.004
-404.267	114.544	-0.064	0.102
-403.252	-119.178	-0.546	-0.124
-402.238	43.345	0.262	0.314
-401.223	108.894	0.247	-0.388
-400.209	-200.000	-0.049	-0.284
-399.194	-74.317	0.230	0.109
-398.179	-22.680	0.190	0.150
-397.165	-72.814	0.704	0.338
-396.150	495.253	0.166	0.503
-395.136	33.537	0.216	0.246
-394.121	28.344	0.152	0.168
-393.106	800.000	0.115	0.602
-392.092	800.000	-0.014	-0.074
-391.077	-46.888	0.102	0.065
-390.063	-174.115	0.246	-0.009
-389.048	-80.865	-0.126	-0.054
-388.033	98.628	0.242	-0.365
-387.019	-137.602	-0.074	-0.011
-386.004	87.799	-0.131	0.190
-384.990	-88.802	0.210	-0.081
-383.975	-113.301	-0.235	0.060
-382.960	-40.960	-0.385	0.260
-381.946	17.126	-0.422	0.437
-380.931	125.350	0.129	0.214
-379.917	-81.508	0.464	-0.199
-378.902	-89.181	0.347	0.133
-377.888	-135.101	0.674	-0.105
-376.873	17.712	-0.486	-0.506
-375.858	-91.249	-0.355	-0.132
-374.844	-8.196	0.413	-0.364
-373.829	588.679	-0.043	-0.140
-372.815	-147.767	-0.305	-0.033
-371.800	-111.025	-0.381	-0.101
-370.785	-4.627	0.076	0.069
-369.771	39.374	-0.392	0.459
-368.756	-66.784	-0.203	0.105
-367.742	-142.664	-0.239	-0.030
-366.727	-70.331	-0.263	-0.130
-365.712	-167.429	-0.335	-0.017
-364.698	-142.400	0.367	-0.047
-363.683	-50.299	-0.100	-0.062
-362.669	-43.523	-0.408	-0.269
-361.654	180.029	-0.134	-0.258
-360.639	-162.225	0.526	-0.034
-359.625	800.000	0.079	-0.365
-358.610	-133.884	0.482	0.078
-357.596	-8.119	0.223	-0.196
-356.581	-140.250	0.267	-0.036
-355.566	372.103	0.166	0.442
-354.552	-161.735	-0.122	-0.008
-353.537	800.000	-0.079	0.410
-352.523	-18.199	0.237	-0.193
-351.508	-142.561	0.141	-0.018
-350.493	-193.090	0.437	0.005
-349.479	-129.978	-0.187	0.033
-348.464	4.841	0.148	-0.142
-347.450	145.328	-0.083	0.146
-346.435	-200.000	-0.033	0.527
-345.420	800.000	0.018	-0.096
-344.406	-200.000	-0.008	0.237
-343.391	-200.000	0.030	0.494
-342.377	800.000	-0.018	-0.103
-341.362	10.207	0.131	-0.130
-340.348	-200.000	0.248	-0.000
-339.333	-128.483	0.406	-0.075
-338.318	167.332	-0.218	-0.405
-337.304	-105.054	0.121	-0.036
-336.289	800.000	-0.053	0.256
-335.275	-47.208	0.378	0.240
-334.260	3.202	-0.216	-0.206
-333.245	-157.416	-0.478	-0.037
-332.231	105.973	-0.089	-0.138
-331.216	-63.219	-0.119	-0.064
-330.202	-200.000	-0.049	0.435
-329.187	-200.000	-0.004	-0.310
-328.172	368.435	-0.095	0.252
-327.158	800.000	0.048	0.248
-326.143	800.000	-0.024	-0.113
-325.129	-200.000	-0.076	-0.491
-324.114	-45.236	0.226	-0.146
-323.099	-61.646	-0.540	-0.295
-322.085	-119.395	0.211	0.047
-321.070	800.000	-0.038	-0.167
-320.056	-76.964	-0.223	0.101
-319.041	-25.904	0.318	-0.244
-318.026	-181.925	-0.204	0.005
-317.012	-57.591	-0.374	0.213
-315.997	800.000	-0.009	0.040
-314.983	-50.922	-0.087	0.053
-313.968	-164.914	0.197	-0.011
-312.953	40.833	0.241	-0.284
-311.939	75.765	0.222	-0.306
-310.924	462.932	-0.074	-0.215
-309.910	-161.635	0.285	-0.019
-308.895	-73.549	0.256	0.121
-307.880	-87.846	0.290	0.114
-306.866	122.093	-0.009	0.014
-305.851	-166.746	0.373	0.020
-304.837	-125.442	-0.093	0.018
-303.822	-37.791	-0.404	-0.280
-302.807	-200.000	0.024	-0.260
-301.793	-8.342	-0.231	0.202
-300.778	29.498	-0.206	0.229
-299.764	-200.000	0.001	-0.017
-298.749	-53.672	0.171	-0.102
-297.735	-134.997	0.429	0.067
-296.720	121.636	0.251	0.410
-295.705	-109.808	-0.269	0.073
-294.691	672.201	0.152	0.516
-293.676	-77.959	-0.101	-0.045
-292.662	-141.548	0.432	0.056
-291.647	-32.493	-0.071	-0.051
-290.632	50.197	0.442	-0.545
-289.618	-80.316	0.460	-0.200
-288.603	-83.664	0.348	0.144
-287.589	-74.525	0.296	-0.138
-286.574	99.304	-0.125	-0.189
-285.559	-145.359	-0.500	-0.058
-284.545	800.000	0.099	0.373
-283.530	-16.316	-0.151	-0.125
-282.516	-149.403	-0.228	0.023
-281.501	82.717	0.255	0.362
-280.486	333.312	-0.172	0.436
-279.472	8.400	0.044	-0.043
-278.457	-146.249	-0.165	-0.019
-277.443	-200.000	-0.012	0.185
-276.428	-200.000	0.031	0.221
-275.413	-137.228	-0.479	0.070
-274.399	-109.926	-0.366	0.099
-273.384	151.449	-0.101	-0.179
-272.370	-92.200	0.380	0.139
-271.355	184.177	-0.212	0.410
-270.340	-25.213	-0.056	0.043
-269.326	800.000	0.102	0.370
-268.311	-98.591	0.060	-0.020
-267.297	365.349	0.012	-0.031
-266.282	-139.883	0.357	0.049
-265.267	-109.767	-0.173	0.047
-264.253	800.000	0.037	-0.148
-263.238	800.000	-0.112	-0.587
-262.224	-155.730	-0.779	-0.064
-261.209	-87.802	-0.229	-0.089
-260.195	-8.701	0.295	-0.258
-259.180	24.888	-0.063	0.068
-258.165	-143.809	0.283	-0.034
-257.151	-8.807	-0.196	-0.171
-256.136	782.114	-0.114	-0.410
-255.122	-99.080	0.328	0.107
-254.107	-200.000	0.012	0.435
-253.092	-49.314	-0.135	0.084
-252.078	305.527	0.104	-0.254
-251.063	76.777	-0.162	-0.224
-250.049	-200.000	-0.034	-0.548
-249.034	-200.000	-0.004	-0.256
-248.019	-91.402	-0.229	-0.085
-247.005	800.000	0.046	0.177
-245.990	-39.406	-0.282	0.192
-244.976	800.000	-0.077	0.325
-243.961	-43.531	-0.283	0.185
-242.946	-45.457	0.049	0.032
-241.932	-40.194	-0.205	0.138
-240.917	-139.298	-0.077	-0.011
-239.903	29.502	-0.309	-0.342
-238.888	-200.000	-0.012	-0.514
-237.873	-93.347	-0.297	0.107
-236.859	-111.454	0.201	-0.053
-235.844	-20.523	-0.079	-0.063
-234.830	-118.330	-0.456	0.105
-233.815	-66.350	0.503	0.260
-232.800	-68.132	-0.404	-0.204
-231.786	-81.697	-0.595	0.253
-230.771	-200.000	0.021	0.435
-229.757	250.614	0.077	0.172
-228.742	-52.344	-0.323	-0.194
-227.727	-200.000	-0.004	0.080
-226.713	-46.707	0.118	-0.075
-225.698	301.837	-0.200	0.484
-224.684	-200.000	-0.043	0.263
-223.669	50.799	-0.106	-0.130
-222.655	97.795	-0.136	-0.204
-221.640	109.264	0.222	0.346
-220.625	262.339	0.237	0.536
-219.611	-200.000	-0.035	0.318
-218.596	800.000	-0.029	0.154
-217.582	95.944	0.169	0.252
-216.567	355.016	0.159	0.413
-215.552	441.150	0.025	0.072
-214.538	90.845	-0.127	-0.185
-213.523	-198.138	0.225	-0.002
-212.509	-40.964	-0.393	0.264
-211.494	800.000	-0.060	-0.231
-210.479	-118.804	0.351	0.080
-209.465	-119.643	-0.156	0.035
-208.450	-156.928	-0.179	0.014
-207.436	-200.000	0.012	-0.251
-206.421	-154.508	0.074	-0.006
-205.406	-53.948	0.398	0.235
-204.392	-200.000	-0.010	-0.443
-203.377	-59.261	0.277	0.154
-202.363	-200.000	0.013	0.180
-201.348	-164.830	0.418	0.024
-200.333	680.394	0.109	-0.372
-199.319	174.637	-0.161	-0.304
-198.304	-94.074	0.185	-0.066
-197.290	800.000	-0.028	0.111
-196.275	-132.451	-0.310	-0.051
-195.260	-65.331	-0.311	0.162
-194.246	76.589	0.128	-0.176
-193.231	-119.645	0.361	0.080
-192.217	16.387	0.153	-0.157
-191.202	-126.918	0.310	-0.059
-190.187	120.472	0.109	-0.176
-189.173	-104.532	-0.614	0.183
-188.158	-0.579	0.277	0.255
-187.144	-140.036	-0.720	0.097
-186.129	-164.606	-0.188	0.011
-185.114	-12.886	0.388	-0.328
-184.100	-95.137	0.217	0.075
-183.085	-96.519	-0.425	0.145
-182.071	-8.283	0.607	0.530
-181.056	159.799	0.107	0.194
-180.042	-10.563	-0.149	0.128
-179.027	-4.127	0.323	0.290
-178.012	63.035	0.177	0.230
-176.998	-181.232	0.410	0.010
-175.983	-174.647	-0.164	0.006
-174.969	-120.223	0.664	-0.146
-173.954	-142.882	0.393	0.049
-172.939	-62.188	-0.461	-0.249
-171.925	-113.856	0.392	-0.098
-170.910	-200.000	0.030	0.533
-169.896	-69.199	0.443	0.220
-168.881	35.321	0.053	-0.060
-167.866	-57.534	-0.245	-0.139
-166.852	23.547	0.127	0.136
-165.837	-89.022	-0.442	-0.169
-164.823	26.879	0.042	0.046
-163.808	-55.519	-0.239	-0.139
-162.793	-122.806	0.237	-0.049
-161.779	800.000	-0.025	-0.100
-160.764	118.553	0.092	-0.148
-159.750	-200.000	0.014	-0.148
-158.735	-175.274	0.436	0.015
-157.720	-133.806	-0.179	-0.029
-156.706	-101.347	-0.612	-0.192
-155.691	-64.419	-0.498	-0.262
-154.677	-81.990	0.059	0.025
-153.662	355.160	0.186	-0.481
-152.647	-31.179	-0.461	-0.336
-151.633	800.000	-0.126	-0.480
-150.618	339.898	-0.100	-0.253
-149.604	14.519	-0.206	0.209
-148.589	45.852	0.312	-0.375
-147.574	-158.297	0.278	-0.021
-146.560	800.000	0.156	-0.585
-145.545	38.270	0.162	0.187
-144.531	-27.269	0.486	0.366
-143.516	-200.000	0.068	0.431
-142.502	-133.690	0.191	-0.031
-141.487	-175.245	0.137	0.005
-140.472	169.790	-0.105	0.195
-139.458	-200.000	-0.009	-0.168
-138.443	-48.109	0.308	0.193
-137.429	676.973	0.072	0.243
-136.414	104.381	-0.341	0.521
-135.399	29.713	0.162	0.179
-134.385	-190.211	0.249	-0.003
-133.370	-155.962	-0.330	-0.027
-132.356	180.630	0.393	-0.751
-131.341	-85.115	0.221	0.089
-130.326	-117.581	-0.297	0.069
-129.312	-9.121	0.238	-0.206
-128.297	-112.296	0.202	-0.052
-127.283	469.835	0.030	0.089
-126.268	-0.501	0.385	0.354
-125.253	257.993	-0.090	-0.202
-124.239	365.174	-0.236	0.618
-123.224	-81.189	0.178	0.076
-122.210	-88.306	0.109	-0.042
