DTS Sentinel unit serial number:	SN409020Multiplexer serial number:	ORYXHardware model number:	OX4-SRSoftware version number:	ORYX F/W v3.00 Oryx Data Collector v3.7.2.0data status	okinstallation	HaddamTimeLapsedifferential loss correction	single-endedforward channel	channel 3reverse channel	N/Adate	2011/06/22time	07:26:17forward acquisition time	30.00reverse acquisition time	0.00gamma	498.7831k internal	0.1756k external	0.1756temperature offset calibration	1.0074default loss term (dB/km)	0.3790temperature slope calibration	1.3530multiplexer offset coefficient	1.0000multiplexer slope coefficient	1.0000fibre end	0.00T internal ref (°C)	23.31T ext. ref 1 (°C)	20.56T ext. ref 2 (°C)	0.12length (m)	temperature (°C)	Stokes	anti-Stokes-747.200	800.000	0.044	0.247
-746.185	46.908	0.245	0.302
-745.171	-124.679	0.747	-0.152
-744.156	-55.564	-0.181	0.107
-743.142	-100.465	-0.273	0.089
-742.127	-33.772	0.229	0.167
-741.112	-142.682	-0.248	-0.032
-740.098	-22.966	-0.425	0.338
-739.083	251.122	-0.099	-0.225
-738.069	-200.000	0.088	0.579
-737.054	-200.000	0.024	-0.324
-736.039	275.874	-0.094	0.221
-735.025	-75.538	0.289	0.136
-734.010	129.248	0.194	-0.328
-732.996	-200.000	-0.018	-0.194
-731.981	-148.948	-0.638	0.067
-730.966	-93.710	0.679	0.247
-729.952	-62.816	0.325	-0.177
-728.937	-61.681	-0.407	-0.225
-727.923	38.717	0.283	0.334
-726.908	-74.842	-0.299	-0.141
-725.894	-148.587	-0.293	0.031
-724.879	-157.015	0.167	-0.013
-723.864	800.000	0.087	-0.365
-722.850	85.166	0.305	-0.443
-721.835	-76.968	-0.321	-0.148
-720.821	98.750	0.069	0.105
-719.806	106.481	0.258	0.405
-718.791	-24.643	-0.208	0.163
-717.777	2.910	-0.092	-0.088
-716.762	55.722	-0.095	0.122
-715.748	-33.836	-0.222	0.161
-714.733	-170.102	-0.232	-0.011
-713.718	20.741	0.242	0.259
-712.704	-112.447	-0.388	0.102
-711.689	-200.000	-0.039	-0.479
-710.675	-86.876	0.310	0.125
-709.660	-200.000	-0.003	-0.148
-708.645	-152.776	0.234	0.022
-707.631	-32.209	0.251	-0.185
-706.616	417.525	0.073	-0.207
-705.602	-14.867	-0.344	-0.292
-704.587	-54.102	-0.446	-0.268
-703.572	25.797	-0.289	-0.319
-702.558	-67.628	-0.141	0.073
-701.543	-6.713	-0.220	-0.198
-700.529	217.363	0.133	-0.282
-699.514	64.087	-0.288	-0.383
-698.499	800.000	0.131	-0.516
-697.485	-72.937	0.530	-0.256
-696.470	174.947	0.202	-0.388
-695.456	51.310	0.097	0.122
-694.441	6.694	-0.235	0.231
-693.426	-169.960	-0.420	0.020
-692.412	37.272	-0.278	0.326
-691.397	70.466	-0.112	-0.153
-690.383	3.191	-0.308	-0.296
-689.368	-14.825	0.526	-0.446
-688.354	-135.214	-0.631	-0.099
-687.339	-200.000	0.014	0.263
-686.324	-53.548	0.190	0.114
-685.310	-57.686	-0.170	0.098
-684.295	-40.436	-0.313	-0.214
-683.281	-185.505	-0.321	-0.006
-682.266	667.948	0.209	-0.717
-681.251	638.757	0.122	-0.411
-680.237	-166.921	-0.127	0.007
-679.222	96.170	0.041	0.061
-678.208	1.631	-0.072	-0.068
-677.193	304.518	0.031	-0.076
-676.178	-25.604	-0.245	0.191
-675.164	206.128	-0.104	-0.215
-674.149	800.000	-0.023	-0.123
-673.135	162.406	0.067	-0.124
-672.120	-89.870	-0.031	0.012
-671.105	57.083	0.345	-0.444
-670.091	-45.422	0.212	0.139
-669.076	171.504	-0.106	0.202
-668.062	-72.265	0.300	0.146
-667.047	-159.867	0.481	0.034
-666.032	81.147	0.132	-0.188
-665.018	-56.114	0.381	0.224
-664.003	-120.574	-0.352	0.078
-662.989	-8.656	0.289	0.256
-661.974	267.057	0.097	-0.225
-660.959	23.337	0.191	-0.207
-659.945	-132.107	-0.115	0.020
-658.930	721.566	0.060	-0.211
-657.916	-107.982	-0.520	-0.148
-656.901	-150.142	0.450	0.046
-655.886	63.536	-0.265	-0.351
-654.872	191.290	0.114	0.227
-653.857	-150.636	-0.207	0.021
-652.843	-106.043	-0.520	0.153
-651.828	800.000	-0.077	0.348
-650.814	-140.692	-0.199	-0.027
-649.799	185.017	0.354	-0.695
-648.784	-200.000	0.038	0.451
-647.770	-85.251	0.352	0.144
-646.755	-155.951	-0.826	-0.068
-645.741	-188.585	0.093	0.001
-644.726	-200.000	-0.086	0.502
-643.711	-86.868	0.144	-0.058
-642.697	37.916	0.157	-0.185
-641.682	35.448	-0.037	0.043
-640.668	257.198	0.246	0.561
-639.653	-170.523	0.171	0.008
-638.638	3.728	-0.179	-0.173
-637.624	-42.321	0.222	0.149
-636.609	579.951	-0.075	0.244
-635.595	-106.037	-0.303	-0.089
-634.580	-119.411	0.301	-0.068
-633.565	65.105	-0.208	-0.278
-632.551	17.980	-0.429	0.451
-631.536	157.639	-0.083	-0.152
-630.522	800.000	-0.085	-0.364
-629.507	-93.344	0.081	-0.029
-628.492	123.801	0.153	-0.254
-627.478	-68.762	-0.177	-0.090
-626.463	-200.000	0.039	0.402
-625.449	39.230	-0.129	0.153
-624.434	-129.250	0.314	0.057
-623.419	486.299	-0.099	-0.299
-622.405	-10.641	-0.176	-0.153
-621.390	-43.429	0.203	-0.135
-620.376	-153.323	-0.290	-0.026
-619.361	241.077	0.184	-0.406
-618.346	429.685	0.026	-0.074
-617.332	28.128	0.112	0.125
-616.317	32.677	-0.382	-0.436
-615.303	-0.320	-0.114	0.107
-614.288	472.440	-0.132	0.393
-613.273	-68.736	0.236	-0.120
-612.259	-200.000	-0.026	0.567
-611.244	65.137	-0.127	0.169
-610.230	-91.553	-0.299	-0.112
-609.215	-112.336	0.269	-0.070
-608.201	334.238	-0.191	0.488
-607.186	-79.849	0.375	0.165
-606.171	-151.204	0.353	0.034
-605.157	-64.797	-0.180	-0.096
-604.142	-10.452	-0.059	-0.052
-603.128	-91.104	-0.722	-0.271
-602.113	-9.871	0.388	-0.340
-601.098	-66.113	0.233	0.122
-600.084	26.136	-0.286	0.315
-599.069	184.706	0.172	-0.337
-598.055	-58.672	0.103	-0.058
-597.040	-8.210	-0.115	-0.101
-596.025	800.000	-0.061	-0.304
-595.011	33.524	-0.013	0.015
-593.996	-113.057	-0.439	-0.113
-592.982	-136.459	-0.664	0.100
-591.967	554.548	0.186	-0.592
-590.952	202.641	-0.125	-0.255
-589.938	138.818	0.100	-0.174
-588.923	11.154	-0.215	0.216
-587.909	-200.000	-0.047	0.328
-586.894	800.000	0.112	0.438
-585.879	-116.704	-0.032	-0.008
-584.865	-27.380	-0.208	0.159
-583.850	-101.078	-0.261	0.084
-582.836	-174.706	0.121	0.004
-581.821	287.200	0.013	0.030
-580.806	-143.037	0.164	-0.021
-579.792	-42.902	0.307	-0.204
-578.777	-158.433	-0.537	0.040
-577.763	22.441	-0.432	0.465
-576.748	-39.616	0.194	-0.134
-575.733	-109.838	0.309	0.085
-574.719	509.089	-0.071	-0.217
-573.704	14.968	-0.294	-0.303
-572.690	-56.899	0.150	-0.087
-571.675	4.559	-0.118	0.114
-570.661	29.478	-0.044	0.049
-569.646	2.518	-0.292	0.278
-568.631	-42.393	-0.222	-0.149
-567.617	226.352	-0.094	-0.202
-566.602	-200.000	-0.027	0.490
-565.588	-103.271	-0.307	0.095
-564.573	-123.871	-0.176	-0.036
-563.558	207.726	-0.039	0.080
-562.544	678.327	0.119	0.411
-561.529	-30.134	-0.169	-0.126
-560.515	-186.686	-0.372	0.007
-559.500	24.536	-0.315	-0.342
-558.485	-137.700	0.390	-0.057
-557.471	-135.597	-0.258	-0.040
-556.456	-100.241	-0.319	-0.104
-555.442	-157.534	-0.071	-0.006
-554.427	2.801	0.037	-0.035
-553.412	-52.975	-0.483	0.291
-552.398	-200.000	-0.015	-0.130
-551.383	-136.295	0.488	0.074
-550.369	-118.104	-0.391	0.091
-549.354	-48.610	-0.302	0.190
-548.339	-179.952	0.174	-0.005
-547.325	-94.614	-0.457	0.162
-546.310	22.872	0.418	0.450
-545.296	-200.000	0.018	0.582
-544.281	9.732	0.503	-0.501
-543.266	296.652	-0.211	0.512
-542.252	800.000	-0.124	-0.558
-541.237	-25.815	-0.187	-0.144
-540.223	31.913	-0.323	-0.365
-539.208	-67.351	0.170	-0.087
-538.193	-165.796	0.133	0.007
-537.179	-200.000	-0.018	0.158
-536.164	-122.364	-0.221	-0.047
-535.150	-200.000	0.023	-0.330
-534.135	14.860	0.384	0.394
-533.121	-186.200	0.286	-0.005
-532.106	307.117	0.157	-0.386
-531.091	-96.565	-0.521	0.179
-530.077	0.235	-0.260	0.243
-529.062	-111.292	0.383	0.102
-528.048	314.854	0.155	-0.384
-527.033	486.279	0.067	0.200
-526.018	386.884	-0.152	0.415
-525.004	182.402	0.161	0.312
-523.989	800.000	-0.112	0.549
-522.975	-45.599	0.101	-0.065
-521.960	-94.982	-0.236	0.083
-520.945	135.776	0.095	0.163
-519.931	-88.663	0.152	0.059
-518.916	-81.164	-0.269	0.116
-517.902	370.748	0.064	-0.172
-516.887	800.000	0.074	-0.290
-515.872	-42.173	-0.243	0.163
-514.858	-200.000	-0.018	-0.203
-513.843	800.000	0.136	0.571
-512.829	71.252	0.307	0.418
-511.814	73.767	0.325	0.448
-510.799	-60.383	0.302	0.168
-509.785	800.000	-0.020	0.076
-508.770	482.008	-0.067	0.201
-507.756	800.000	-0.027	0.131
-506.741	-17.616	0.542	0.446
-505.726	-200.000	-0.011	-0.424
-504.712	107.398	0.208	-0.325
-503.697	-41.764	0.435	-0.292
-502.683	88.764	0.202	-0.295
-501.668	-83.370	-0.288	0.121
-500.653	534.108	-0.104	0.326
-499.639	-47.953	0.378	0.239
-498.624	75.816	0.116	0.160
-497.610	-50.247	-0.031	-0.019
-496.595	-200.000	0.026	0.287
-495.581	2.167	0.107	0.101
-494.566	38.667	-0.062	0.072
-493.551	100.064	-0.288	-0.438
-492.537	-74.645	0.159	-0.075
-491.522	-141.104	0.107	0.014
-490.508	126.676	0.147	0.244
-489.493	111.511	-0.212	-0.336
-488.478	-121.270	-0.430	0.093
-487.464	800.000	-0.049	-0.244
-486.449	-176.070	0.196	0.007
-485.435	-188.929	-0.414	0.006
-484.420	-200.000	-0.036	-0.265
-483.405	-158.492	0.531	-0.040
-482.391	292.200	-0.043	0.103
-481.376	-124.532	-0.238	0.048
-480.362	-144.408	0.424	-0.051
-479.347	-200.000	0.009	0.168
-478.332	-192.023	-0.313	0.004
-477.318	-65.255	-0.282	0.148
-476.303	-193.012	-0.193	-0.002
-475.289	184.827	0.265	-0.516
-474.274	800.000	-0.088	0.416
-473.259	-88.464	0.381	-0.148
-472.245	58.045	-0.113	-0.145
-471.230	800.000	-0.025	0.126
-470.216	-105.408	-0.184	-0.055
-469.201	71.466	-0.150	0.204
-468.186	164.305	-0.244	-0.452
-467.172	-64.156	-0.269	0.143
-466.157	391.345	0.012	0.033
-465.143	-92.455	-0.439	-0.161
-464.128	-14.217	-0.287	0.242
-463.113	-200.000	0.032	0.351
-462.099	533.276	-0.080	-0.248
-461.084	157.613	0.284	-0.516
-460.070	-117.321	-0.112	-0.026
-459.055	207.166	0.051	-0.104
-458.040	422.874	0.077	0.218
-457.026	-181.484	0.427	0.011
-456.011	145.156	0.059	0.103
-454.997	-148.501	0.092	0.010
-453.982	-141.307	0.166	-0.022
-452.968	800.000	0.089	0.345
-451.953	800.000	0.136	0.553
-450.938	800.000	-0.039	-0.175
-449.924	125.286	-0.119	0.197
-448.909	15.775	-0.092	-0.095
-447.895	-200.000	-0.016	0.392
-446.880	-200.000	0.023	0.364
-445.865	800.000	0.027	0.136
-444.851	-102.688	-0.235	-0.073
-443.836	-165.074	-0.600	0.034
-442.822	127.501	-0.313	-0.521
-441.807	-133.367	-0.443	-0.072
-440.792	121.363	-0.187	-0.306
-439.778	-71.505	0.061	0.030
-438.763	-2.508	-0.156	0.142
-437.749	-124.621	0.345	-0.069
-436.734	800.000	0.110	0.446
-435.719	77.559	-0.251	0.350
-434.705	-200.000	-0.009	-0.108
-433.690	-188.990	-0.219	-0.003
-432.676	49.766	-0.277	-0.342
-431.661	-89.117	0.338	0.130
-430.646	800.000	-0.073	0.311
-429.632	-52.882	-0.276	-0.166
-428.617	57.731	0.218	-0.279
-427.603	-200.000	0.061	-0.519
-426.588	-15.513	0.334	-0.279
-425.573	-128.837	-0.215	-0.039
-424.559	284.700	-0.155	0.366
-423.544	800.000	0.068	0.381
-422.530	172.446	-0.139	0.262
-421.515	-66.380	0.109	0.057
-420.500	152.061	0.161	0.288
-419.486	-55.337	-0.508	0.298
-418.471	422.822	-0.141	0.399
-417.457	-200.000	0.055	0.320
-416.442	281.743	0.046	0.109
-415.428	-86.680	-0.130	-0.052
-414.413	-179.515	-0.299	0.008
-413.398	-112.810	0.465	-0.120
-412.384	-160.058	-0.493	-0.035
-411.369	-162.735	-0.249	-0.016
-410.355	-107.026	0.355	-0.102
-409.340	142.480	0.065	-0.112
-408.325	455.615	0.073	-0.213
-407.311	-43.893	0.167	-0.110
-406.296	36.592	0.210	-0.242
-405.282	-89.894	-0.573	-0.217
-404.267	-84.898	0.072	0.029
-403.252	-36.471	0.123	-0.086
-402.238	30.245	-0.644	0.718
-401.223	-200.000	-0.057	0.357
-400.209	83.301	0.204	0.290
-399.194	-110.954	0.172	-0.046
-398.179	-200.000	0.042	-0.388
-397.165	-158.766	0.484	0.036
-396.150	323.739	-0.172	0.430
-395.136	-99.166	0.253	0.083
-394.121	-154.883	-0.397	0.034
-393.106	-52.667	-0.164	0.099
-392.092	-94.765	-0.246	-0.087
-391.077	772.559	-0.048	-0.170
-390.063	-200.000	0.014	0.260
-389.048	325.430	0.091	-0.227
-388.033	-200.000	-0.020	-0.517
-387.019	-57.959	0.437	-0.248
-386.004	-44.465	0.202	0.131
-384.990	-200.000	-0.022	0.190
-383.975	-17.553	0.156	0.128
-382.960	5.331	-0.277	-0.267
-381.946	-200.000	0.402	-0.002
-380.931	-148.236	-0.303	-0.032
-379.917	200.608	0.147	-0.296
-378.902	-200.000	0.001	-0.125
-377.888	-130.172	-0.360	0.063
-376.873	-78.609	0.571	0.254
-375.858	-126.191	-0.217	0.042
-374.844	-129.220	0.355	-0.064
-373.829	178.269	0.251	0.480
-372.815	-41.319	0.243	-0.163
-371.800	800.000	-0.111	0.567
-370.785	-104.741	-0.294	0.088
-369.771	-155.584	-0.415	-0.034
-368.756	-160.034	-0.421	-0.030
-367.742	-0.460	0.137	0.127
-366.727	680.913	0.082	-0.282
-365.712	-75.850	0.445	0.205
-364.698	-200.000	-0.066	-0.858
-363.683	-130.928	0.653	0.113
-362.669	19.859	-0.141	-0.148
-361.654	92.709	0.163	0.240
-360.639	-25.025	-0.222	0.172
-359.625	-180.522	0.368	0.010
-358.610	-184.307	0.458	-0.010
-357.596	-143.753	-0.595	-0.073
-356.581	-65.584	0.241	-0.126
-355.566	-39.726	0.356	-0.242
-354.552	123.863	0.144	-0.236
-353.537	117.031	0.286	-0.459
-352.523	-200.000	0.008	-0.082
-351.508	-194.244	-0.048	0.000
-350.493	-200.000	0.004	0.223
-349.479	-101.887	0.517	0.162
-348.464	269.509	0.061	0.139
-347.450	79.940	-0.476	0.669
-346.435	-200.000	0.009	0.155
-345.420	101.116	0.056	-0.085
-344.406	502.597	-0.215	-0.651
-343.391	-200.000	0.031	0.213
-342.377	-39.295	0.362	-0.247
-341.362	-127.485	-0.638	0.120
-340.348	159.051	-0.160	-0.291
-339.333	-101.354	0.200	-0.063
-338.318	1.958	-0.234	-0.220
-337.304	-19.614	-0.047	-0.038
-336.289	17.205	-0.277	0.287
-335.275	-177.878	0.129	-0.004
-334.260	279.219	-0.087	-0.203
-333.245	122.667	-0.203	-0.332
-332.231	-61.232	-0.483	0.264
-331.216	-1.442	0.100	0.092
-330.202	4.100	-0.448	-0.427
-329.187	545.433	-0.060	-0.186
-328.172	-12.486	0.277	-0.235
-327.158	-69.825	0.168	0.083
-326.143	-113.952	-0.318	0.080
-325.129	800.000	-0.121	0.579
-324.114	-82.737	-0.384	-0.161
-323.099	155.608	-0.110	0.197
-322.085	-79.700	-0.595	-0.260
-321.070	130.224	-0.101	-0.169
-320.056	-92.590	-0.643	0.234
-319.041	-81.929	0.426	0.181
-318.026	-68.554	0.318	-0.160
-317.012	66.233	0.156	0.206
-315.997	0.381	-0.175	-0.163
-314.983	80.678	-0.107	0.150
-313.968	-173.669	0.110	0.004
-312.953	-200.000	0.054	0.344
-311.939	-33.461	-0.164	-0.118
-310.924	-121.981	-0.332	0.070
-309.910	148.925	0.166	-0.293
-308.895	-200.000	-0.085	-0.490
-307.880	800.000	0.104	-0.475
-306.866	20.995	-0.241	0.255
-305.851	-11.668	-0.246	-0.210
-304.837	-31.397	-0.416	-0.304
-303.822	-58.713	0.388	-0.218
-302.807	658.449	-0.047	0.159
-301.793	-63.423	-0.260	0.139
-300.778	800.000	0.096	-0.459
-299.764	90.561	0.153	-0.223
-298.749	-70.606	0.146	0.071
-297.735	-152.119	0.322	-0.030
-296.720	36.841	0.320	-0.368
-295.705	-109.564	-0.290	-0.079
-294.691	105.952	0.076	-0.117
-293.676	-62.239	0.087	0.047
-292.662	98.966	-0.231	-0.347
-291.647	-200.000	-0.016	0.298
-290.632	494.227	-0.036	0.109
-289.618	-126.901	0.504	-0.096
-288.603	-67.528	-0.390	-0.198
-287.589	-30.952	0.159	-0.117
-286.574	-86.681	0.216	-0.086
-285.559	800.000	-0.090	-0.468
-284.545	56.082	0.147	-0.186
-283.530	681.693	-0.094	-0.320
-282.516	-187.451	-0.039	-0.001
-281.501	-156.330	0.292	-0.023
-280.486	-132.812	-0.104	0.017
-279.472	-200.000	0.002	0.214
-278.457	362.735	-0.023	0.060
-277.443	-113.027	0.341	0.087
-276.428	-90.247	0.261	-0.098
-275.413	800.000	-0.052	0.282
-274.399	-36.173	-0.215	-0.151
-273.384	-185.585	0.354	0.007
-272.370	-200.000	0.060	-0.670
-271.355	13.091	0.117	-0.118
-270.340	-114.005	-0.137	0.034
-269.326	92.512	-0.221	-0.325
-268.311	84.032	0.116	0.165
-267.297	-89.932	-0.145	0.055
-266.282	-125.928	0.340	0.066
-265.267	65.047	-0.164	-0.215
-264.253	-94.002	-0.422	-0.150
-263.238	184.025	0.186	-0.359
-262.224	33.276	0.184	0.207
-261.209	13.898	-0.248	-0.250
-260.195	-127.825	0.500	-0.093
-259.180	-54.135	-0.210	0.124
-258.165	-78.120	-0.203	0.090
-257.151	-157.806	0.304	-0.023
-256.136	-43.074	-0.302	-0.198
-255.122	-71.515	-0.208	0.101
-254.107	163.072	0.237	-0.434
-253.092	647.164	0.080	-0.269
-252.078	62.777	-0.286	-0.372
-251.063	-61.956	0.470	-0.254
-250.049	-45.095	-0.104	-0.067
-249.034	119.139	-0.143	-0.230
-248.019	-133.807	-0.771	-0.123
-247.005	246.090	-0.091	0.199
-245.990	12.364	0.178	0.178
-244.976	301.855	0.180	0.435
-243.961	439.870	0.085	0.242
-242.946	33.222	0.189	0.213
-241.932	153.012	-0.091	-0.162
-240.917	306.144	0.090	0.219
-239.903	-23.268	0.131	0.102
-238.888	25.791	0.049	0.053
-237.873	-125.661	0.459	-0.089
-236.859	-83.285	0.178	0.074
-235.844	-140.070	-0.263	-0.036
-234.830	72.668	0.130	-0.177
-233.815	-147.811	-0.369	0.040
-232.800	-44.015	-0.472	-0.307
-231.786	-69.104	-0.132	0.066
-230.771	50.897	0.087	-0.106
-229.757	-4.474	-0.042	0.038
-228.742	450.812	0.134	0.385
-227.727	1.626	0.245	0.229
-226.713	105.937	0.211	0.325
-225.698	-200.000	0.083	0.544
-224.684	800.000	0.105	0.396
-223.669	66.329	0.055	-0.073
-222.655	7.229	0.293	-0.284
-221.640	-6.358	-0.115	-0.101
-220.625	-72.301	-0.345	-0.165
-219.611	31.663	-0.128	0.143
-218.596	16.152	0.082	-0.084
-217.582	-200.000	-0.006	0.056
-216.567	800.000	0.031	0.125
-215.552	681.489	0.074	0.250
-214.538	287.796	-0.116	-0.273
-213.523	-37.822	0.285	0.196
-212.509	-16.594	0.386	0.316
-211.494	800.000	-0.075	-0.424
-210.479	128.468	0.078	0.129
-209.465	119.582	0.138	0.222
-208.450	487.503	-0.077	0.229
-207.436	800.000	-0.030	0.117
-206.421	-166.634	0.399	0.021
-205.406	87.566	0.182	-0.262
-204.392	-200.000	-0.439	0.001
-203.377	207.683	-0.192	-0.390
-202.363	-186.135	0.750	0.014
-201.348	800.000	-0.047	0.234
-200.333	40.798	0.129	0.151
-199.319	-99.176	0.552	0.180
-198.304	5.012	-0.175	0.166
-197.290	-23.405	-0.286	-0.223
-196.275	200.626	-0.185	0.371
-195.260	-155.019	0.335	-0.028
-194.246	-58.541	0.419	-0.235
-193.231	37.368	0.256	-0.294
-192.217	-200.000	0.046	0.391
-191.202	111.306	-0.063	0.098
-190.187	-162.740	0.209	-0.013
-189.173	800.000	-0.094	0.350
-188.158	162.504	-0.093	-0.169
-187.144	303.877	-0.175	0.423
-186.129	97.824	-0.364	-0.543
-185.114	329.757	-0.140	-0.351
-184.100	800.000	0.108	-0.546
-183.085	643.833	0.060	-0.201
-182.071	31.150	-0.186	0.206
-181.056	-81.010	0.479	0.204
-180.042	-95.353	0.229	-0.079
-179.027	50.264	0.520	0.637
-178.012	-188.957	0.533	0.008
-176.998	775.087	-0.161	-0.572
-175.983	-54.620	-0.438	-0.256
-174.969	-16.006	0.251	-0.207
-173.954	-200.000	0.018	0.431
-172.939	-3.336	-0.234	-0.211
-171.925	-84.953	0.232	-0.094
-170.910	-139.972	-0.276	-0.037
-169.896	-18.828	0.297	-0.239
-168.881	-17.286	-0.294	0.239
-167.866	151.869	0.230	0.406
-166.852	-151.989	0.131	-0.012
-165.837	-131.167	0.744	-0.127
-164.823	86.267	0.182	-0.260
-163.808	43.922	0.290	-0.344
-162.793	-42.629	-0.378	-0.249
-161.779	-184.875	0.610	0.012
-160.764	-49.734	0.190	-0.117
-159.750	-200.000	-0.003	0.034
-158.735	-67.137	0.260	0.132
-157.720	-76.561	0.175	-0.079
-156.706	-128.024	0.361	0.066
-155.691	65.111	0.242	-0.317
-154.677	145.710	0.232	0.403
-153.662	349.429	0.075	-0.192
-152.647	-145.058	-0.189	-0.022
-151.633	-70.771	0.213	0.103
-150.618	-7.734	-0.245	-0.214
-149.604	331.403	-0.046	-0.116
-148.589	-51.621	0.180	0.108
-147.574	800.000	0.109	0.422
-146.560	191.071	-0.011	-0.021
-145.545	83.549	-0.205	-0.289
-144.531	-200.000	0.002	-0.048
-143.516	-54.033	-0.449	0.264
-142.502	342.002	0.106	0.268
-141.487	-131.233	0.482	-0.082
-140.472	102.630	-0.220	0.333
-139.458	-22.792	0.146	-0.114
-138.443	-116.062	-0.338	0.081
-137.429	301.593	-0.054	-0.130
-136.414	800.000	0.061	-0.311
-135.399	85.975	-0.061	-0.087
-134.385	108.638	0.160	0.248
-133.370	-119.513	-0.558	0.124
-132.356	-159.892	-0.346	-0.024
-131.341	-11.873	0.019	-0.016
-130.326	-200.000	0.129	-0.810
-129.312	207.814	0.090	0.183
-128.297	-200.000	-0.003	0.226
-127.283	-9.187	-0.413	0.357
-126.268	-200.000	-0.017	-0.169
-125.253	-110.666	-0.481	0.128
-124.239	-64.569	-0.269	-0.141
-123.224	-200.000	-0.032	-0.228
-122.210	149.065	-0.232	-0.407
-121.195	-88.741	0.263	-0.100
