DTS Sentinel unit serial number:	SN409020Multiplexer serial number:	ORYXHardware model number:	OX4-SRSoftware version number:	ORYX F/W v3.00 Oryx Data Collector v3.7.2.0data status	okinstallation	HaddamTimeLapsedifferential loss correction	single-endedforward channel	channel 3reverse channel	N/Adate	2011/06/22time	03:46:17forward acquisition time	30.00reverse acquisition time	0.00gamma	498.7831k internal	0.1751k external	0.1751temperature offset calibration	1.0074default loss term (dB/km)	0.3790temperature slope calibration	1.3530multiplexer offset coefficient	1.0000multiplexer slope coefficient	1.0000fibre end	0.00T internal ref (°C)	22.44T ext. ref 1 (°C)	18.02T ext. ref 2 (°C)	0.08length (m)	temperature (°C)	Stokes	anti-Stokes-747.200	800.000	-0.066	0.254
-746.185	18.607	0.276	-0.294
-745.171	-85.894	-0.450	0.184
-744.156	-43.237	0.425	0.285
-743.142	-135.823	-0.247	0.038
-742.127	-42.092	-0.365	0.248
-741.112	210.092	0.056	-0.118
-740.098	95.223	-0.124	-0.188
-739.083	46.273	-0.102	0.126
-738.069	-104.620	-0.137	-0.042
-737.054	270.586	0.027	0.063
-736.039	-99.048	-0.384	0.129
-735.025	13.260	0.380	0.391
-734.010	-200.000	-0.009	-0.189
-732.996	-56.832	0.062	-0.037
-731.981	-20.541	0.057	0.046
-730.966	-122.507	0.695	-0.149
-729.952	436.845	0.039	0.113
-728.937	-28.776	0.179	-0.136
-727.923	-49.265	-0.012	0.008
-726.908	-3.030	0.207	-0.192
-725.894	30.553	-0.153	-0.174
-724.879	-200.000	-0.054	0.485
-723.864	-143.233	-0.519	-0.065
-722.850	-159.554	-0.254	-0.018
-721.835	-200.000	0.001	-0.083
-720.821	248.063	0.244	-0.550
-719.806	-62.517	-0.165	0.091
-718.791	-1.554	0.132	0.123
-717.777	95.306	-0.193	0.292
-716.762	44.052	-0.167	0.204
-715.748	800.000	0.085	0.461
-714.733	-103.609	-0.409	0.127
-713.718	-83.111	0.198	0.084
-712.704	607.949	-0.046	-0.153
-711.689	-190.852	0.352	-0.005
-710.675	631.543	0.054	0.181
-709.660	-49.191	0.162	-0.102
-708.645	-112.867	0.143	0.037
-707.631	-18.728	0.233	-0.193
-706.616	-129.764	-0.160	-0.029
-705.602	108.967	0.112	0.179
-704.587	800.000	0.059	0.252
-703.572	-200.000	-0.001	0.493
-702.558	405.480	-0.083	-0.235
-701.543	24.883	0.263	-0.289
-700.529	514.230	-0.151	0.469
-699.514	-106.972	0.132	-0.038
-698.499	258.979	0.209	-0.479
-697.485	-9.315	0.404	-0.357
-696.470	-145.600	-0.177	-0.021
-695.456	800.000	-0.039	-0.157
-694.441	-100.382	0.180	0.059
-693.426	29.096	-0.381	-0.428
-692.412	-41.311	-0.309	-0.211
-691.397	-21.069	-0.396	-0.321
-690.383	-26.329	-0.332	-0.258
-689.368	-109.763	-0.126	0.035
-688.354	111.498	0.209	-0.334
-687.339	-146.348	0.161	0.018
-686.324	-92.125	-0.493	-0.183
-685.310	-108.426	0.246	-0.070
-684.295	-146.889	-0.048	0.005
-683.281	-48.935	-0.494	-0.312
-682.266	26.508	-0.031	-0.034
-681.251	-71.815	-0.257	-0.126
-680.237	-58.219	0.306	-0.176
-679.222	-119.849	0.256	-0.058
-678.208	-200.000	0.038	-0.434
-677.193	-48.747	-0.434	0.275
-676.178	-51.976	-0.249	-0.153
-675.164	-50.800	0.272	0.169
-674.149	282.288	-0.186	0.443
-673.135	73.470	-0.220	-0.306
-672.120	127.560	-0.091	0.153
-671.105	-23.241	-0.344	0.273
-670.091	-34.125	0.067	-0.049
-669.076	-200.000	0.002	-0.303
-668.062	133.697	0.122	-0.210
-667.047	-111.226	0.386	0.104
-666.032	-167.863	-0.375	-0.019
-665.018	-33.897	0.402	0.293
-664.003	-118.386	0.452	0.105
-662.989	-88.324	0.418	0.165
-661.974	-162.035	0.692	0.045
-660.959	-29.514	-0.298	-0.225
-659.945	346.851	-0.031	-0.080
-658.930	-50.028	-0.346	-0.216
-657.916	224.312	-0.221	0.474
-656.901	-200.000	0.031	0.248
-655.886	617.665	0.032	-0.108
-654.872	-75.601	-0.284	-0.133
-653.857	51.493	-0.102	-0.128
-652.843	87.457	-0.131	-0.192
-651.828	-38.014	-0.259	0.182
-650.814	-124.374	-0.154	-0.032
-649.799	-73.602	0.126	0.061
-648.784	800.000	-0.087	-0.459
-647.770	212.693	-0.137	0.286
-646.755	-200.000	-0.033	0.414
-645.741	-94.559	0.240	-0.086
-644.726	-46.844	0.272	-0.175
-643.711	-144.118	0.101	-0.012
-642.697	84.208	0.178	0.258
-641.682	151.657	-0.158	-0.285
-640.668	-200.000	0.072	0.938
-639.653	-28.312	0.681	-0.519
-638.638	84.292	0.101	0.146
-637.624	-130.080	-0.154	0.028
-636.609	-11.938	0.237	0.206
-635.595	-51.629	-0.141	0.086
-634.580	-115.394	-0.091	0.023
-633.565	-103.951	-0.105	0.032
-632.551	26.967	0.187	0.208
-631.536	569.503	-0.053	0.171
-630.522	-200.000	0.085	0.543
-629.507	-28.790	-0.121	-0.092
-628.492	-144.462	-0.455	0.055
-627.478	-95.670	-0.259	0.091
-626.463	67.401	0.314	-0.425
-625.449	-200.000	-0.012	-0.304
-624.434	-73.383	0.176	0.084
-623.419	-89.464	0.065	0.025
-622.405	-113.105	0.483	-0.125
-621.390	157.540	0.073	-0.133
-620.376	-200.000	0.044	-0.299
-619.361	138.048	0.147	-0.255
-618.346	-95.487	0.535	0.189
-617.332	-200.000	0.036	0.543
-616.317	800.000	0.047	0.273
-615.303	196.997	-0.359	-0.726
-614.288	-72.429	-0.179	0.087
-613.273	31.676	0.164	-0.186
-612.259	-84.638	-0.275	-0.114
-611.244	118.145	0.093	-0.152
-610.230	-39.820	-0.207	-0.143
-609.215	5.703	-0.255	-0.249
-608.201	111.510	0.265	0.424
-607.186	-49.495	-0.368	-0.231
-606.171	-95.630	0.527	0.185
-605.157	237.155	0.082	-0.180
-604.142	-169.588	0.008	-0.000
-603.128	177.998	0.188	-0.363
-602.113	337.208	-0.094	-0.243
-601.098	-200.000	0.017	-0.295
-600.084	-120.196	-0.505	-0.113
-599.069	800.000	0.008	-0.040
-598.055	219.138	-0.075	-0.160
-597.040	188.109	-0.058	0.114
-596.025	-200.000	0.007	0.087
-595.011	-85.997	0.213	0.086
-593.996	-94.837	0.428	0.152
-592.982	-95.413	0.132	-0.046
-591.967	-83.929	0.149	-0.062
-590.952	-200.000	-0.004	0.177
-589.938	-37.578	0.086	0.061
-588.923	380.020	0.254	-0.690
-587.909	-21.663	-0.071	0.057
-586.894	-180.244	-0.194	0.005
-585.879	-200.000	-0.034	-0.327
-584.865	-39.089	0.410	0.284
-583.850	-200.000	-0.021	-0.210
-582.836	-119.866	-0.402	0.091
-581.821	17.940	-0.360	0.379
-580.806	-106.646	-0.265	0.077
-579.792	-200.000	0.025	-0.225
-578.777	-94.759	-0.440	0.157
-577.763	-86.179	0.517	-0.209
-576.748	-111.472	-0.288	-0.077
-575.733	12.013	-0.194	-0.197
-574.719	-137.084	-0.363	0.054
-573.704	-200.000	-0.046	0.711
-572.690	-200.000	0.046	-0.273
-571.675	438.339	-0.087	-0.252
-570.661	306.406	-0.126	-0.312
-569.646	-49.085	0.361	0.227
-568.631	50.631	-0.097	-0.122
-567.617	93.961	-0.131	-0.196
-566.602	651.351	0.089	0.303
-565.588	-200.000	0.040	-0.312
-564.573	82.151	-0.240	0.343
-563.558	-7.553	-0.318	0.283
-562.544	16.312	0.158	0.164
-561.529	-84.183	-0.285	-0.118
-560.515	-200.000	0.004	-0.130
-559.500	60.139	-0.231	0.301
-558.485	292.359	-0.078	0.189
-557.471	-45.384	0.088	0.057
-556.456	-72.814	0.294	-0.142
-555.442	800.000	0.043	-0.167
-554.427	800.000	0.054	-0.201
-553.412	-63.387	0.342	-0.185
-552.398	222.608	0.251	-0.536
-551.383	40.500	-0.227	0.269
-550.369	373.241	0.157	-0.422
-549.354	277.292	0.172	-0.405
-548.339	-117.601	0.444	0.105
-547.325	122.335	-0.088	-0.146
-546.310	800.000	0.065	-0.248
-545.296	38.446	-0.489	-0.574
-544.281	-89.879	-0.236	0.090
-543.266	53.926	-0.110	0.140
-542.252	-60.330	0.571	0.319
-541.237	-11.469	0.100	-0.087
-540.223	423.544	-0.159	-0.452
-539.208	24.147	-0.064	0.070
-538.193	82.668	0.283	0.406
-537.179	-122.223	-0.364	-0.078
-536.164	-48.504	0.155	-0.098
-535.150	-200.000	0.006	-0.198
-534.135	-150.765	-0.202	0.020
-533.121	56.192	-0.154	-0.198
-532.106	-20.332	0.138	0.112
-531.091	219.816	0.135	0.285
-530.077	-71.915	0.224	0.110
-529.062	800.000	-0.085	-0.465
-528.048	-200.000	0.012	-0.179
-527.033	-128.115	-0.260	-0.049
-526.018	-95.474	0.262	-0.092
-525.004	27.446	0.058	0.065
-523.989	-147.880	-0.546	0.059
-522.975	-62.734	-0.386	-0.210
-521.960	-64.567	-0.170	-0.090
-520.945	108.525	-0.023	-0.037
-519.931	118.298	0.125	-0.203
-518.916	-88.544	-0.271	-0.106
-517.902	-200.000	-0.519	0.003
-516.887	800.000	0.011	0.060
-515.872	-200.000	-0.026	-0.432
-514.858	800.000	-0.040	0.161
-513.843	800.000	0.054	-0.282
-512.829	-157.909	-0.259	0.020
-511.814	-200.000	-0.037	-0.342
-510.799	-56.542	0.143	-0.083
-509.785	-43.030	-0.106	-0.070
-508.770	800.000	-0.040	0.175
-507.756	273.862	0.042	0.098
-506.741	-8.603	0.420	-0.371
-505.726	-29.032	0.038	-0.028
-504.712	-100.559	0.396	-0.128
-503.697	-45.244	-0.026	0.017
-502.683	-200.000	-0.023	0.232
-501.668	800.000	0.081	0.376
-500.653	331.975	-0.067	0.170
-499.639	-46.886	0.470	-0.302
-498.624	-200.000	0.005	-0.362
-497.610	70.617	-0.237	-0.323
-496.595	-91.508	0.168	-0.063
-495.581	-99.282	0.385	0.127
-494.566	15.752	0.320	-0.331
-493.551	800.000	-0.062	-0.342
-492.537	47.252	0.115	0.141
-491.522	-95.931	0.171	0.060
-490.508	-200.000	-0.014	-0.137
-489.493	115.942	0.179	0.289
-488.478	-94.817	0.255	0.091
-487.464	-200.000	0.037	-0.371
-486.449	140.660	0.299	-0.521
-485.435	-65.174	0.146	0.077
-484.420	-126.877	0.324	-0.062
-483.405	129.589	0.133	0.225
-482.391	-10.565	0.398	0.346
-481.376	562.973	0.126	0.403
-480.362	-108.869	-0.154	-0.043
-479.347	733.949	0.086	-0.303
-478.332	800.000	0.070	-0.259
-477.318	-200.000	0.009	-0.107
-476.303	-74.007	0.290	0.137
-475.289	237.010	0.084	-0.183
-474.274	-125.995	0.236	-0.046
-473.259	-166.742	0.585	0.031
-472.245	-19.132	0.361	0.294
-471.230	250.345	-0.216	0.484
-470.216	-51.434	0.242	0.148
-469.201	-145.012	0.269	0.032
-468.186	-189.438	-0.261	0.004
-467.172	-141.572	0.328	0.043
-466.157	-108.443	0.202	0.057
-465.143	-200.000	-0.002	-0.323
-464.128	-96.239	-0.319	-0.110
-463.113	-91.829	0.322	0.119
-462.099	214.723	0.158	-0.329
-461.084	395.171	0.104	-0.286
-460.070	-101.560	0.082	-0.026
-459.055	-124.673	0.278	-0.056
-458.040	31.185	0.269	0.304
-457.026	527.499	-0.015	0.046
-456.011	-91.222	0.127	0.048
-454.997	324.307	0.205	-0.517
-453.982	-64.379	-0.311	-0.166
-452.968	-134.786	-0.357	0.056
-451.953	-200.000	-0.032	0.421
-450.938	-104.095	-0.068	-0.021
-449.924	-161.562	-0.667	-0.044
-448.909	-126.809	0.257	0.049
-447.895	-166.136	0.233	0.013
-446.880	-131.167	-0.449	0.078
-445.865	-135.786	-0.442	-0.068
-444.851	-85.260	-0.149	-0.061
-443.836	-97.523	-0.349	0.118
-442.822	84.007	0.128	-0.184
-441.807	-143.703	0.092	0.011
-440.792	-200.000	-0.050	0.436
-439.778	566.916	-0.071	0.227
-438.763	-84.748	-0.212	-0.087
-437.749	-138.174	-0.277	-0.040
-436.734	-197.856	0.473	0.004
-435.719	693.833	-0.075	0.261
-434.705	-94.453	-0.605	0.215
-433.690	-33.394	0.378	-0.274
-432.676	800.000	-0.030	-0.124
-431.661	-132.599	-0.495	-0.083
-430.646	-54.944	0.206	0.122
-429.632	-108.349	-0.313	-0.088
-428.617	2.495	0.269	-0.255
-427.603	330.397	0.181	-0.460
-426.588	55.009	-0.060	-0.076
-425.573	800.000	0.128	0.585
-424.559	-161.304	-0.410	0.028
-423.544	-130.691	-0.614	-0.107
-422.530	-85.770	-0.356	0.144
-421.515	769.163	0.091	-0.327
-420.500	-200.000	0.067	-0.548
-419.486	-138.666	-0.380	0.054
-418.471	-200.000	0.020	0.180
-417.457	206.922	-0.047	-0.097
-416.442	800.000	0.145	-0.633
-415.428	-11.498	0.237	-0.204
-414.413	-158.604	-0.294	-0.022
-413.398	129.705	0.254	-0.427
-412.384	-135.269	-0.184	-0.029
-411.369	800.000	-0.104	0.413
-410.355	-71.127	-0.338	0.166
-409.340	74.414	-0.158	0.218
-408.325	-35.965	0.156	-0.111
-407.311	-63.817	0.279	0.149
-406.296	800.000	0.054	0.204
-405.282	-200.000	0.006	0.259
-404.267	-200.000	0.009	0.182
-403.252	-178.919	0.454	-0.013
-402.238	-157.781	0.328	-0.025
-401.223	-33.514	0.424	0.306
-400.209	-74.222	0.066	-0.031
-399.194	-143.226	0.244	0.030
-398.179	-200.000	-0.058	0.436
-397.165	168.679	-0.179	0.335
-396.150	80.095	-0.104	0.147
-395.136	-78.963	0.056	0.025
-394.121	800.000	0.030	-0.173
-393.106	54.546	0.140	-0.176
-392.092	91.059	-0.233	-0.344
-391.077	-154.591	-0.536	0.046
-390.063	63.952	0.296	0.391
-389.048	-0.600	0.257	-0.239
-388.033	-45.853	-0.353	0.228
-387.019	389.063	0.124	0.339
-386.004	-124.578	-0.097	-0.020
-384.990	-164.146	-0.361	0.022
-383.975	-173.053	-0.544	0.022
-382.960	-38.385	-0.328	-0.227
-381.946	30.370	0.232	0.260
-380.931	-186.590	0.523	0.010
-379.917	-21.524	-0.098	-0.078
-378.902	38.401	-0.471	-0.550
-377.888	-108.430	-0.315	0.088
-376.873	-136.196	-0.091	0.014
-375.858	-200.000	-0.002	-0.461
-374.844	20.337	0.136	-0.144
-373.829	-200.000	-0.003	0.124
-372.815	56.828	0.149	0.190
-371.800	-200.000	-0.013	0.145
-370.785	481.253	0.083	-0.247
-369.771	-9.354	-0.209	-0.182
-368.756	-178.280	-0.461	-0.014
-367.742	-0.555	0.127	0.118
-366.727	-77.582	-0.346	-0.156
-365.712	800.000	0.010	0.055
-364.698	-42.236	0.535	-0.357
-363.683	-88.081	0.190	-0.074
-362.669	74.847	-0.173	0.239
-361.654	-9.846	-0.494	-0.429
-360.639	418.284	0.093	-0.261
-359.625	365.849	-0.129	-0.341
-358.610	-90.845	-0.205	-0.077
-357.596	-200.000	0.047	-0.285
-356.581	144.157	0.163	-0.286
-355.566	-200.000	-0.003	0.223
-354.552	800.000	0.097	0.377
-353.537	294.334	0.218	0.524
-352.523	-168.973	-0.454	0.022
-351.508	-115.516	-0.009	0.002
-350.493	-53.537	0.087	0.052
-349.479	800.000	0.045	-0.204
-348.464	-56.104	0.347	-0.201
-347.450	-200.000	-0.027	0.388
-346.435	-99.124	-0.298	-0.098
-345.420	-137.275	0.234	0.034
-344.406	-146.797	-0.284	-0.032
-343.391	-200.000	-0.001	0.274
-342.377	-142.517	-0.081	-0.010
-341.362	-42.500	0.301	0.200
-340.348	21.971	0.043	0.045
-339.333	-128.719	0.199	-0.036
-338.318	-200.000	-0.042	-0.334
-337.304	-161.354	-0.269	0.018
-336.289	-93.392	-0.225	-0.081
-335.275	-111.326	-0.436	-0.115
-334.260	709.063	-0.053	-0.185
-333.245	171.892	0.200	0.377
-332.231	800.000	0.154	0.635
-331.216	-175.326	0.327	-0.012
-330.202	-103.157	-0.137	0.042
-329.187	-200.000	0.003	0.138
-328.172	-146.486	0.584	-0.066
-327.158	5.847	-0.209	0.202
-326.143	319.403	-0.173	0.431
-325.129	122.198	-0.295	-0.482
-324.114	-59.512	0.543	-0.304
-323.099	71.233	0.121	0.165
-322.085	590.182	-0.136	0.441
-321.070	-128.811	-0.838	-0.153
-320.056	430.518	-0.133	-0.379
-319.041	-200.000	0.026	0.171
-318.026	45.572	-0.246	-0.297
-317.012	-200.000	-0.057	0.423
-315.997	343.770	0.146	0.374
-314.983	173.656	0.103	-0.196
-313.968	6.616	0.191	0.185
-312.953	27.438	0.246	-0.270
-311.939	-7.023	0.459	-0.407
-310.924	31.934	-0.254	-0.286
-309.910	291.990	-0.121	0.288
-308.895	-120.330	-0.582	0.128
-307.880	95.639	0.135	0.201
-306.866	-125.959	0.593	-0.116
-305.851	769.354	0.046	-0.166
-304.837	-100.717	-0.417	0.133
-303.822	144.852	-0.244	-0.428
-302.807	8.414	-0.352	-0.345
-301.793	-57.838	0.151	-0.086
-300.778	800.000	0.117	-0.488
-299.764	-151.712	-0.084	-0.008
-298.749	-142.371	-0.146	0.019
-297.735	-168.160	-0.415	0.021
-296.720	-87.537	0.280	-0.110
-295.705	-90.074	-0.323	0.122
-294.691	206.629	0.164	0.334
-293.676	87.552	-0.082	-0.118
-292.662	800.000	-0.116	0.517
-291.647	-60.314	-0.247	0.137
-290.632	-89.155	-0.210	0.081
-289.618	67.690	-0.068	0.090
-288.603	232.761	-0.053	-0.114
-287.589	-133.176	0.367	-0.060
-286.574	-200.000	-0.023	0.393
-285.559	298.803	-0.213	0.512
-284.545	235.867	0.174	-0.376
-283.530	18.449	-0.153	0.160
-282.516	-110.776	0.430	0.115
-281.501	800.000	0.023	-0.098
-280.486	-117.889	0.413	0.096
-279.472	-6.402	0.225	0.200
-278.457	800.000	0.055	0.246
-277.443	-139.511	-0.095	-0.013
-276.428	24.515	0.141	-0.152
-275.413	800.000	-0.032	-0.171
-274.399	-44.801	0.160	0.104
-273.384	20.471	-0.284	0.299
-272.370	289.024	0.047	0.110
-271.355	45.583	-0.298	-0.359
-270.340	-37.232	-0.314	0.218
-269.326	-0.645	-0.297	-0.275
-268.311	71.771	-0.406	0.551
-267.297	-54.377	0.402	0.237
-266.282	-165.720	0.463	0.026
-265.267	213.430	0.038	0.079
-264.253	-137.994	-0.174	0.025
-263.238	-190.194	-0.371	0.005
-262.224	-47.286	0.142	-0.090
-261.209	208.512	0.142	-0.290
-260.195	-53.250	-0.306	-0.182
-259.180	-54.786	0.318	0.187
-258.165	-70.505	0.251	0.124
-257.151	234.768	0.103	-0.221
-256.136	-167.365	0.137	-0.007
-255.122	62.393	0.143	0.187
-254.107	113.022	0.264	-0.419
-253.092	-82.117	-0.243	0.103
-252.078	-29.033	-0.245	0.183
-251.063	-200.000	-0.025	-0.165
-250.049	379.230	-0.165	0.444
-249.034	-132.469	-0.307	-0.051
-248.019	280.782	-0.057	0.134
-247.005	-107.664	-0.411	0.116
-245.990	-40.164	0.090	0.061
-244.976	-87.981	-0.135	-0.052
-243.961	-62.862	-0.131	-0.070
-242.946	-200.000	0.003	-0.254
-241.932	-104.935	0.503	0.149
-240.917	87.328	0.470	-0.678
-239.903	-100.970	0.113	0.036
-238.888	-107.749	0.249	0.070
-237.873	-83.576	-0.405	0.168
-236.859	-73.334	-0.328	0.156
-235.844	82.561	-0.152	-0.215
-234.830	-91.361	0.111	0.041
-233.815	-200.000	-0.076	0.695
-232.800	-99.418	0.170	-0.055
-231.786	800.000	0.078	-0.313
-230.771	110.558	-0.302	0.474
-229.757	43.707	0.201	0.240
-228.742	-58.877	-0.105	-0.059
-227.727	-200.000	0.101	-0.745
-226.713	-74.958	0.280	0.130
-225.698	-101.806	0.338	-0.106
-224.684	-96.250	-0.305	0.105
-223.669	-96.515	0.586	0.200
-222.655	202.153	-0.176	0.355
-221.640	-27.186	-0.495	0.375
-220.625	-76.509	0.188	0.085
-219.611	-96.766	-0.376	0.128
-218.596	18.059	-0.161	0.167
-217.582	-181.818	-0.527	0.013
-216.567	371.447	-0.022	0.058
-215.552	19.013	-0.204	-0.213
-214.538	-115.683	-0.357	-0.087
-213.523	-7.717	-0.080	0.071
-212.509	390.804	0.098	0.266
-211.494	-179.033	-0.574	0.016
-210.479	-133.202	0.259	-0.042
-209.465	302.199	-0.212	0.512
-208.450	-15.162	0.415	0.345
-207.436	-8.378	-0.259	0.226
-206.421	-18.429	-0.386	0.313
-205.406	-118.418	-0.645	-0.148
-204.392	800.000	0.039	-0.215
-203.377	800.000	-0.077	-0.313
-202.363	74.403	-0.124	-0.170
-201.348	-200.000	0.329	-0.002
-200.333	41.780	-0.377	0.445
-199.319	86.214	-0.042	0.061
-198.304	-70.760	0.345	-0.169
-197.290	-185.336	-0.236	0.005
-196.275	-28.469	0.284	-0.213
-195.260	-17.145	0.128	-0.105
-194.246	-101.265	0.040	-0.013
-193.231	97.620	-0.064	0.096
-192.217	-86.690	-0.160	0.063
-191.202	800.000	0.095	-0.350
-190.187	-59.311	0.385	0.215
-189.173	2.950	0.207	0.196
-188.158	-200.000	0.017	-0.113
-187.144	-200.000	0.039	0.291
-186.129	-48.525	-0.232	0.145
-185.114	32.674	0.575	0.646
-184.100	-200.000	-0.001	0.165
-183.085	97.971	-0.103	0.154
-182.071	230.134	0.201	-0.429
-181.056	22.250	0.341	0.362
-180.042	-200.000	0.065	0.511
-179.027	-106.137	0.293	-0.085
-178.012	-12.777	-0.108	-0.091
-176.998	56.860	0.428	0.542
-175.983	164.987	-0.139	0.256
-174.969	-182.394	-0.525	0.012
-173.954	-136.347	-0.050	0.008
-172.939	-200.000	0.043	0.276
-171.925	-117.031	0.291	0.068
-170.910	800.000	0.037	-0.208
-169.896	-200.000	-0.030	0.366
-168.881	800.000	0.058	0.278
-167.866	-107.129	-0.138	-0.039
-166.852	119.673	0.142	0.228
-165.837	51.015	0.305	-0.376
-164.823	-50.521	0.340	0.208
-163.808	75.793	-0.265	-0.365
-162.793	118.648	0.162	-0.260
-161.779	176.162	0.257	-0.485
-160.764	-64.962	-0.520	0.272
-159.750	8.752	0.134	0.131
-158.735	27.706	0.151	0.166
-157.720	-200.000	-0.001	-0.216
-156.706	-73.026	0.269	0.128
-155.691	-131.497	-0.393	-0.067
-154.677	692.711	-0.107	-0.368
-153.662	6.915	0.142	0.137
-152.647	1.633	0.125	0.117
-151.633	21.765	0.100	-0.106
-150.618	-45.904	-0.195	0.125
-149.604	-171.478	0.253	-0.011
-148.589	22.847	0.284	-0.302
-147.574	-119.671	-0.053	-0.012
-146.560	1.714	-0.227	0.212
-145.545	-25.511	-0.290	-0.222
-144.531	-123.279	0.532	-0.109
-143.516	57.545	-0.231	0.293
-142.502	-76.760	-0.224	0.101
-141.487	-111.610	0.180	-0.047
-140.472	-73.504	0.192	-0.090
-139.458	334.956	0.088	-0.223
-138.443	-102.516	0.144	-0.044
-137.429	42.896	-0.152	0.179
-136.414	-35.864	-0.362	-0.253
-135.399	-32.138	-0.136	0.099
-134.385	-160.653	0.360	-0.025
-133.370	-180.353	0.563	0.015
-132.356	-132.700	0.134	-0.022
-131.341	16.633	-0.081	0.083
-130.326	800.000	-0.177	0.644
-129.312	-63.029	0.119	0.064
-128.297	308.303	-0.077	0.187
-127.283	-98.496	0.267	0.088
-126.268	800.000	0.050	-0.237
-125.253	-113.694	0.343	-0.086
-124.239	-46.688	0.310	0.196
-123.224	800.000	0.099	0.364
-122.210	42.042	0.219	0.258
-121.195	188.183	0.170	0.331
