DTS Sentinel unit serial number:	SN409020Multiplexer serial number:	ORYXHardware model number:	OX4-SRSoftware version number:	ORYX F/W v3.00 Oryx Data Collector v3.7.2.0data status	okinstallation	HaddamTimeLapsedifferential loss correction	single-endedforward channel	channel 3reverse channel	N/Adate	2011/06/22time	03:01:17forward acquisition time	30.00reverse acquisition time	0.00gamma	498.7831k internal	0.1751k external	0.1751temperature offset calibration	1.0074default loss term (dB/km)	0.3790temperature slope calibration	1.3530multiplexer offset coefficient	1.0000multiplexer slope coefficient	1.0000fibre end	0.00T internal ref (°C)	22.31T ext. ref 1 (°C)	17.45T ext. ref 2 (°C)	0.03length (m)	temperature (°C)	Stokes	anti-Stokes-747.200	-6.659	-0.126	-0.114
-746.185	800.000	-0.133	0.655
-745.171	-34.474	-0.156	0.113
-744.156	-132.062	-0.286	-0.049
-743.142	30.046	0.268	0.304
-742.127	-71.708	0.434	-0.214
-741.112	120.489	-0.129	-0.213
-740.098	-38.439	-0.330	0.231
-739.083	-194.064	0.566	-0.006
-738.069	19.185	-0.298	0.318
-737.054	325.492	0.227	0.578
-736.039	21.885	-0.270	0.292
-735.025	-134.161	-0.476	0.077
-734.010	-200.000	0.061	-0.616
-732.996	-10.646	-0.189	0.166
-731.981	-15.848	0.166	-0.141
-730.966	204.301	-0.014	-0.029
-729.952	-124.462	-0.238	0.049
-728.937	-94.870	-0.461	0.165
-727.923	-200.000	-0.006	-0.075
-726.908	-16.513	-0.380	-0.319
-725.894	-91.923	0.343	-0.128
-724.879	-61.138	0.159	0.089
-723.864	-21.467	0.167	0.135
-722.850	15.362	0.305	-0.317
-721.835	-200.000	-0.013	0.145
-720.821	16.307	-0.456	0.478
-719.806	-164.988	-0.465	0.027
-718.791	116.864	0.063	0.104
-717.777	800.000	-0.118	0.463
-716.762	-15.056	0.268	0.227
-715.748	-200.000	0.015	0.385
-714.733	122.072	0.191	-0.318
-713.718	-148.291	-0.183	0.020
-712.704	-176.651	-0.275	-0.009
-711.689	-122.382	0.221	-0.047
-710.675	126.999	0.115	-0.194
-709.660	49.888	-0.128	-0.161
-708.645	-200.000	0.000	0.473
-707.631	-43.473	-0.141	-0.094
-706.616	-103.405	-0.308	-0.095
-705.602	-200.000	-0.674	-0.001
-704.587	-118.562	-0.342	-0.080
-703.572	-75.210	-0.551	-0.260
-702.558	800.000	-0.098	-0.369
-701.543	-81.304	0.352	0.153
-700.529	-200.000	0.002	-0.081
-699.514	-83.632	0.153	-0.065
-698.499	0.754	0.132	0.125
-697.485	383.096	0.119	0.327
-696.470	800.000	-0.093	0.413
-695.456	23.093	0.248	-0.270
-694.441	-60.164	-0.201	0.113
-693.426	-112.125	0.405	-0.107
-692.412	275.689	-0.255	-0.602
-691.397	-200.000	0.016	-0.140
-690.383	-74.773	0.111	0.053
-689.368	16.552	-0.275	0.288
-688.354	800.000	-0.020	0.078
-687.339	-200.000	0.208	0.000
-686.324	-23.837	0.191	0.152
-685.310	637.656	-0.135	-0.457
-684.295	703.647	0.112	-0.394
-683.281	-200.000	0.061	0.493
-682.266	-200.000	-0.019	-0.114
-681.251	800.000	-0.090	-0.354
-680.237	-47.480	-0.303	-0.194
-679.222	241.919	0.057	0.126
-678.208	-200.000	-0.006	0.362
-677.193	800.000	0.075	0.294
-676.178	-0.344	-0.407	-0.383
-675.164	-15.280	0.232	0.196
-674.149	-182.991	0.378	0.009
-673.135	-106.860	-0.223	-0.065
-672.120	62.660	-0.285	-0.377
-671.105	-0.532	-0.173	-0.163
-670.091	-71.864	-0.247	0.122
-669.076	96.338	0.189	-0.287
-668.062	125.758	-0.184	0.309
-667.047	-85.196	-0.221	-0.091
-666.032	-167.640	0.454	-0.024
-665.018	-200.000	-0.037	0.384
-664.003	23.116	-0.255	0.277
-662.989	-82.518	-0.303	0.130
-661.974	-130.489	0.276	0.049
-660.959	42.007	-0.201	0.242
-659.945	-200.000	-0.017	0.202
-658.930	-79.175	0.295	0.132
-657.916	-15.890	-0.373	-0.314
-656.901	-188.826	-0.164	0.003
-655.886	-126.235	-0.251	0.049
-654.872	39.627	-0.514	0.610
-653.857	-111.510	0.753	0.201
-652.843	-98.692	0.337	-0.113
-651.828	272.460	0.069	-0.161
-650.814	-200.000	0.066	-0.497
-649.799	-17.212	-0.160	-0.133
-648.784	-166.299	-0.277	-0.015
-647.770	-119.449	-0.285	0.065
-646.755	-40.047	-0.319	-0.220
-645.741	-19.656	-0.065	0.053
-644.726	677.748	0.009	0.031
-643.711	-82.084	0.266	-0.114
-642.697	-34.553	-0.046	0.034
-641.682	-118.377	-0.429	0.100
-640.668	31.925	0.128	-0.146
-639.653	-13.975	0.273	-0.233
-638.638	336.334	-0.061	-0.157
-637.624	-105.016	-0.163	-0.049
-636.609	188.579	0.241	0.477
-635.595	780.002	-0.145	-0.528
-634.580	800.000	0.139	-0.596
-633.565	471.354	-0.053	0.160
-632.551	77.216	-0.224	0.315
-631.536	-195.256	-0.072	0.001
-630.522	-2.448	-0.376	0.348
-629.507	204.959	0.131	-0.269
-628.492	-16.900	-0.034	0.028
-627.478	-200.000	0.042	-0.516
-626.463	-36.611	0.100	0.071
-625.449	96.702	-0.386	-0.585
-624.434	1.700	-0.281	0.267
-623.419	220.387	-0.076	0.162
-622.405	-78.589	-0.266	-0.120
-621.390	-34.056	0.085	0.061
-620.376	-200.000	0.007	0.384
-619.361	495.341	0.036	-0.110
-618.346	182.492	0.166	-0.325
-617.332	126.851	-0.233	0.391
-616.317	-35.488	-0.264	0.189
-615.303	66.597	-0.119	0.161
-614.288	229.959	-0.018	-0.040
-613.273	-96.625	-0.212	0.073
-612.259	118.314	-0.110	-0.179
-611.244	-103.808	-0.675	0.207
-610.230	-147.958	-0.342	0.037
-609.215	-178.967	0.401	0.012
-608.201	-83.158	0.469	-0.198
-607.186	440.070	0.113	0.327
-606.171	17.051	0.214	-0.224
-605.157	427.703	-0.056	0.161
-604.142	-135.399	-0.204	0.032
-603.128	-120.141	0.445	0.100
-602.113	-9.000	-0.083	-0.073
-601.098	-173.534	0.286	-0.011
-600.084	-141.428	0.373	0.049
-599.069	-97.773	-0.332	-0.113
-598.055	107.288	0.291	-0.458
-597.040	26.774	-0.203	0.225
-596.025	-63.682	0.150	-0.081
-595.011	800.000	-0.091	0.348
-593.996	753.263	0.096	0.346
-592.982	800.000	0.049	0.255
-591.967	80.436	0.060	-0.085
-590.952	-200.000	-0.002	-0.133
-589.938	-200.000	0.018	0.284
-588.923	-2.582	0.083	-0.077
-587.909	-122.402	0.407	0.087
-586.894	251.977	0.158	-0.357
-585.879	-200.000	-0.062	0.386
-584.865	800.000	0.060	-0.300
-583.850	-111.653	0.083	-0.022
-582.836	-165.400	0.375	-0.021
-581.821	17.533	-0.203	-0.213
-580.806	-167.638	-0.388	-0.020
-579.792	110.571	-0.080	-0.127
-578.777	-0.631	-0.080	0.075
-577.763	332.494	-0.131	0.335
-576.748	-76.858	-0.110	0.051
-575.733	-24.658	-0.191	0.150
-574.719	-79.689	0.528	-0.234
-573.704	-89.041	0.238	0.093
-572.690	-125.773	-0.525	0.104
-571.675	-115.485	0.243	0.060
-570.661	184.002	0.088	-0.171
-569.646	-129.401	-0.211	-0.038
-568.631	-174.990	0.478	0.017
-567.617	101.145	0.112	-0.172
-566.602	343.467	-0.126	-0.328
-565.588	-41.218	-0.499	-0.339
-564.573	-59.269	-0.310	-0.176
-563.558	67.111	-0.314	-0.423
-562.544	-115.349	0.267	0.066
-561.529	-84.458	0.131	0.054
-560.515	320.379	0.066	0.165
-559.500	-200.000	-0.012	-0.239
-558.485	-200.000	-0.035	0.291
-557.471	-146.783	0.243	-0.027
-556.456	-200.000	-0.035	-0.306
-555.442	800.000	0.021	0.087
-554.427	-200.000	0.002	-0.203
-553.412	-22.399	-0.536	0.427
-552.398	-119.383	0.108	-0.025
-551.383	-86.004	-0.256	-0.104
-550.369	410.821	0.102	0.285
-549.354	89.473	-0.300	0.442
-548.339	800.000	0.042	0.172
-547.325	-45.954	-0.202	0.131
-546.310	-200.000	-0.002	0.459
-545.296	-85.758	0.434	-0.176
-544.281	-24.299	0.138	-0.108
-543.266	-91.438	0.210	0.079
-542.252	-55.470	0.512	0.302
-541.237	-99.587	-0.301	0.099
-540.223	-51.886	0.319	-0.195
-539.208	-200.000	0.003	0.378
-538.193	97.294	-0.277	0.420
-537.179	500.719	0.107	0.326
-536.164	800.000	0.118	0.674
-535.150	-108.886	0.224	-0.063
-534.135	140.054	-0.121	0.210
-533.121	-85.388	-0.664	-0.271
-532.106	-138.189	-0.231	-0.033
-531.091	-129.674	-0.332	0.060
-530.077	-22.385	-0.433	0.345
-529.062	-200.000	-0.058	-0.412
-528.048	-161.015	-0.387	0.026
-527.033	53.875	-0.144	-0.182
-526.018	-116.756	0.216	-0.052
-525.004	-32.774	-0.151	-0.111
-523.989	402.510	0.086	0.240
-522.975	-67.739	-0.343	-0.176
-521.960	-200.000	-0.060	-0.483
-520.945	-59.491	-0.028	-0.016
-519.931	60.800	0.071	0.092
-518.916	40.061	0.568	-0.672
-517.902	800.000	0.159	-0.595
-516.887	16.567	0.112	0.117
-515.872	54.164	0.129	0.164
-514.858	73.399	-0.274	-0.379
-513.843	657.026	0.067	0.228
-512.829	-116.415	-0.647	0.156
-511.814	-45.850	-0.179	0.116
-510.799	-95.843	-0.206	0.072
-509.785	37.583	-0.055	0.065
-508.770	-93.932	-0.239	-0.086
-507.756	800.000	-0.113	0.418
-506.741	800.000	0.044	0.250
-505.726	-119.913	-0.305	-0.068
-504.712	202.503	0.177	0.361
-503.697	-200.000	-0.007	0.063
-502.683	204.937	0.081	0.167
-501.668	-63.132	0.535	-0.289
-500.653	-62.189	-0.209	0.114
-499.639	4.618	0.082	0.079
-498.624	83.712	0.092	-0.133
-497.610	-6.958	-0.389	-0.347
-496.595	-200.000	-0.023	0.279
-495.581	-200.000	0.039	0.440
-494.566	-83.431	-0.284	-0.119
-493.551	-74.509	-0.233	-0.110
-492.537	171.967	-0.068	-0.130
-491.522	-189.949	-0.282	-0.004
-490.508	-139.824	-0.267	0.037
-489.493	493.310	0.175	-0.532
-488.478	-152.973	0.296	0.027
-487.464	-107.200	0.100	-0.029
-486.449	-200.000	-0.034	0.202
-485.435	-200.000	0.002	-0.308
-484.420	567.909	0.176	-0.565
-483.405	800.000	0.102	0.383
-482.391	202.248	0.087	-0.178
-481.376	800.000	-0.072	0.284
-480.362	27.286	-0.274	0.302
-479.347	133.990	-0.258	-0.441
-478.332	675.968	-0.065	0.224
-477.318	-129.117	0.339	-0.062
-476.303	-130.085	0.429	0.076
-475.289	20.416	-0.491	-0.522
-474.274	800.000	-0.019	0.078
-473.259	-150.860	-0.298	-0.029
-472.245	-26.079	0.039	-0.030
-471.230	-200.000	-0.029	-0.183
-470.216	-61.389	-0.187	0.103
-469.201	-56.875	0.510	0.295
-468.186	17.640	0.358	-0.375
-467.172	-200.000	0.048	-0.337
-466.157	-131.419	0.189	0.033
-465.143	-200.000	-0.067	-0.488
-464.128	-200.000	-0.039	-0.345
-463.113	94.455	0.220	0.329
-462.099	-74.849	0.420	-0.197
-461.084	-143.572	0.333	0.041
-460.070	-200.000	0.038	-0.297
-459.055	-57.696	0.093	-0.053
-458.040	-93.412	-0.284	0.103
-457.026	-65.025	0.119	-0.063
-456.011	-48.886	0.321	0.202
-454.997	242.358	-0.129	0.284
-453.982	-162.587	0.433	0.028
-452.968	-19.052	-0.467	0.381
-451.953	-97.241	0.484	0.165
-450.938	59.840	-0.152	0.197
-449.924	117.057	0.302	0.488
-448.909	27.938	-0.338	0.375
-447.895	59.230	0.244	0.316
-446.880	-108.855	-0.216	-0.060
-445.865	699.367	0.013	-0.046
-444.851	-104.113	0.543	0.165
-443.836	-200.000	-0.013	-0.340
-442.822	-132.461	0.166	0.028
-441.807	747.498	-0.089	0.316
-440.792	315.347	-0.051	-0.126
-439.778	41.008	0.210	0.249
-438.763	-156.483	0.592	0.048
-437.749	-152.553	0.299	-0.028
-436.734	-200.000	0.067	0.395
-435.719	-91.232	-0.644	-0.241
-434.705	-92.024	0.225	-0.083
-433.690	-151.532	-0.558	-0.054
-432.676	-200.000	0.071	-0.458
-431.661	800.000	0.052	0.255
-430.646	-47.427	0.359	-0.228
-429.632	800.000	-0.055	0.277
-428.617	172.656	-0.057	-0.108
-427.603	-200.000	0.047	-0.298
-426.588	-43.355	0.303	0.201
-425.573	800.000	-0.098	0.448
-424.559	70.664	0.264	0.358
-423.544	-200.000	-0.019	-0.692
-422.530	-31.094	-0.457	0.338
-421.515	-102.598	-0.096	0.030
-420.500	36.626	-0.241	-0.279
-419.486	-47.691	0.217	0.138
-418.471	800.000	0.047	-0.223
-417.457	-200.000	-0.092	-0.580
-416.442	800.000	-0.166	-0.709
-415.428	-155.604	0.373	0.031
-414.413	-132.065	0.502	0.085
-413.398	90.011	0.230	-0.338
-412.384	-95.178	0.205	-0.072
-411.369	541.021	0.104	0.327
-410.355	800.000	0.131	0.520
-409.340	800.000	0.064	0.283
-408.325	-200.000	-0.076	-0.468
-407.311	551.714	-0.089	0.282
-406.296	-116.651	-0.450	-0.108
-405.282	-152.011	-0.096	-0.009
-404.267	-114.854	0.011	0.003
-403.252	-200.000	0.030	0.527
-402.238	34.124	-0.395	0.451
-401.223	466.360	-0.235	0.694
-400.209	-73.620	-0.237	0.113
-399.194	-4.464	-0.196	0.178
-398.179	-72.786	0.288	0.138
-397.165	-157.195	-0.560	0.044
-396.150	-160.267	0.199	0.014
-395.136	-128.816	0.548	0.100
-394.121	-200.000	0.065	0.473
-393.106	596.303	-0.012	0.040
-392.092	211.986	-0.157	0.325
-391.077	-88.649	0.095	0.037
-390.063	24.294	0.273	0.295
-389.048	-142.893	-0.610	0.077
-388.033	67.666	-0.099	0.133
-387.019	-70.707	-0.220	-0.108
-386.004	245.380	0.172	0.380
-384.990	17.313	0.201	0.209
-383.975	-1.996	0.409	-0.376
-382.960	-131.596	-0.179	0.031
-381.946	-64.481	0.147	0.078
-380.931	27.612	0.198	-0.218
-379.917	-31.705	-0.139	-0.102
-378.902	-15.470	0.227	0.189
-377.888	29.983	0.299	0.334
-376.873	85.093	0.144	-0.208
-375.858	-47.618	0.282	0.179
-374.844	-200.000	-0.249	0.000
-373.829	319.264	-0.172	-0.429
-372.815	436.854	0.142	0.407
-371.800	-12.621	-0.128	0.109
-370.785	6.141	-0.328	-0.318
-369.771	800.000	-0.031	-0.124
-368.756	-200.000	-0.029	-0.382
-367.742	-92.412	-0.226	-0.083
-366.727	-68.657	-0.223	-0.113
-365.712	-75.151	-0.432	-0.201
-364.698	-200.000	-0.031	-0.238
-363.683	-50.429	-0.267	-0.165
-362.669	800.000	0.107	-0.472
-361.654	-55.964	0.020	-0.012
-360.639	114.518	0.058	0.093
-359.625	-46.391	0.260	0.167
-358.610	160.334	-0.120	-0.219
-357.596	-129.729	-0.339	-0.061
-356.581	-200.000	0.028	-0.657
-355.566	-70.160	-0.367	0.182
-354.552	82.430	0.169	-0.241
-353.537	800.000	0.049	-0.231
-352.523	-200.000	-0.021	-0.158
-351.508	-47.030	-0.264	-0.168
-350.493	462.730	-0.201	0.590
-349.479	3.707	0.272	-0.259
-348.464	612.528	0.191	0.630
-347.450	-115.079	-0.781	-0.193
-346.435	-92.278	-0.158	0.058
-345.420	-200.000	0.045	-0.341
-344.406	306.846	0.166	-0.406
-343.391	22.867	-0.268	-0.288
-342.377	-23.703	0.182	0.143
-341.362	800.000	0.036	0.146
-340.348	-200.000	0.081	-0.508
-339.333	-145.057	0.333	-0.039
-338.318	-129.858	-0.648	-0.115
-337.304	-130.015	-0.463	0.082
-336.289	-3.334	-0.362	0.329
-335.275	800.000	0.052	0.224
-334.260	-15.428	0.130	0.108
-333.245	-39.320	0.237	0.162
-332.231	-29.474	0.101	-0.075
-331.216	-108.605	0.154	0.043
-330.202	-130.864	-0.147	0.025
-329.187	712.102	-0.087	-0.302
-328.172	-137.438	-0.308	0.045
-327.158	88.276	0.197	0.286
-326.143	48.690	-0.158	0.194
-325.129	-6.060	-0.300	-0.268
-324.114	-110.629	0.078	-0.021
-323.099	800.000	0.071	-0.262
-322.085	597.510	0.151	0.493
-321.070	85.645	0.153	0.220
-320.056	201.522	0.088	0.177
-319.041	800.000	-0.030	0.135
-318.026	35.833	0.466	0.536
-317.012	-49.465	-0.472	-0.293
-315.997	-118.693	0.418	0.095
-314.983	371.377	-0.040	-0.107
-313.968	476.419	0.161	-0.479
-312.953	69.501	-0.251	-0.339
-311.939	240.030	-0.084	-0.183
-310.924	-200.000	0.068	-0.441
-309.910	132.052	-0.162	0.274
-308.895	-134.417	-0.167	-0.026
-307.880	-200.000	0.024	-0.420
-306.866	-117.902	0.740	0.172
-305.851	-138.013	0.450	0.065
-304.837	29.665	-0.226	-0.251
-303.822	2.542	-0.101	-0.095
-302.807	-200.000	0.020	-0.213
-301.793	9.483	-0.153	0.151
-300.778	-27.075	-0.062	-0.047
-299.764	-121.306	0.462	0.100
-298.749	800.000	0.076	0.325
-297.735	-200.000	0.081	0.509
-296.720	-26.001	0.110	0.084
-295.705	-98.298	0.593	0.197
-294.691	-180.962	0.369	-0.010
-293.676	68.037	0.173	0.231
-292.662	-200.000	0.596	0.002
-291.647	-72.366	0.329	-0.158
-290.632	260.321	0.137	0.309
-289.618	-146.223	-0.178	0.020
-288.603	-127.451	-0.368	0.069
-287.589	-73.242	-0.181	0.086
-286.574	-200.000	0.047	0.279
-285.559	-67.251	0.130	-0.067
-284.545	-56.029	-0.285	-0.165
-283.530	-200.000	-0.044	-0.347
-282.516	-22.563	-0.156	0.123
-281.501	-136.136	-0.282	0.043
-280.486	-19.477	-0.362	-0.292
-279.472	-60.273	-0.162	-0.090
-278.457	-200.000	-0.015	-0.351
-277.443	57.958	-0.345	-0.441
-276.428	-37.671	0.224	-0.155
-275.413	-200.000	-0.019	0.242
-274.399	-97.887	-0.508	-0.170
-273.384	-94.330	-0.844	0.299
-272.370	-2.938	-0.182	0.166
-271.355	-53.514	-0.355	0.211
-270.340	-200.000	0.003	-0.025
-269.326	637.540	-0.069	0.232
-268.311	-136.383	-0.328	-0.049
-267.297	42.852	0.362	0.431
-266.282	-74.980	-0.135	0.063
-265.267	-79.899	-0.175	0.076
-264.253	62.216	0.060	-0.078
-263.238	800.000	-0.042	-0.213
-262.224	-119.555	-0.326	0.073
-261.209	62.921	-0.299	0.390
-260.195	-90.000	-0.308	0.116
-259.180	-97.545	0.377	-0.127
-258.165	-156.505	-0.168	-0.013
-257.151	800.000	0.016	0.078
-256.136	267.813	0.113	0.259
-255.122	8.524	0.353	-0.346
-254.107	-155.785	0.307	0.025
-253.092	-23.567	0.523	-0.409
-252.078	-98.133	0.290	0.097
-251.063	35.465	0.169	-0.194
-250.049	-128.141	0.447	-0.083
-249.034	12.035	0.190	-0.190
-248.019	800.000	-0.180	0.687
-247.005	-40.176	-0.351	-0.238
-245.990	-2.935	-0.233	0.212
-244.976	-144.726	-0.408	0.048
-243.961	-200.000	0.007	-0.052
-242.946	-200.000	0.009	-0.342
-241.932	-97.935	-0.394	-0.132
-240.917	27.229	0.222	-0.243
-239.903	-77.395	0.697	0.314
-238.888	-39.225	0.391	-0.267
-237.873	508.767	-0.147	0.448
-236.859	227.225	0.284	0.603
-235.844	-96.018	-0.462	0.159
-234.830	-19.376	-0.288	-0.232
-233.815	170.920	-0.045	0.084
-232.800	-200.000	-0.025	0.152
-231.786	-82.834	0.122	0.051
-230.771	482.921	0.083	-0.246
-229.757	-68.325	0.639	0.322
-228.742	-200.000	-0.029	0.291
-227.727	-54.931	-0.563	-0.330
-226.713	-107.203	-0.180	-0.051
-225.698	50.068	0.266	0.327
-224.684	-200.000	0.025	0.190
-223.669	800.000	0.080	-0.346
-222.655	213.858	0.150	-0.309
-221.640	-200.000	0.072	-0.455
-220.625	-99.076	-0.190	0.062
-219.611	324.786	0.125	-0.312
-218.596	-108.335	-0.033	0.009
-217.582	-54.655	0.423	-0.248
-216.567	-47.431	0.224	0.142
-215.552	253.529	-0.127	0.283
-214.538	-158.526	0.518	-0.038
-213.523	-48.908	0.376	0.234
-212.509	-94.537	0.245	-0.086
-211.494	800.000	-0.098	-0.450
-210.479	-99.145	0.191	-0.062
-209.465	143.461	0.153	-0.265
-208.450	-15.750	0.297	-0.246
-207.436	66.627	-0.286	-0.378
-206.421	-157.787	-0.438	0.033
-205.406	431.258	-0.058	-0.164
-204.392	1.785	0.190	-0.178
-203.377	373.176	0.065	0.173
-202.363	800.000	-0.028	0.110
-201.348	-46.700	0.018	0.011
-200.333	-146.870	0.472	-0.052
-199.319	-134.043	0.242	-0.039
-198.304	800.000	0.082	0.368
-197.290	-200.000	0.032	0.338
-196.275	31.031	0.139	-0.155
-195.260	229.530	0.092	-0.196
-194.246	-20.021	-0.363	-0.291
-193.231	-130.776	-0.614	0.106
-192.217	800.000	0.053	-0.214
-191.202	98.000	0.226	-0.338
-190.187	269.035	0.194	0.444
-189.173	-200.000	-0.035	-0.240
-188.158	800.000	0.088	-0.456
-187.144	-6.013	0.096	-0.086
-186.129	-118.718	0.227	0.052
-185.114	58.060	0.036	-0.046
-184.100	-82.771	-0.421	0.176
-183.085	218.833	0.056	0.116
-182.071	195.277	0.128	-0.254
-181.056	800.000	0.034	0.180
-180.042	-97.029	0.223	0.075
-179.027	257.063	0.164	0.367
-178.012	56.103	0.177	0.224
-176.998	-200.000	-0.026	-0.269
-175.983	13.157	0.229	-0.230
-174.969	-98.796	0.139	-0.046
-173.954	-46.666	0.337	-0.214
-172.939	-168.274	-0.554	0.027
-171.925	178.780	-0.050	0.094
-170.910	-105.794	0.506	0.148
-169.896	-54.396	0.232	-0.136
-168.881	800.000	0.144	-0.622
-167.866	-144.001	-0.775	0.094
-166.852	-14.840	-0.088	0.073
-165.837	222.545	-0.110	-0.230
-164.823	-200.000	-0.009	0.088
-163.808	-60.521	0.284	0.156
-162.793	-122.993	0.926	0.192
-161.779	-2.269	0.160	-0.145
-160.764	-43.833	0.371	-0.242
-159.750	131.810	-0.099	0.166
-158.735	518.137	0.197	0.602
-157.720	102.416	-0.033	0.050
-156.706	-79.069	-0.203	-0.089
-155.691	-50.650	0.346	0.211
-154.677	-200.000	0.018	0.156
-153.662	49.176	-0.560	-0.683
-152.647	-135.139	-0.297	-0.046
-151.633	-102.026	-0.251	-0.078
-150.618	16.830	0.408	-0.419
-149.604	-28.835	-0.137	0.102
-148.589	-68.931	0.405	0.202
-147.574	126.764	0.185	0.305
-146.560	313.503	-0.064	0.156
-145.545	-122.584	0.306	0.064
-144.531	-200.000	0.035	0.638
-143.516	79.363	-0.245	0.342
-142.502	8.826	-0.193	-0.189
-141.487	63.405	-0.175	-0.228
-140.472	-77.472	0.237	-0.106
-139.458	-47.769	-0.280	0.175
-138.443	-111.311	-0.305	-0.080
-137.429	-200.000	0.041	0.427
-136.414	534.869	-0.065	0.199
-135.399	-174.356	-0.460	0.017
-134.385	-89.199	-0.090	0.034
-133.370	-153.194	-0.343	0.031
-132.356	-70.860	-0.438	0.213
-131.341	-98.092	0.149	0.050
-130.326	286.495	-0.223	-0.525
-129.312	54.063	-0.087	-0.109
-128.297	-168.165	0.385	-0.019
-127.283	-200.000	0.015	-0.210
-126.268	17.623	-0.289	0.298
-125.253	-147.989	0.283	-0.030
-124.239	-172.986	0.335	0.013
-123.224	-200.000	-0.069	0.518
-122.210	23.878	-0.200	0.214
-121.195	-143.764	-0.132	-0.016
