DTS Sentinel unit serial number:	SN409020Multiplexer serial number:	ORYXHardware model number:	OX4-SRSoftware version number:	ORYX F/W v3.00 Oryx Data Collector v3.7.2.0data status	okinstallation	HaddamTimeLapsedifferential loss correction	single-endedforward channel	channel 3reverse channel	N/Adate	2011/06/22time	11:16:02forward acquisition time	30.00reverse acquisition time	0.00gamma	498.7831k internal	0.1763k external	0.1763temperature offset calibration	1.0074default loss term (dB/km)	0.3790temperature slope calibration	1.3530multiplexer offset coefficient	1.0000multiplexer slope coefficient	1.0000fibre end	0.00T internal ref (°C)	29.12T ext. ref 1 (°C)	24.06T ext. ref 2 (°C)	-0.10length (m)	temperature (°C)	Stokes	anti-Stokes-747.200	-200.000	-0.008	0.173
-746.185	682.283	0.177	0.611
-745.171	116.603	-0.123	-0.199
-744.156	44.765	-0.385	0.467
-743.142	88.647	0.131	0.192
-742.127	-200.000	-0.017	0.604
-741.112	-200.000	0.003	-0.710
-740.098	23.410	-0.292	0.317
-739.083	-160.851	-0.147	-0.010
-738.069	-200.000	-0.017	0.356
-737.054	-60.420	-0.062	0.034
-736.039	-113.841	-0.368	0.094
-735.025	-96.896	-0.165	0.057
-734.010	12.239	0.185	0.188
-732.996	269.449	-0.163	0.378
-731.981	-106.241	0.531	-0.156
-730.966	-200.000	-0.028	-0.451
-729.952	-129.638	-0.418	0.075
-728.937	-15.668	-0.419	-0.352
-727.923	-99.220	-0.291	-0.096
-726.908	317.047	0.058	0.146
-725.894	104.769	0.102	-0.159
-724.879	-190.340	0.442	0.006
-723.864	-200.000	0.016	0.244
-722.850	-74.019	0.204	-0.097
-721.835	327.481	0.175	-0.445
-720.821	-45.375	-0.239	0.156
-719.806	-49.493	0.365	-0.228
-718.791	-86.383	-0.432	-0.174
-717.777	47.677	-0.084	0.103
-716.762	-49.823	-0.215	0.134
-715.748	-200.000	-0.064	0.456
-714.733	-148.230	0.280	0.030
-713.718	99.238	0.235	-0.359
-712.704	139.455	0.101	-0.176
-711.689	726.284	0.092	-0.326
-710.675	-2.610	-0.240	-0.221
-709.660	162.063	-0.158	0.293
-708.645	247.981	-0.188	0.421
-707.631	-42.920	0.332	-0.221
-706.616	-9.717	0.211	-0.185
-705.602	-200.000	0.041	0.243
-704.587	-108.241	-0.219	-0.062
-703.572	-200.000	0.001	-0.060
-702.558	-114.674	0.122	0.031
-701.543	503.278	-0.096	-0.294
-700.529	-16.545	-0.155	-0.129
-699.514	-200.000	0.014	-0.140
-698.499	-134.497	0.278	-0.044
-697.485	130.017	-0.115	-0.194
-696.470	-75.355	-0.385	-0.180
-695.456	45.658	0.163	-0.198
-694.441	334.075	0.034	0.088
-693.426	-93.710	-0.319	-0.115
-692.412	-76.417	-0.311	-0.143
-691.397	551.292	0.089	0.282
-690.383	-22.031	0.288	0.230
-689.368	51.746	-0.242	-0.304
-688.354	-140.488	-0.384	-0.052
-687.339	-146.077	0.934	-0.107
-686.324	231.460	-0.291	0.631
-685.310	378.272	-0.063	0.170
-684.295	27.357	-0.310	-0.342
-683.281	-200.000	-0.018	0.245
-682.266	192.160	0.029	0.058
-681.251	256.807	0.124	-0.281
-680.237	220.410	0.219	0.464
-679.222	149.661	-0.174	-0.311
-678.208	181.356	-0.087	-0.169
-677.193	174.283	0.105	0.201
-676.178	-127.519	-0.153	-0.029
-675.164	-32.490	-0.105	-0.077
-674.149	-97.390	-0.729	0.248
-673.135	-200.000	0.033	0.205
-672.120	-134.104	-0.456	-0.073
-671.105	718.553	0.079	-0.279
-670.091	-100.882	-0.349	-0.112
-669.076	800.000	-0.014	-0.061
-668.062	67.904	0.362	0.487
-667.047	64.761	-0.136	0.180
-666.032	270.678	0.083	0.193
-665.018	800.000	-0.012	-0.045
-664.003	43.326	-0.127	0.152
-662.989	-28.198	0.340	-0.258
-661.974	-161.000	-0.276	-0.019
-660.959	-83.084	-0.554	-0.233
-659.945	-143.282	-0.062	-0.008
-658.930	-200.000	0.033	0.425
-657.916	138.757	-0.272	0.471
-656.901	52.355	-0.177	0.222
-655.886	600.599	-0.097	-0.317
-654.872	800.000	0.007	-0.039
-653.857	-29.918	-0.216	0.161
-652.843	20.244	0.215	0.228
-651.828	15.496	0.086	0.089
-650.814	-200.000	-0.037	-0.496
-649.799	194.896	-0.113	-0.226
-648.784	-200.000	0.023	-0.295
-647.770	12.026	-0.264	-0.267
-646.755	-73.303	0.159	0.076
-645.741	-52.970	0.060	-0.036
-644.726	-3.657	0.352	0.321
-643.711	-145.523	-0.484	0.056
-642.697	-64.675	0.163	0.087
-641.682	-89.191	0.406	0.157
-640.668	-109.415	-0.430	0.119
-639.653	-68.422	-0.360	-0.183
-638.638	-66.364	-0.328	-0.171
-637.624	-107.352	-0.168	-0.048
-636.609	-200.000	-0.007	0.048
-635.595	-200.000	-0.069	0.421
-634.580	-20.054	-0.132	0.106
-633.565	-200.000	-0.022	0.208
-632.551	-166.557	-0.238	-0.013
-631.536	800.000	0.011	0.054
-630.522	-143.927	0.463	-0.057
-629.507	-34.192	-0.341	-0.246
-628.492	13.202	-0.220	0.224
-627.478	69.038	0.174	-0.235
-626.463	-152.175	0.086	0.008
-625.449	224.380	-0.077	-0.164
-624.434	-22.523	0.221	-0.175
-623.419	125.733	0.225	-0.373
-622.405	648.529	-0.181	0.611
-621.390	-92.306	0.359	0.132
-620.376	181.185	-0.215	-0.417
-619.361	616.351	0.154	0.508
-618.346	75.633	0.107	0.149
-617.332	90.617	0.184	0.271
-616.317	-102.468	0.197	0.061
-615.303	-91.905	-0.455	-0.169
-614.288	-86.940	0.151	0.060
-613.273	-172.291	0.013	-0.001
-612.259	103.676	0.132	-0.204
-611.244	-95.918	-0.233	0.081
-610.230	-131.618	0.323	-0.055
-609.215	423.435	-0.098	-0.279
-608.201	-16.605	0.401	-0.333
-607.186	151.604	-0.105	0.188
-606.171	-54.977	0.325	0.192
-605.157	115.950	-0.239	-0.385
-604.142	780.713	-0.157	-0.567
-603.128	-200.000	-0.012	0.212
-602.113	-200.000	0.017	-0.490
-601.098	-95.713	0.137	0.048
-600.084	-65.857	0.178	0.093
-599.069	140.390	-0.122	-0.212
-598.055	800.000	0.108	-0.606
-597.040	-82.530	-0.479	-0.203
-596.025	86.588	0.208	0.301
-595.011	-63.211	-0.195	-0.105
-593.996	-137.033	0.431	-0.064
-592.982	-200.000	0.013	-0.167
-591.967	190.183	0.116	-0.228
-590.952	-149.360	0.296	-0.030
-589.938	-128.565	-0.513	-0.094
-588.923	412.834	0.190	-0.533
-587.909	-120.836	0.062	-0.014
-586.894	499.983	-0.086	0.261
-585.879	800.000	0.035	0.174
-584.865	-122.850	0.269	-0.056
-583.850	-31.021	0.103	-0.076
-582.836	-200.000	-0.004	-0.110
-581.821	326.999	0.062	-0.156
-580.806	-68.777	-0.357	0.180
-579.792	800.000	-0.092	-0.343
-578.777	18.823	0.136	0.142
-577.763	387.511	0.035	0.097
-576.748	-200.000	0.012	0.461
-575.733	-140.167	-0.370	-0.050
-574.719	196.926	0.183	-0.366
-573.704	-138.216	0.464	-0.067
-572.690	-200.000	-0.093	-0.561
-571.675	-47.948	0.224	-0.142
-570.661	-25.395	-0.295	0.228
-569.646	-200.000	-0.005	0.527
-568.631	-200.000	0.020	0.159
-567.617	-56.905	-0.066	-0.038
-566.602	-200.000	-0.019	0.381
-565.588	-110.267	-0.642	0.174
-564.573	15.326	-0.381	0.391
-563.558	-104.830	0.507	-0.152
-562.544	-15.628	0.275	0.229
-561.529	-91.650	-0.666	0.247
-560.515	-200.000	-0.003	0.097
-559.500	-141.558	0.298	-0.039
-558.485	73.384	0.076	0.104
-557.471	-49.836	0.298	-0.185
-556.456	42.118	0.187	-0.222
-555.442	-200.000	-0.029	0.376
-554.427	162.457	-0.215	0.395
-553.412	-52.780	0.329	0.198
-552.398	692.822	0.162	-0.559
-551.383	-131.122	-0.283	-0.049
-550.369	-44.104	0.143	0.094
-549.354	-132.495	0.388	0.065
-548.339	800.000	0.057	-0.216
-547.325	-96.429	-0.217	-0.075
-546.310	-200.000	-0.017	-0.107
-545.296	-156.565	0.792	-0.064
-544.281	371.981	-0.043	0.115
-543.266	736.559	0.012	0.041
-542.252	-200.000	0.047	-0.538
-541.237	-120.082	0.351	0.078
-540.223	-70.968	0.220	-0.108
-539.208	660.689	-0.090	0.306
-538.193	-137.498	0.046	-0.007
-537.179	-133.697	0.443	0.072
-536.164	-60.887	0.082	-0.045
-535.150	122.029	-0.227	0.371
-534.135	-170.818	-0.362	-0.016
-533.121	101.724	-0.201	0.307
-532.106	5.086	0.262	0.252
-531.091	800.000	-0.021	0.121
-530.077	800.000	-0.043	-0.197
-529.062	88.299	-0.208	-0.303
-528.048	168.705	0.181	0.339
-527.033	-81.751	-0.358	0.153
-526.018	56.712	0.288	-0.367
-525.004	-73.905	-0.382	-0.181
-523.989	-139.432	0.332	-0.046
-522.975	82.316	0.055	-0.078
-521.960	-200.000	0.063	0.842
-520.945	-47.408	-0.276	0.175
-519.931	-200.000	-0.027	-0.308
-518.916	62.065	-0.290	0.378
-517.902	137.604	-0.411	0.705
-516.887	121.774	0.328	-0.536
-515.872	-42.291	-0.393	-0.262
-514.858	-121.480	-0.621	0.134
-513.843	96.573	-0.055	0.083
-512.829	62.515	0.208	0.272
-511.814	98.661	0.087	0.132
-510.799	85.874	-0.201	0.290
-509.785	-75.212	-0.090	-0.042
-508.770	22.214	-0.586	-0.626
-507.756	800.000	-0.150	-0.563
-506.741	800.000	-0.057	-0.330
-505.726	-9.175	0.165	-0.144
-504.712	-200.000	-0.075	-0.530
-503.697	162.828	0.077	-0.142
-502.683	-120.820	0.167	0.037
-501.668	34.046	-0.067	-0.076
-500.653	52.751	-0.373	0.466
-499.639	-107.984	-0.455	-0.128
-498.624	-11.329	-0.195	0.168
-497.610	-167.044	-0.324	-0.017
-496.595	-53.478	0.055	0.033
-495.581	315.789	-0.077	0.190
-494.566	5.465	0.241	0.232
-493.551	-19.379	0.358	0.289
-492.537	-200.000	0.022	-0.679
-491.522	60.896	-0.060	-0.077
-490.508	-200.000	-0.063	0.532
-489.493	-14.426	0.003	-0.003
-488.478	-15.542	-0.176	0.146
-487.464	-200.000	-0.012	0.275
-486.449	42.979	0.085	0.101
-485.435	-126.914	-0.170	-0.032
-484.420	-81.009	-0.083	-0.036
-483.405	400.068	-0.126	-0.346
-482.391	74.935	0.062	0.085
-481.376	-106.910	-0.593	-0.170
-480.362	-30.887	-0.298	0.220
-479.347	42.355	0.091	0.108
-478.332	499.097	-0.156	0.472
-477.318	749.763	0.024	-0.086
-476.303	-23.302	-0.236	0.185
-475.289	142.225	0.039	0.068
-474.274	-42.303	-0.152	0.101
-473.259	-200.000	-0.009	-0.073
-472.245	-41.826	-0.463	0.309
-471.230	-90.629	-0.433	-0.162
-470.216	-193.463	-0.434	0.005
-469.201	800.000	0.035	0.138
-468.186	109.009	-0.094	-0.147
-467.172	-96.588	-0.529	0.181
-466.157	256.617	-0.100	0.225
-465.143	-26.624	0.247	0.188
-464.128	248.989	-0.106	-0.235
-463.113	800.000	0.053	-0.261
-462.099	-200.000	-0.020	-0.222
-461.084	-51.428	-0.112	0.068
-460.070	-23.955	-0.147	0.114
-459.055	-194.464	-0.548	0.006
-458.040	-8.567	0.123	0.108
-457.026	800.000	0.081	0.381
-456.011	7.186	0.189	0.184
-454.997	228.542	0.170	-0.362
-453.982	-150.512	-0.344	0.034
-452.968	800.000	0.057	0.277
-451.953	-152.759	0.454	0.042
-450.938	475.068	-0.082	0.243
-449.924	-69.902	-0.428	0.212
-448.909	150.858	-0.064	-0.114
-447.895	-189.047	-0.141	0.002
-446.880	-34.926	-0.360	0.255
-445.865	800.000	-0.102	0.432
-444.851	-160.314	0.345	-0.024
-443.836	800.000	0.107	-0.569
-442.822	-35.641	-0.317	0.224
-441.807	-29.482	-0.025	0.019
-440.792	-17.415	0.098	0.080
-439.778	10.248	-0.402	-0.398
-438.763	-128.369	0.462	-0.085
-437.749	247.148	0.354	0.781
-436.734	-200.000	0.094	0.586
-435.719	-50.447	-0.218	-0.134
-434.705	-200.000	-0.041	0.425
-433.690	581.929	0.182	0.585
-432.676	-200.000	-0.008	0.434
-431.661	-163.172	-0.112	-0.007
-430.646	196.107	0.178	0.354
-429.632	225.436	-0.164	0.346
-428.617	-98.794	0.213	-0.070
-427.603	-142.259	-0.326	-0.041
-426.588	68.802	0.171	-0.229
-425.573	-27.470	0.395	0.299
-424.559	-31.028	-0.091	0.067
-423.544	800.000	-0.020	-0.101
-422.530	-127.443	-0.097	-0.018
-421.515	-134.104	0.145	0.023
-420.500	-57.655	0.255	0.145
-419.486	-107.235	0.410	-0.117
-418.471	800.000	-0.043	-0.156
-417.457	112.095	0.135	0.213
-416.442	-56.462	0.567	-0.327
-415.428	402.911	0.199	-0.548
-414.413	35.979	0.275	-0.315
-413.398	40.357	-0.335	-0.392
-412.384	142.881	-0.080	0.139
-411.369	-41.022	0.502	0.337
-410.355	800.000	0.013	0.063
-409.340	-200.000	0.013	-0.179
-408.325	-90.617	-0.403	-0.151
-407.311	37.772	-0.282	-0.326
-406.296	319.263	0.045	0.110
-405.282	390.502	0.067	-0.181
-404.267	-39.746	0.707	-0.480
-403.252	129.601	0.266	0.444
-402.238	-200.000	0.013	0.409
-401.223	194.136	-0.386	0.763
-400.209	163.479	0.228	-0.419
-399.194	-76.764	0.217	0.099
-398.179	543.679	-0.155	0.483
-397.165	-113.745	0.355	-0.089
-396.150	16.000	0.120	-0.123
-395.136	119.459	-0.141	0.227
-394.121	-111.192	-0.389	-0.103
-393.106	-158.423	-0.168	0.013
-392.092	-115.441	0.435	0.106
-391.077	182.493	0.159	0.307
-390.063	-112.093	-0.323	-0.084
-389.048	125.469	0.227	0.373
-388.033	-150.954	-0.217	0.021
-387.019	-102.371	-0.276	-0.085
-386.004	-120.993	-0.337	-0.073
-384.990	-200.000	-0.009	0.208
-383.975	37.350	0.042	0.048
-382.960	58.357	0.329	0.420
-381.946	-33.416	0.153	0.110
-380.931	135.909	-0.135	0.229
-379.917	-129.008	0.404	-0.073
-378.902	-112.803	-0.158	0.041
-377.888	28.666	-0.172	0.189
-376.873	-145.554	0.167	-0.019
-375.858	174.239	-0.081	0.152
-374.844	-62.458	0.258	0.139
-373.829	-62.338	0.370	0.200
-372.815	-85.036	0.080	-0.033
-371.800	-95.916	-0.266	0.092
-370.785	-67.696	-0.338	0.171
-369.771	-132.467	-0.418	0.069
-368.756	-90.563	0.396	0.148
-367.742	-200.000	-0.052	0.433
-366.727	-1.021	0.356	-0.327
-365.712	77.554	0.089	-0.124
-364.698	-127.287	-0.091	0.017
-363.683	166.018	-0.151	0.279
-362.669	85.232	0.211	0.302
-361.654	800.000	-0.069	0.334
-360.639	-200.000	0.008	-0.379
-359.625	-2.547	-0.104	-0.095
-358.610	-200.000	0.019	0.245
-357.596	-42.402	0.548	-0.363
-356.581	55.668	0.408	-0.513
-355.566	-52.872	0.319	0.191
-354.552	167.078	0.255	0.471
-353.537	4.553	-0.295	-0.281
-352.523	-93.201	-0.533	-0.191
-351.508	800.000	-0.030	-0.121
-350.493	-24.018	-0.100	-0.078
-349.479	-200.000	-0.010	-0.067
-348.464	-200.000	-0.015	0.160
-347.450	-28.094	-0.339	-0.254
-346.435	-117.100	-0.171	-0.040
-345.420	31.058	0.196	0.219
-344.406	-45.424	-0.213	0.137
-343.391	-108.934	0.433	0.119
-342.377	-200.000	-0.031	0.192
-341.362	230.619	0.062	-0.132
-340.348	13.051	-0.277	0.278
-339.333	-131.711	0.197	0.033
-338.318	458.582	0.154	0.448
-337.304	-58.858	0.220	0.123
-336.289	111.086	-0.084	-0.131
-335.275	31.216	0.223	0.248
-334.260	-116.747	0.775	-0.183
-333.245	755.219	-0.044	-0.154
-332.231	370.219	0.130	0.343
-331.216	-67.684	0.358	-0.181
-330.202	135.805	0.063	-0.106
-329.187	273.106	-0.109	-0.251
-328.172	-200.000	0.010	-0.413
-327.158	0.540	-0.141	-0.131
-326.143	623.678	-0.060	-0.199
-325.129	-110.747	0.652	-0.173
-324.114	-200.000	-0.024	0.165
-323.099	50.649	0.110	-0.135
-322.085	-200.000	0.026	-0.185
-321.070	-31.475	-0.239	-0.174
-320.056	-200.000	-0.040	-0.304
-319.041	-200.000	0.020	-0.444
-318.026	-149.720	-0.317	0.032
-317.012	116.974	-0.098	0.156
-315.997	-85.851	0.765	-0.306
-314.983	-116.396	-0.366	0.087
-313.968	800.000	0.068	0.358
-312.953	-200.000	0.026	0.369
-311.939	-7.030	-0.372	0.327
-310.924	-123.911	0.210	0.043
-309.910	-11.861	0.142	-0.120
-308.895	-65.701	0.142	0.074
-307.880	-23.765	-0.064	-0.049
-306.866	126.756	-0.161	-0.265
-305.851	367.572	-0.064	-0.169
-304.837	-149.955	0.288	0.029
-303.822	-183.086	0.284	-0.006
-302.807	-45.176	0.340	0.218
-301.793	-7.435	0.315	-0.276
-300.778	46.891	0.091	0.110
-299.764	5.480	-0.240	0.230
-298.749	221.933	-0.175	-0.366
-297.735	-102.435	0.524	-0.162
-296.720	800.000	0.067	-0.285
-295.705	63.483	0.141	0.183
-294.691	30.032	0.088	0.098
-293.676	-200.000	0.086	0.599
-292.662	316.459	0.128	0.315
-291.647	237.722	-0.082	-0.177
-290.632	800.000	-0.011	0.050
-289.618	114.147	-0.244	0.385
-288.603	155.997	-0.086	-0.155
-287.589	800.000	0.044	-0.246
-286.574	-76.568	-0.334	-0.151
-285.559	-68.692	0.174	-0.087
-284.545	-200.000	-0.023	0.141
-283.530	-175.100	-0.386	-0.014
-282.516	-111.911	-0.453	-0.118
-281.501	-168.390	0.360	0.018
-280.486	-92.555	-0.290	-0.105
-279.472	88.377	-0.053	-0.077
-278.457	-88.822	-0.484	0.185
-277.443	696.029	-0.146	-0.499
-276.428	800.000	0.061	-0.301
-275.413	-200.000	0.030	-0.200
-274.399	800.000	0.032	-0.165
-273.384	800.000	0.113	0.482
-272.370	-130.270	0.486	0.085
-271.355	-118.326	-0.077	0.017
-270.340	498.281	-0.103	0.309
-269.326	-52.339	0.471	0.282
-268.311	139.806	-0.095	0.162
-267.297	11.626	0.169	-0.168
-266.282	800.000	0.103	-0.482
-265.267	-18.737	-0.214	0.172
-264.253	800.000	0.015	-0.067
-263.238	-16.710	-0.263	-0.215
-262.224	13.391	0.176	0.177
-261.209	-147.508	-0.242	-0.026
-260.195	190.059	-0.102	0.199
-259.180	42.621	-0.054	0.063
-258.165	-56.383	0.034	-0.019
-257.151	-200.000	-0.047	-0.386
-256.136	-112.805	0.203	0.052
-255.122	-189.286	-0.332	0.005
-254.107	31.104	0.270	0.300
-253.092	-185.086	0.408	0.008
-252.078	-98.951	0.181	-0.059
-251.063	205.851	-0.104	0.210
-250.049	-74.706	-0.103	0.048
-249.034	265.654	0.108	-0.245
-248.019	-90.040	-0.245	-0.092
-247.005	-200.000	-0.026	0.202
-245.990	466.901	0.206	-0.599
-244.976	8.526	0.137	-0.133
-243.961	-67.529	0.417	0.211
-242.946	242.700	0.018	-0.040
-241.932	-149.909	-0.402	0.040
-240.917	-88.491	-0.034	0.013
-239.903	-101.378	-0.294	-0.092
-238.888	298.621	-0.112	-0.269
-237.873	-95.695	0.405	0.139
-236.859	347.823	-0.096	0.246
-235.844	-100.545	0.273	0.087
-234.830	800.000	0.086	-0.376
-233.815	-54.282	-0.218	-0.128
-232.800	10.954	-0.454	-0.448
-231.786	-119.096	-0.231	0.052
-230.771	196.077	-0.234	-0.462
-229.757	212.320	-0.039	-0.079
-228.742	-200.000	0.089	-0.593
-227.727	-119.047	-0.208	-0.047
-226.713	-200.000	0.004	0.169
-225.698	17.487	0.298	0.306
-224.684	-74.989	-0.311	0.143
-223.669	-187.054	0.141	0.002
-222.655	-187.174	-0.676	-0.012
-221.640	-67.278	-0.381	0.193
-220.625	182.854	0.077	0.147
-219.611	-94.569	0.520	0.182
-218.596	-200.000	0.023	-0.179
-217.582	-200.000	0.022	0.182
-216.567	30.955	0.246	0.273
-215.552	-200.000	-0.035	0.283
-214.538	-157.015	-0.455	-0.035
-213.523	58.232	-0.044	0.055
-212.509	-200.000	0.027	-0.422
-211.494	-41.357	-0.366	0.243
-210.479	-200.000	-0.000	-0.609
-209.465	41.851	0.171	-0.200
-208.450	199.926	-0.170	0.338
-207.436	-115.257	-0.018	0.004
-206.421	100.401	0.181	-0.272
-205.406	-70.764	-0.280	-0.136
-204.392	363.915	-0.114	-0.297
-203.377	-92.809	0.343	0.123
-202.363	188.087	0.048	-0.092
-201.348	-200.000	-0.003	-0.055
-200.333	195.953	-0.363	-0.715
-199.319	-179.428	0.490	0.014
-198.304	-95.045	0.089	0.031
-197.290	78.910	0.164	-0.227
-196.275	-200.000	0.011	-0.212
-195.260	-128.956	0.096	-0.017
-194.246	-99.730	0.274	0.088
-193.231	-200.000	-0.039	-0.507
-192.217	49.650	0.057	-0.069
-191.202	-200.000	-0.274	-0.001
-190.187	-105.803	-0.262	0.076
-189.173	348.546	-0.161	0.411
-188.158	27.663	0.113	-0.123
-187.144	-200.000	0.065	-0.391
-186.129	63.467	0.269	-0.349
-185.114	-7.886	0.303	-0.264
-184.100	-13.359	-0.096	0.080
-183.085	-144.755	0.357	-0.042
-182.071	251.104	-0.094	-0.207
-181.056	149.491	-0.186	0.327
-180.042	800.000	-0.069	-0.279
-179.027	203.511	-0.039	-0.079
-178.012	61.423	0.362	-0.465
-176.998	-181.443	0.400	-0.010
-175.983	3.942	-0.485	-0.457
-174.969	-23.356	-0.714	-0.553
-173.954	63.785	0.451	0.585
-172.939	-200.000	0.001	0.030
-171.925	-113.227	-0.164	-0.041
-170.910	134.587	-0.121	-0.203
-169.896	678.007	-0.093	-0.313
-168.881	-40.948	0.307	-0.204
-167.866	-62.766	-0.072	0.039
-166.852	-64.844	0.110	0.057
-165.837	-12.541	0.090	-0.076
-164.823	355.893	-0.111	-0.287
-163.808	-54.667	0.344	0.200
-162.793	-200.000	0.038	0.320
-161.779	-133.667	-0.257	-0.041
-160.764	557.603	0.124	-0.386
-159.750	-93.471	0.156	-0.055
-158.735	-99.520	-0.400	-0.129
-157.720	-165.579	0.176	-0.010
-156.706	218.519	0.076	0.157
-155.691	196.262	0.039	0.078
-154.677	99.963	0.078	-0.117
-153.662	800.000	-0.088	-0.372
-152.647	401.029	-0.087	0.236
-151.633	301.482	0.152	0.364
-150.618	-200.000	0.024	0.166
-149.604	125.918	0.232	0.378
-148.589	-121.873	-0.241	-0.051
-147.574	800.000	0.094	0.386
-146.560	303.595	-0.103	-0.248
-145.545	-7.566	-0.383	0.333
-144.531	26.847	0.226	0.244
-143.516	-121.796	-0.426	0.090
-142.502	15.033	-0.135	0.136
-141.487	-92.210	0.272	0.098
-140.472	621.582	0.065	-0.213
-139.458	43.472	0.044	-0.052
-138.443	-5.886	-0.381	-0.335
-137.429	-141.134	0.233	0.030
-136.414	-117.665	-0.642	0.148
-135.399	-99.549	-0.911	0.293
-134.385	193.817	0.167	0.327
-133.370	197.036	-0.147	-0.290
-132.356	-31.213	0.096	0.070
-131.341	204.103	0.155	-0.310
-130.326	148.562	-0.054	0.095
-129.312	44.925	-0.102	-0.121
-128.297	-78.393	-0.416	0.183
-127.283	176.426	0.181	0.339
-126.268	-153.862	-0.718	0.062
-125.253	-70.468	0.196	0.095
-124.239	-123.832	0.171	0.034
-123.224	-50.234	-0.500	0.303
-122.210	370.801	0.136	0.358
