DTS Sentinel unit serial number:	SN409020Multiplexer serial number:	ORYXHardware model number:	OX4-SRSoftware version number:	ORYX F/W v3.00 Oryx Data Collector v3.7.2.0data status	okinstallation	HaddamTimeLapsedifferential loss correction	single-endedforward channel	channel 3reverse channel	N/Adate	2011/06/22time	01:06:16forward acquisition time	30.00reverse acquisition time	0.00gamma	498.7831k internal	0.1751k external	0.1751temperature offset calibration	1.0074default loss term (dB/km)	0.3790temperature slope calibration	1.3530multiplexer offset coefficient	1.0000multiplexer slope coefficient	1.0000fibre end	0.00T internal ref (°C)	22.50T ext. ref 1 (°C)	17.84T ext. ref 2 (°C)	0.03length (m)	temperature (°C)	Stokes	anti-Stokes-747.200	272.010	-0.098	0.230
-746.185	-147.923	-0.087	-0.009
-745.171	-35.812	-0.090	0.065
-744.156	-113.066	-0.761	0.198
-743.142	559.779	0.073	-0.237
-742.127	-200.000	-0.009	-0.133
-741.112	194.314	-0.112	0.226
-740.098	-200.000	0.111	0.666
-739.083	-107.219	-0.096	-0.028
-738.069	335.115	-0.147	0.379
-737.054	122.978	0.189	-0.314
-736.039	-87.973	-0.635	0.252
-735.025	-91.398	0.337	-0.127
-734.010	306.516	0.112	0.278
-732.996	-106.206	-0.106	-0.031
-731.981	75.856	-0.230	0.323
-730.966	58.323	-0.167	-0.218
-729.952	-48.070	-0.195	0.125
-728.937	-17.938	-0.419	-0.348
-727.923	190.852	-0.111	-0.222
-726.908	60.503	0.214	0.281
-725.894	800.000	-0.045	0.184
-724.879	43.744	-0.059	-0.072
-723.864	223.223	-0.199	-0.428
-722.850	-70.673	-0.414	-0.207
-721.835	111.463	0.191	0.306
-720.821	-34.487	-0.332	-0.241
-719.806	211.621	0.321	0.673
-718.791	-159.094	-0.341	-0.025
-717.777	519.772	0.094	-0.295
-716.762	-67.003	0.208	-0.109
-715.748	800.000	-0.083	-0.357
-714.733	67.626	-0.328	0.445
-713.718	446.548	-0.132	-0.386
-712.704	-118.310	-0.434	-0.101
-711.689	-4.805	-0.297	-0.272
-710.675	-66.931	0.373	0.195
-709.660	-163.132	-0.726	-0.046
-708.645	-80.538	-0.101	0.045
-707.631	-200.000	-0.056	-0.482
-706.616	-132.582	-0.480	0.081
-705.602	-105.871	-0.332	0.099
-704.587	-187.711	0.453	-0.008
-703.572	-76.575	0.584	0.271
-702.558	-200.000	0.033	0.294
-701.543	-113.588	-0.164	0.042
-700.529	-0.091	0.314	0.296
-699.514	269.851	-0.079	0.184
-698.499	-65.524	-0.323	0.171
-697.485	800.000	0.090	-0.432
-696.470	-181.502	-0.292	-0.007
-695.456	-69.690	-0.255	-0.129
-694.441	-80.741	-0.133	0.058
-693.426	159.799	0.103	-0.190
-692.412	-200.000	0.008	0.451
-691.397	-168.496	-0.447	-0.022
-690.383	-121.659	0.527	-0.115
-689.368	-200.000	0.018	0.188
-688.354	-96.460	-0.490	-0.171
-687.339	-52.719	-0.123	0.075
-686.324	-162.323	0.241	-0.016
-685.310	-80.172	0.218	0.096
-684.295	-107.922	0.028	0.008
-683.281	46.801	0.120	-0.147
-682.266	129.047	0.214	-0.362
-681.251	318.473	-0.150	0.379
-680.237	363.019	0.142	-0.381
-679.222	-65.214	-0.537	0.286
-678.208	339.204	-0.164	0.426
-677.193	800.000	0.051	0.198
-676.178	-23.902	0.377	-0.298
-675.164	-90.887	-0.423	0.161
-674.149	-125.005	-0.104	-0.021
-673.135	-129.039	-0.332	-0.061
-672.120	-32.178	-0.325	-0.240
-671.105	800.000	-0.064	-0.340
-670.091	-146.168	-0.380	-0.044
-669.076	-3.540	-0.156	-0.144
-668.062	193.404	0.150	0.302
-667.047	2.958	0.092	0.088
-666.032	-126.268	-0.357	-0.070
-665.018	-200.000	-0.005	0.269
-664.003	-200.000	0.242	0.001
-662.989	-14.866	-0.390	-0.330
-661.974	-200.000	-0.039	0.386
-660.959	-106.431	-0.307	-0.090
-659.945	-89.883	0.155	-0.059
-658.930	-112.480	-0.332	-0.087
-657.916	-200.000	0.004	-0.166
-656.901	-47.906	-0.433	-0.277
-655.886	19.108	-0.182	-0.193
-654.872	75.211	0.250	0.349
-653.857	-196.011	0.398	0.004
-652.843	762.290	-0.026	0.093
-651.828	-32.941	0.239	-0.175
-650.814	53.201	-0.146	0.186
-649.799	-200.000	0.006	-0.462
-648.784	-47.119	-0.240	-0.155
-647.770	-200.000	0.011	-0.196
-646.755	-176.744	-0.729	-0.024
-645.741	-95.955	-0.275	-0.096
-644.726	101.391	0.059	0.092
-643.711	297.524	0.070	-0.170
-642.697	-81.663	-0.192	-0.083
-641.682	-200.000	-0.009	0.090
-640.668	-49.701	0.075	0.047
-639.653	8.601	0.266	-0.265
-638.638	-89.820	-0.469	0.181
-637.624	37.763	-0.304	0.357
-636.609	-167.312	-0.717	-0.038
-635.595	-185.620	0.362	-0.007
-634.580	90.608	0.177	0.263
-633.565	-78.237	-0.027	-0.012
-632.551	10.408	-0.164	-0.165
-631.536	-66.760	0.525	0.274
-630.522	711.021	-0.041	0.144
-629.507	6.564	-0.478	0.469
-628.492	-46.921	0.100	-0.065
-627.478	-114.309	0.479	0.121
-626.463	0.033	-0.366	-0.345
-625.449	110.330	-0.085	0.135
-624.434	-47.913	-0.149	0.095
-623.419	-200.000	0.010	-0.460
-622.405	-88.522	0.205	-0.080
-621.390	-81.689	-0.375	0.162
-620.376	-72.250	0.553	0.270
-619.361	800.000	-0.173	-0.752
-618.346	-200.000	0.012	-0.259
-617.332	266.173	-0.109	-0.253
-616.317	560.893	-0.070	-0.224
-615.303	-156.750	0.313	-0.025
-614.288	130.801	-0.388	0.660
-613.273	410.502	-0.023	-0.064
-612.259	-124.672	0.211	0.043
-611.244	-200.000	0.016	-0.153
-610.230	219.768	0.195	-0.413
-609.215	-93.666	-0.118	0.043
-608.201	-63.633	0.480	-0.260
-607.186	344.654	-0.156	0.407
-606.171	-30.619	-0.546	0.408
-605.157	-200.000	0.018	0.451
-604.142	-128.683	-0.303	-0.056
-603.128	26.975	-0.046	0.051
-602.113	-118.360	-0.307	0.072
-601.098	-5.642	-0.337	-0.305
-600.084	50.084	0.076	0.095
-599.069	20.232	-0.092	0.098
-598.055	140.404	0.122	0.214
-597.040	-61.103	0.356	-0.198
-596.025	367.094	-0.154	-0.412
-595.011	88.085	-0.170	-0.249
-593.996	800.000	0.037	-0.201
-592.982	-74.664	0.204	0.097
-591.967	-106.197	0.114	0.034
-590.952	68.799	0.295	0.400
-589.938	-77.573	-0.224	-0.102
-588.923	220.085	0.082	0.173
-587.909	198.755	-0.218	0.441
-586.894	-200.000	0.016	0.362
-585.879	-176.119	-0.586	0.020
-584.865	-115.571	-0.508	-0.125
-583.850	-200.000	-0.080	-0.636
-582.836	-159.986	-0.389	-0.028
-581.821	-2.428	-0.077	0.071
-580.806	242.587	-0.149	-0.329
-579.792	-67.011	0.039	-0.020
-578.777	-16.701	-0.290	0.242
-577.763	-136.456	0.202	-0.031
-576.748	-166.320	-0.081	-0.004
-575.733	12.217	0.110	-0.112
-574.719	36.744	-0.133	-0.155
-573.704	-44.541	-0.465	-0.306
-572.690	80.436	0.094	-0.134
-571.675	-200.000	-0.043	0.284
-570.661	-48.309	0.221	0.140
-569.646	-200.000	0.012	0.463
-568.631	-200.000	-0.008	-0.397
-567.617	95.995	-0.250	-0.377
-566.602	800.000	-0.043	-0.191
-565.588	-155.587	0.292	-0.024
-564.573	0.515	0.046	-0.043
-563.558	-7.646	-0.248	0.221
-562.544	28.022	0.301	-0.335
-561.529	800.000	0.085	-0.448
-560.515	200.021	0.130	-0.265
-559.500	-23.832	-0.325	-0.256
-558.485	-147.828	-0.345	-0.038
-557.471	330.359	0.072	-0.183
-556.456	-200.000	0.029	0.381
-555.442	11.677	-0.281	0.284
-554.427	507.630	-0.096	0.295
-553.412	-134.495	-0.184	0.029
-552.398	-200.000	-0.007	0.297
-551.383	-59.711	0.220	-0.124
-550.369	18.388	-0.228	0.240
-549.354	-139.100	-0.363	0.051
-548.339	-99.333	0.290	0.096
-547.325	91.320	0.275	0.407
-546.310	-43.089	-0.151	-0.100
-545.296	-104.455	-0.527	0.160
-544.281	3.176	-0.152	-0.146
-543.266	-140.792	0.217	-0.029
-542.252	120.431	-0.162	-0.266
-541.237	-160.229	0.191	0.013
-540.223	-16.052	0.418	0.350
-539.208	-200.000	0.035	0.483
-538.193	-88.142	-0.405	0.159
-537.179	-137.206	0.361	-0.054
-536.164	-164.908	-0.082	-0.005
-535.150	-23.150	0.076	-0.060
-534.135	-45.391	-0.178	-0.116
-533.121	3.195	-0.325	-0.311
-532.106	-134.948	-0.212	-0.033
-531.091	314.805	0.169	0.422
-530.077	-123.603	0.014	-0.003
-529.062	58.659	0.427	-0.552
-528.048	243.603	-0.124	0.276
-527.033	93.603	-0.024	-0.036
-526.018	-139.257	0.492	-0.069
-525.004	-143.831	-0.515	0.063
-523.989	33.865	-0.394	-0.451
-522.975	460.543	0.073	-0.216
-521.960	388.886	0.151	0.413
-520.945	-200.000	0.015	0.927
-519.931	-53.205	0.212	0.128
-518.916	800.000	0.127	0.472
-517.902	-12.268	0.131	0.112
-516.887	669.067	0.128	0.439
-515.872	-154.480	-0.488	0.042
-514.858	268.503	-0.056	0.131
-513.843	201.668	-0.077	-0.156
-512.829	256.277	0.096	-0.218
-511.814	-200.000	0.006	-0.133
-510.799	-111.122	-0.375	0.100
-509.785	-138.979	0.535	-0.076
-508.770	-145.371	-0.210	0.025
-507.756	800.000	-0.067	0.376
-506.741	-78.856	0.309	-0.138
-505.726	-80.328	-0.394	-0.172
-504.712	800.000	0.090	0.383
-503.697	-98.869	0.131	0.043
-502.683	800.000	-0.007	0.034
-501.668	211.208	0.126	0.262
-500.653	-116.949	0.080	0.019
-499.639	58.536	0.375	-0.485
-498.624	-54.761	0.163	-0.097
-497.610	75.873	-0.072	-0.100
-496.595	107.467	0.305	-0.478
-495.581	14.289	0.266	0.273
-494.566	270.526	-0.287	-0.666
-493.551	800.000	-0.047	-0.214
-492.537	148.791	0.143	-0.255
-491.522	-97.620	-0.220	0.075
-490.508	-7.365	-0.206	0.183
-489.493	-66.163	-0.383	0.200
-488.478	-200.000	-0.003	0.276
-487.464	-69.844	0.105	0.053
-486.449	567.178	0.072	0.232
-485.435	-143.782	-0.201	-0.025
-484.420	-46.567	-0.134	0.086
-483.405	-200.000	-0.024	0.575
-482.391	345.516	-0.093	0.242
-481.376	-91.662	0.235	-0.087
-480.362	-30.276	-0.145	-0.108
-479.347	-108.549	-0.297	0.083
-478.332	409.996	-0.111	0.311
-477.318	-121.962	-0.294	-0.063
-476.303	-36.936	0.352	-0.248
-475.289	-200.000	0.018	0.135
-474.274	-119.188	-0.336	0.077
-473.259	78.103	-0.202	0.284
-472.245	-141.373	-0.559	-0.074
-471.230	41.733	-0.122	0.146
-470.216	242.488	0.175	0.386
-469.201	-99.387	-0.037	-0.012
-468.186	361.620	-0.145	0.383
-467.172	-63.284	0.100	-0.054
-466.157	111.282	0.252	-0.399
-465.143	9.263	-0.252	-0.251
-464.128	-79.043	0.137	0.061
-463.113	663.469	-0.074	-0.253
-462.099	-106.775	0.210	0.061
-461.084	-200.000	0.057	0.384
-460.070	-59.506	-0.172	-0.097
-459.055	-50.760	0.389	-0.240
-458.040	515.775	0.196	0.606
-457.026	-200.000	-0.014	0.102
-456.011	189.444	-0.055	0.108
-454.997	174.269	0.105	0.200
-453.982	-126.098	-0.359	-0.070
-452.968	-200.000	-0.051	-0.481
-451.953	-106.297	0.535	0.156
-450.938	569.224	0.123	0.396
-449.924	-84.614	-0.546	0.225
-448.909	-110.379	-0.207	0.056
-447.895	-200.000	0.013	-0.277
-446.880	217.688	0.278	-0.585
-445.865	-140.414	-0.508	0.069
-444.851	21.364	-0.523	0.558
-443.836	-200.000	0.020	0.489
-442.822	-200.000	-0.085	0.629
-441.807	-75.085	0.338	0.158
-440.792	-151.681	0.491	-0.047
-439.778	800.000	0.038	-0.207
-438.763	-96.782	-0.052	-0.018
-437.749	-82.553	-0.346	-0.147
-436.734	-200.000	-0.007	-0.087
-435.719	411.699	0.102	-0.285
-434.705	-50.039	-0.262	-0.162
-433.690	-142.617	0.342	0.043
-432.676	800.000	0.045	0.166
-431.661	-54.793	-0.199	0.118
-430.646	4.558	0.062	0.060
-429.632	-200.000	-0.011	0.220
-428.617	-121.325	-0.081	0.018
-427.603	96.736	-0.139	-0.210
-426.588	10.483	0.189	0.188
-425.573	-115.956	-0.268	-0.065
-424.559	181.601	0.032	0.061
-423.544	139.923	-0.130	-0.226
-422.530	800.000	-0.087	0.319
-421.515	208.413	0.112	0.231
-420.500	-200.000	-0.021	0.223
-419.486	246.109	0.194	-0.429
-418.471	-78.624	-0.317	0.141
-417.457	-34.793	-0.154	-0.110
-416.442	-63.885	-0.592	0.316
-415.428	-16.576	0.375	-0.311
-414.413	87.207	0.119	0.173
-413.398	-90.561	0.562	-0.212
-412.384	129.511	-0.311	0.523
-411.369	-200.000	-0.024	-0.375
-410.355	-200.000	-0.051	0.436
-409.340	119.776	0.071	0.116
-408.325	-94.332	0.754	0.268
-407.311	409.444	0.094	-0.262
-406.296	379.231	0.123	-0.331
-405.282	115.972	-0.197	0.317
-404.267	68.822	0.277	-0.373
-403.252	136.387	-0.089	0.153
-402.238	-71.094	0.125	-0.061
-401.223	-164.296	-0.257	-0.015
-400.209	-180.447	-0.469	0.013
-399.194	-200.000	-0.448	0.000
-398.179	-88.109	0.147	-0.057
-397.165	466.448	0.116	0.341
-396.150	25.809	-0.108	0.118
-395.136	-35.033	-0.092	0.066
-394.121	-46.137	0.642	-0.413
-393.106	-40.607	-0.276	-0.187
-392.092	-171.891	0.200	0.008
-391.077	-200.000	0.012	0.130
-390.063	-200.000	0.023	0.157
-389.048	-54.148	-0.345	0.205
-388.033	-104.485	0.186	0.056
-387.019	-125.898	0.836	0.164
-386.004	-29.530	0.621	-0.464
-384.990	-21.006	0.387	-0.310
-383.975	128.353	-0.081	-0.135
-382.960	707.287	0.072	-0.252
-381.946	-26.626	0.173	0.133
-380.931	-200.000	-0.003	0.260
-379.917	614.073	-0.055	-0.181
-378.902	-153.235	-0.216	0.020
-377.888	-189.703	0.191	-0.003
-376.873	18.022	0.244	-0.255
-375.858	-200.000	0.038	0.239
-374.844	800.000	-0.130	0.602
-373.829	588.867	0.152	-0.494
-372.815	-85.784	-0.253	-0.102
-371.800	271.892	-0.105	0.242
-370.785	557.722	-0.111	-0.353
-369.771	285.356	-0.073	-0.174
-368.756	-125.665	-0.324	0.064
-367.742	-119.800	0.548	-0.123
-366.727	-147.786	-0.068	0.007
-365.712	-122.760	0.589	0.124
-364.698	-100.022	-0.254	0.082
-363.683	-200.000	-0.015	0.229
-362.669	43.051	-0.223	0.267
-361.654	-187.367	0.076	0.001
-360.639	-200.000	-0.035	0.256
-359.625	234.415	-0.171	-0.371
-358.610	-74.886	-0.173	-0.081
-357.596	39.815	0.159	-0.187
-356.581	-114.996	0.248	-0.061
-355.566	-94.921	-0.313	0.110
-354.552	800.000	0.016	-0.078
-353.537	-20.813	0.047	0.038
-352.523	-156.235	-0.133	0.011
-351.508	125.830	-0.157	-0.260
-350.493	-200.000	0.000	-0.073
-349.479	188.741	-0.156	-0.306
-348.464	800.000	-0.083	0.313
-347.450	800.000	0.044	0.177
-346.435	123.504	0.262	-0.430
-345.420	-61.484	0.390	-0.214
-344.406	-72.798	0.560	-0.268
-343.391	-97.331	0.163	-0.055
-342.377	-55.571	0.181	0.105
-341.362	-100.393	-0.321	-0.103
-340.348	-137.365	0.332	-0.049
-339.333	43.643	-0.237	-0.284
-338.318	800.000	-0.072	0.329
-337.304	53.785	0.145	0.182
-336.289	110.476	0.195	-0.307
-335.275	161.929	0.177	-0.325
-334.260	0.297	-0.478	-0.445
-333.245	134.942	0.151	-0.257
-332.231	-37.404	-0.062	0.043
-331.216	92.601	-0.203	-0.300
-330.202	118.705	0.088	0.143
-329.187	-96.457	-0.431	-0.148
-328.172	260.599	-0.110	-0.248
-327.158	-200.000	-0.063	-0.451
-326.143	-200.000	0.034	-0.354
-325.129	-15.889	0.189	0.157
-324.114	58.488	0.239	0.306
-323.099	-44.632	-0.266	-0.173
-322.085	763.076	-0.092	0.329
-321.070	6.393	0.234	-0.226
-320.056	-200.000	0.694	0.000
-319.041	-171.744	-0.277	0.012
-318.026	-28.818	-0.238	0.178
-317.012	380.933	0.116	0.313
-315.997	-173.482	0.151	0.006
-314.983	351.834	-0.042	0.110
-313.968	-52.258	0.205	0.124
-312.953	-56.229	0.237	0.137
-311.939	482.731	-0.033	-0.099
-310.924	-200.000	0.021	0.691
-309.910	-61.137	0.302	0.166
-308.895	-71.259	-0.142	-0.069
-307.880	-200.000	0.023	-0.438
-306.866	-62.792	-0.049	0.026
-305.851	-76.455	-0.025	-0.011
-304.837	122.682	0.188	0.308
-303.822	-63.818	0.498	-0.265
-302.807	38.182	-0.313	0.364
-301.793	388.178	0.089	0.242
-300.778	-84.611	0.622	-0.255
-299.764	-82.844	0.113	0.047
-298.749	3.082	-0.156	0.148
-297.735	-111.763	0.110	-0.029
-296.720	-200.000	-0.019	-0.129
-295.705	212.738	0.189	-0.391
-294.691	145.246	-0.368	0.644
-293.676	-139.400	0.474	0.066
-292.662	-2.053	0.085	-0.078
-291.647	327.123	0.109	-0.274
-290.632	391.999	0.144	0.392
-289.618	-61.373	0.510	-0.279
-288.603	-27.394	-0.338	0.256
-287.589	46.767	-0.094	0.114
-286.574	149.667	-0.141	-0.250
-285.559	55.575	-0.106	0.133
-284.545	-77.213	-0.239	0.108
-283.530	-61.459	-0.408	-0.223
-282.516	21.066	-0.300	-0.318
-281.501	-30.605	0.377	-0.278
-280.486	-60.995	0.413	-0.227
-279.472	37.457	0.211	-0.244
-278.457	-179.334	-0.221	0.006
-277.443	-200.000	0.027	-0.445
-276.428	-19.492	-0.089	0.072
-275.413	-166.899	0.295	0.016
-274.399	800.000	0.054	0.300
-273.384	752.785	0.118	0.417
-272.370	-74.802	-0.287	-0.134
-271.355	-44.658	0.339	-0.220
-270.340	20.380	0.320	-0.337
-269.326	-200.000	0.009	-0.392
-268.311	-85.635	0.383	-0.154
-267.297	-110.798	-0.154	-0.041
-266.282	-175.689	-0.291	0.010
-265.267	-54.423	0.059	-0.035
-264.253	-21.808	0.055	-0.043
-263.238	-200.000	0.034	-0.473
-262.224	23.333	-0.132	-0.142
-261.209	39.993	0.278	0.326
-260.195	530.757	0.173	-0.537
-259.180	-154.785	0.291	-0.025
-258.165	35.324	0.162	0.185
-257.151	-146.193	0.280	0.032
-256.136	-200.000	-0.057	0.469
-255.122	83.200	-0.097	-0.138
-254.107	800.000	-0.058	0.221
-253.092	10.291	0.286	-0.283
-252.078	-200.000	0.033	0.196
-251.063	-143.953	-0.459	-0.056
-250.049	-59.116	-0.302	-0.169
-249.034	-86.516	0.535	-0.213
-248.019	-200.000	0.010	0.271
-247.005	60.612	-0.157	0.202
-245.990	-135.876	-0.185	0.028
-244.976	-164.831	-0.716	0.041
-243.961	800.000	-0.135	-0.665
-242.946	-12.218	0.325	0.276
-241.932	800.000	0.101	0.432
-240.917	-105.110	-0.403	0.119
-239.903	172.771	0.060	0.112
-238.888	356.002	0.085	-0.222
-237.873	156.663	-0.136	0.244
-236.859	-121.540	-0.159	0.034
-235.844	-114.926	-0.309	-0.076
-234.830	-12.839	0.245	-0.207
-233.815	310.722	-0.083	-0.203
-232.800	-29.036	0.306	-0.228
-231.786	252.829	0.036	-0.080
-230.771	73.228	0.230	0.313
-229.757	800.000	-0.034	0.161
-228.742	55.137	0.246	-0.310
-227.727	-71.160	0.310	-0.151
-226.713	111.053	0.162	0.254
-225.698	-116.541	0.042	-0.010
-224.684	-187.383	0.140	-0.002
-223.669	-200.000	-0.042	-0.419
-222.655	-156.470	0.293	0.023
-221.640	-200.000	0.020	0.521
-220.625	-64.193	-0.421	-0.222
-219.611	22.937	-0.212	-0.226
-218.596	-45.430	-0.289	0.186
-217.582	-176.024	-0.306	0.010
-216.567	-125.262	-0.206	-0.041
-215.552	-61.979	0.187	-0.101
-214.538	-124.245	-0.140	-0.028
-213.523	800.000	0.046	-0.252
-212.509	122.989	0.064	0.104
-211.494	-103.927	-0.133	-0.040
-210.479	-101.658	0.018	-0.006
-209.465	-98.674	-0.313	0.103
-208.450	-200.000	-0.089	-0.573
-207.436	19.877	-0.152	0.159
-206.421	-73.832	-0.379	-0.178
-205.406	-120.762	0.178	-0.039
-204.392	-148.152	0.041	0.004
-203.377	-6.598	0.336	-0.297
-202.363	203.426	0.295	-0.594
-201.348	-200.000	0.039	-0.261
-200.333	800.000	0.118	0.542
-199.319	-22.511	-0.326	-0.256
-198.304	11.483	0.374	-0.372
-197.290	237.746	-0.098	-0.213
-196.275	358.978	-0.176	0.460
-195.260	154.430	0.127	0.227
-194.246	-32.709	-0.099	0.072
-193.231	137.577	-0.043	0.073
-192.217	-30.662	-0.255	0.187
-191.202	-90.326	0.394	-0.148
-190.187	800.000	-0.078	0.347
-189.173	180.992	0.166	-0.318
-188.158	-41.293	-0.494	0.330
-187.144	594.809	-0.050	-0.161
-186.129	137.583	0.135	0.230
-185.114	-51.376	0.347	0.210
-184.100	-200.000	-0.003	0.403
-183.085	79.876	-0.126	0.176
-182.071	-100.197	0.551	0.177
-181.056	-98.122	0.261	-0.087
-180.042	800.000	0.094	0.365
-179.027	554.692	0.104	0.327
-178.012	74.468	-0.083	0.114
-176.998	358.691	0.143	0.372
-175.983	800.000	-0.026	-0.130
-174.969	71.844	0.366	-0.495
-173.954	330.740	-0.062	0.157
-172.939	-34.079	0.247	0.176
-171.925	-148.074	-0.499	0.053
-170.910	-98.132	0.624	0.207
-169.896	-5.513	0.219	-0.195
-168.881	344.564	0.149	0.381
-167.866	-200.000	-0.029	-0.449
-166.852	800.000	0.058	-0.219
-165.837	-13.974	0.432	-0.362
-164.823	-120.283	-0.288	0.063
-163.808	-200.000	-0.035	0.261
-162.793	498.990	-0.113	-0.341
-161.779	-79.409	-0.184	0.080
-160.764	-200.000	-0.055	-0.424
-159.750	-130.177	0.428	0.075
-158.735	-195.844	0.310	-0.003
-157.720	-198.212	-0.279	-0.002
-156.706	-70.108	-0.463	-0.228
-155.691	-125.893	0.346	0.067
-154.677	270.544	0.139	-0.318
-153.662	53.173	0.155	0.193
-152.647	-46.918	-0.240	0.152
-151.633	-132.656	-0.100	0.017
-150.618	1.791	-0.078	0.073
-149.604	200.217	-0.230	0.460
-148.589	79.791	0.436	0.608
-147.574	-200.000	0.026	-0.209
-146.560	313.379	-0.221	0.541
-145.545	213.144	-0.069	-0.143
-144.531	-200.000	0.000	-0.052
-143.516	-111.079	0.191	0.050
-142.502	-52.615	0.192	0.115
-141.487	21.213	-0.342	0.360
-140.472	-93.898	-0.180	-0.064
-139.458	207.296	0.340	-0.691
-138.443	10.892	0.155	0.154
-137.429	-136.096	0.357	-0.054
-136.414	-73.262	0.360	-0.170
-135.399	232.139	-0.135	-0.288
-134.385	800.000	0.148	0.635
-133.370	-200.000	-0.020	-0.181
-132.356	-106.154	-0.133	-0.038
-131.341	-19.313	0.093	-0.074
-130.326	59.812	-0.285	-0.365
-129.312	56.173	-0.329	0.415
-128.297	-200.000	0.077	-0.455
-127.283	-72.109	-0.232	0.111
-126.268	160.663	0.106	-0.193
-125.253	456.644	-0.190	-0.549
-124.239	317.269	-0.277	-0.682
-123.224	410.178	-0.079	-0.218
-122.210	-140.855	-0.546	0.072
