DTS Sentinel unit serial number:	SN409020Multiplexer serial number:	ORYXHardware model number:	OX4-SRSoftware version number:	ORYX F/W v3.00 Oryx Data Collector v3.7.2.0data status	okinstallation	HaddamTimeLapsedifferential loss correction	single-endedforward channel	channel 3reverse channel	N/Adate	2011/06/21time	14:51:17forward acquisition time	30.00reverse acquisition time	0.00gamma	498.7831k internal	0.1817k external	0.1817temperature offset calibration	1.0074default loss term (dB/km)	0.3790temperature slope calibration	1.3530multiplexer offset coefficient	1.0000multiplexer slope coefficient	1.0000fibre end	0.00T internal ref (°C)	38.25T ext. ref 1 (°C)	29.56T ext. ref 2 (°C)	0.25length (m)	temperature (°C)	Stokes	anti-Stokes-747.200	-68.428	-0.226	-0.112
-746.185	-200.000	-0.074	0.422
-745.171	228.094	-0.135	0.282
-744.156	-19.148	0.040	0.032
-743.142	-200.000	0.032	-0.325
-742.127	800.000	0.183	0.871
-741.112	-67.586	-0.457	-0.229
-740.098	-63.505	-0.200	0.105
-739.083	175.355	0.063	0.118
-738.069	161.846	-0.166	0.298
-737.054	588.867	-0.155	0.491
-736.039	449.105	-0.081	-0.230
-735.025	10.487	-0.245	-0.238
-734.010	-1.472	0.075	-0.067
-732.996	1.819	-0.278	0.257
-731.981	404.094	-0.104	0.281
-730.966	-18.985	0.227	0.181
-729.952	800.000	-0.057	0.215
-728.937	-200.000	-0.004	-0.139
-727.923	225.331	-0.062	0.129
-726.908	-152.353	-0.301	-0.027
-725.894	394.724	-0.220	-0.591
-724.879	-97.146	-0.369	-0.123
-723.864	265.557	-0.122	0.273
-722.850	12.240	-0.266	-0.262
-721.835	56.678	0.140	-0.175
-720.821	-200.000	-0.018	0.604
-719.806	193.272	-0.100	-0.195
-718.791	-108.508	-0.355	-0.097
-717.777	-106.804	-0.145	-0.041
-716.762	-137.803	0.287	-0.041
-715.748	-150.188	-0.391	0.038
-714.733	37.416	0.159	-0.181
-713.718	285.603	0.162	-0.376
-712.704	605.270	0.081	-0.261
-711.689	132.678	0.136	0.225
-710.675	-126.845	-0.131	0.025
-709.660	-200.000	0.086	0.503
-708.645	17.745	0.225	0.229
-707.631	-56.551	-0.348	-0.196
-706.616	-50.424	-0.304	0.183
-705.602	-68.068	0.232	0.115
-704.587	-200.000	0.100	0.598
-703.572	298.501	-0.166	0.393
-702.558	-200.000	0.039	0.540
-701.543	800.000	-0.040	-0.153
-700.529	192.352	0.190	-0.368
-699.514	-114.976	-0.352	-0.085
-698.499	-45.622	-0.551	-0.348
-697.485	58.989	0.197	-0.248
-696.470	21.845	0.278	0.289
-695.456	-164.409	-0.161	0.009
-694.441	-170.588	0.203	0.009
-693.426	500.392	0.213	-0.632
-692.412	800.000	0.034	-0.180
-691.397	800.000	0.037	-0.147
-690.383	14.743	-0.076	-0.075
-689.368	135.361	-0.275	-0.458
-688.354	418.729	-0.009	0.024
-687.339	178.862	-0.275	-0.515
-686.324	10.844	-0.183	0.179
-685.310	242.977	0.214	0.460
-684.295	-117.373	0.715	-0.164
-683.281	85.846	0.129	-0.181
-682.266	107.571	-0.154	-0.234
-681.251	800.000	0.033	-0.136
-680.237	800.000	-0.122	0.490
-679.222	166.862	-0.174	0.316
-678.208	100.208	0.141	-0.209
-677.193	-60.831	-0.047	-0.026
-676.178	-200.000	0.042	-0.237
-675.164	-200.000	-0.038	0.353
-674.149	800.000	0.040	-0.157
-673.135	-185.337	0.496	0.010
-672.120	117.051	-0.039	-0.061
-671.105	119.945	0.122	-0.193
-670.091	-70.269	-0.156	-0.075
-669.076	-33.657	0.203	-0.142
-668.062	-200.000	0.012	-0.138
-667.047	800.000	-0.100	0.492
-666.032	-181.299	-0.146	0.004
-665.018	800.000	0.032	-0.127
-664.003	-200.000	0.061	-0.763
-662.989	-146.137	0.142	0.016
-661.974	-147.576	0.298	-0.032
-660.959	128.766	-0.090	-0.147
-659.945	-97.544	-0.356	-0.117
-658.930	215.462	-0.066	0.134
-657.916	-133.351	0.304	-0.048
-656.901	693.533	-0.046	-0.154
-655.886	21.812	0.287	-0.299
-654.872	-116.691	0.122	-0.028
-653.857	-106.650	0.351	0.099
-652.843	-21.991	-0.496	-0.384
-651.828	800.000	0.100	-0.465
-650.814	-200.000	0.012	-0.078
-649.799	311.702	0.066	0.158
-648.784	557.912	0.105	-0.326
-647.770	-169.296	-0.438	-0.020
-646.755	143.221	0.250	-0.425
-645.741	-200.000	-0.039	-0.229
-644.726	234.219	-0.249	-0.525
-643.711	-200.000	-0.033	-0.189
-642.697	124.537	-0.146	-0.235
-641.682	-57.065	-0.140	0.079
-640.668	599.578	0.050	0.158
-639.653	-89.075	-0.329	-0.124
-638.638	-200.000	-0.034	-0.285
-637.624	95.535	-0.034	-0.050
-636.609	6.713	0.176	0.167
-635.595	-66.855	-0.154	0.078
-634.580	-101.662	-0.302	-0.093
-633.565	-33.460	0.120	-0.084
-632.551	-200.000	0.067	-0.408
-631.536	13.119	-0.313	-0.309
-630.522	-70.721	0.653	-0.313
-629.507	-91.228	0.174	0.063
-628.492	-84.048	0.056	-0.022
-627.478	800.000	-0.078	0.341
-626.463	165.820	-0.244	0.441
-625.449	-0.455	-0.175	-0.158
-624.434	134.828	-0.148	0.246
-623.419	314.470	0.229	-0.551
-622.405	-200.000	0.003	-0.430
-621.390	-116.364	-0.054	0.013
-620.376	-65.372	-0.290	-0.148
-619.361	321.303	0.121	0.295
-618.346	-63.154	-0.642	-0.336
-617.332	800.000	-0.060	-0.305
-616.317	-13.357	-0.312	0.258
-615.303	-200.000	0.401	-0.002
-614.288	122.688	0.258	0.413
-613.273	-160.429	0.240	-0.016
-612.259	-91.179	-0.186	-0.068
-611.244	800.000	0.012	-0.059
-610.230	-90.385	0.373	0.137
-609.215	57.720	-0.160	0.200
-608.201	-130.098	-0.476	0.082
-607.186	0.603	-0.331	-0.301
-606.171	-49.398	0.100	0.060
-605.157	-200.000	0.003	0.186
-604.142	10.230	0.044	-0.042
-603.128	251.509	0.228	-0.497
-602.113	27.701	-0.327	-0.350
-601.098	-53.111	-0.298	0.174
-600.084	248.653	-0.140	0.303
-599.069	-142.554	0.444	0.055
-598.055	28.829	0.190	0.205
-597.040	-200.000	-0.030	0.187
-596.025	-200.000	-0.279	-0.001
-595.011	88.010	0.148	-0.209
-593.996	-96.512	-0.118	0.040
-592.982	476.835	-0.085	-0.245
-591.967	538.614	0.050	0.152
-590.952	-185.137	-0.431	0.008
-589.938	249.606	0.102	0.222
-588.923	-8.535	0.053	0.046
-587.909	117.057	-0.486	0.761
-586.894	-48.420	-0.258	0.158
-585.879	-157.924	0.402	-0.030
-584.865	258.643	0.156	0.343
-583.850	-200.000	-0.051	-0.629
-582.836	-179.001	0.176	-0.005
-581.821	-3.544	0.131	-0.116
-580.806	-94.250	-0.125	0.043
-579.792	-200.000	-0.044	-0.490
-578.777	-16.465	0.439	-0.354
-577.763	23.183	-0.076	0.079
-576.748	-96.737	0.071	-0.024
-575.733	-200.000	-0.032	0.235
-574.719	-26.507	-0.368	0.274
-573.704	-101.552	-0.605	-0.186
-572.690	-92.265	-0.875	-0.312
-571.675	-164.910	-0.329	0.018
-570.661	-75.172	-0.275	-0.124
-569.646	-5.166	0.263	0.230
-568.631	108.654	0.251	-0.381
-567.617	800.000	-0.107	0.440
-566.602	-200.000	0.006	-0.209
-565.588	-123.838	0.507	0.101
-564.573	58.762	-0.328	-0.410
-563.558	-200.000	0.020	-0.122
-562.544	80.517	0.054	-0.074
-561.529	243.576	-0.128	0.274
-560.515	-200.000	-0.006	0.398
-559.500	-78.495	-0.294	0.127
-558.485	-200.000	0.045	0.251
-557.471	-125.809	-0.228	0.043
-556.456	-64.758	0.153	-0.078
-555.442	133.373	-0.196	0.323
-554.427	-75.241	0.164	-0.074
-553.412	298.029	0.160	-0.375
-552.398	800.000	0.115	0.503
-551.383	-95.419	-0.298	0.101
-550.369	-132.578	-0.439	-0.071
-549.354	-59.023	-0.231	-0.126
-548.339	-19.013	-0.393	-0.310
-547.325	-200.000	0.003	0.063
-546.310	-200.000	0.046	-0.272
-545.296	800.000	-0.037	0.146
-544.281	-200.000	0.001	-0.061
-543.266	800.000	0.116	0.470
-542.252	-200.000	-0.030	0.544
-541.237	-81.041	-0.626	-0.262
-540.223	-131.601	-0.546	0.090
-539.208	-42.896	-0.345	-0.222
-538.193	-5.139	-0.202	-0.176
-537.179	184.629	0.158	0.299
-536.164	-77.765	-0.476	0.208
-535.150	214.241	0.158	0.318
-534.135	16.948	0.107	0.108
-533.121	-10.843	-0.318	-0.267
-532.106	-200.000	0.014	-0.266
-531.091	31.473	0.187	0.204
-530.077	379.189	0.133	0.348
-529.062	800.000	0.120	0.540
-528.048	99.137	-0.087	-0.127
-527.033	105.748	-0.155	-0.234
-526.018	-200.000	-0.015	0.150
-525.004	-90.749	-0.200	0.073
-523.989	-110.511	-0.127	0.033
-522.975	800.000	-0.038	-0.167
-521.960	240.053	-0.155	0.329
-520.945	-150.432	0.202	-0.019
-519.931	28.506	0.125	0.134
-518.916	220.592	-0.073	0.149
-517.902	-200.000	0.021	0.146
-516.887	800.000	0.015	0.080
-515.872	800.000	0.073	-0.350
-514.858	72.334	-0.337	-0.447
-513.843	-200.000	-0.014	0.184
-512.829	-109.715	-0.383	-0.101
-511.814	-128.086	0.567	-0.102
-510.799	607.183	0.104	-0.331
-509.785	-99.111	-0.196	-0.063
-508.770	-108.163	-0.283	-0.077
-507.756	-200.000	-0.154	0.000
-506.741	71.733	-0.127	-0.167
-505.726	-112.442	-0.298	0.075
-504.712	4.607	0.361	0.336
-503.697	-158.591	0.135	0.010
-502.683	800.000	0.105	-0.476
-501.668	-176.325	-0.207	0.007
-500.653	-200.000	-0.052	-0.321
-499.639	-58.696	0.382	-0.209
-498.624	59.563	-0.231	0.290
-497.610	-19.208	-0.279	0.220
-496.595	-200.000	0.048	0.281
-495.581	-47.652	-0.299	-0.183
-494.566	92.245	-0.178	-0.254
-493.551	695.117	-0.060	-0.201
-492.537	-20.666	0.474	0.368
-491.522	353.124	0.028	-0.071
-490.508	800.000	-0.025	-0.103
-489.493	22.195	0.304	0.315
-488.478	-94.886	0.454	-0.155
-487.464	-200.000	-0.034	-0.345
-486.449	800.000	-0.058	-0.236
-485.435	-181.735	0.523	0.013
-484.420	-72.292	-0.093	0.043
-483.405	597.887	-0.116	0.368
-482.391	-123.067	0.673	0.136
-481.376	-200.000	-0.014	0.123
-480.362	79.385	0.082	0.111
-479.347	92.205	0.077	-0.110
-478.332	230.897	-0.146	-0.305
-477.318	-55.691	-0.082	-0.046
-476.303	-89.845	0.302	-0.111
-475.289	-119.073	0.044	-0.010
-474.274	-18.134	0.332	0.263
-473.259	-88.025	0.223	-0.084
-472.245	-11.035	-0.206	0.172
-471.230	-130.253	-0.479	-0.082
-470.216	-200.000	-0.035	-0.320
-469.201	-200.000	-0.009	-0.423
-468.186	-102.831	-0.216	-0.065
-467.172	-84.249	-0.186	0.074
-466.157	-48.343	-0.297	0.181
-465.143	-200.000	-0.003	-0.327
-464.128	178.615	0.305	0.566
-463.113	-136.263	-0.124	0.018
-462.099	120.140	0.275	-0.433
-461.084	185.393	0.224	0.423
-460.070	331.343	0.185	0.454
-459.055	15.672	0.414	0.412
-458.040	-25.116	-0.135	-0.101
-457.026	800.000	0.124	-0.660
-456.011	-200.000	0.068	-0.419
-454.997	-66.603	0.611	0.305
-453.982	-177.985	0.629	0.019
-452.968	48.934	0.374	-0.444
-451.953	-140.880	0.778	-0.100
-450.938	800.000	0.039	0.161
-449.924	259.200	0.199	-0.435
-448.909	-67.118	0.379	-0.188
-447.895	440.372	0.200	-0.555
-446.880	-76.463	-0.289	0.128
-445.865	131.676	-0.098	0.160
-444.851	131.922	0.062	-0.102
-443.836	0.881	-0.385	-0.349
-442.822	296.888	-0.210	-0.490
-441.807	363.451	-0.169	-0.432
-440.792	234.907	-0.173	-0.362
-439.778	-61.616	-0.426	-0.225
-438.763	-200.000	0.006	-0.121
-437.749	93.808	-0.147	-0.211
-436.734	-140.845	0.210	-0.027
-435.719	208.470	0.246	-0.488
-434.705	-200.000	0.034	-0.486
-433.690	-19.961	-0.181	0.141
-432.676	800.000	-0.048	0.195
-431.661	-128.562	0.195	0.035
-430.646	173.776	-0.265	0.485
-429.632	357.405	0.107	0.271
-428.617	-112.604	-0.393	0.098
-427.603	-50.600	-0.168	-0.100
-426.588	-200.000	-0.032	0.507
-425.573	-5.917	0.349	0.302
-424.559	-0.190	-0.273	0.246
-423.544	-32.308	-0.164	0.116
-422.530	181.183	-0.169	-0.315
-421.515	-79.288	-0.300	-0.128
-420.500	98.055	-0.014	-0.020
-419.486	-37.843	0.203	0.136
-418.471	-122.590	-0.554	-0.113
-417.457	-19.761	-0.138	0.107
-416.442	-139.362	0.381	0.051
-415.428	800.000	0.079	-0.309
-414.413	-6.941	0.558	0.478
-413.398	-4.175	0.428	0.374
-412.384	-117.287	-0.194	0.044
-411.369	-100.099	0.327	0.102
-410.355	475.450	0.098	0.280
-409.340	11.707	-0.193	-0.187
-408.325	-200.000	-0.025	-0.478
-407.311	51.913	0.228	0.274
-406.296	-46.423	0.170	0.105
-405.282	-160.719	-0.129	-0.009
-404.267	133.587	0.025	-0.041
-403.252	-177.567	0.115	0.003
-402.238	549.704	-0.054	-0.163
-401.223	241.277	0.221	0.467
-400.209	65.087	-0.078	0.100
-399.194	-87.416	-0.096	-0.037
-398.179	-32.810	-0.368	0.258
-397.165	-200.000	0.001	0.192
-396.150	-136.808	0.379	-0.055
-395.136	-16.753	-0.335	-0.268
-394.121	347.821	-0.052	0.130
-393.106	-58.018	0.257	0.141
-392.092	545.785	-0.101	-0.308
-391.077	791.309	-0.099	0.346
-390.063	-7.796	-0.214	0.183
-389.048	51.206	0.053	-0.063
-388.033	-125.390	0.207	-0.040
-387.019	-105.116	0.129	0.037
-386.004	-11.787	0.114	0.094
-384.990	6.767	0.288	0.270
-383.975	-87.498	-0.463	-0.176
-382.960	-45.101	-0.287	-0.180
-381.946	225.020	-0.176	0.361
-380.931	-82.957	-0.484	-0.196
-379.917	89.763	0.249	-0.352
-378.902	-200.000	-0.018	-0.211
-377.888	79.600	-0.271	-0.368
-376.873	-108.311	-0.235	0.064
-375.858	-93.862	0.537	0.186
-374.844	-67.734	0.311	-0.153
-373.829	-200.000	0.051	0.320
-372.815	113.645	0.172	0.264
-371.800	73.477	-0.164	-0.216
-370.785	41.884	-0.249	-0.285
-369.771	32.880	-0.062	0.068
-368.756	589.670	0.123	-0.386
-367.742	199.934	-0.082	0.160
-366.727	-66.647	0.184	0.091
-365.712	-125.557	0.392	0.074
-364.698	-166.018	0.152	-0.008
-363.683	119.419	-0.352	-0.551
-362.669	800.000	-0.090	-0.348
-361.654	-11.581	0.414	-0.343
-360.639	800.000	-0.045	-0.190
-359.625	327.579	-0.058	0.140
-358.610	-121.974	0.221	-0.045
-357.596	-115.494	0.342	0.081
-356.581	-157.025	-0.492	-0.037
-355.566	-200.000	0.036	-0.364
-354.552	-12.626	-0.115	-0.095
-353.537	-114.308	-0.179	-0.043
-352.523	-116.218	0.362	0.084
-351.508	-13.210	-0.301	-0.246
-350.493	-200.000	-0.031	-0.308
-349.479	-200.000	0.014	0.374
-348.464	-137.842	0.101	-0.014
-347.450	309.297	-0.074	0.175
-346.435	-100.655	0.248	0.077
-345.420	356.281	0.115	-0.290
-344.406	-200.000	0.022	-0.174
-343.391	-30.723	-0.266	-0.189
-342.377	515.824	0.113	-0.333
-341.362	-105.869	-0.146	0.041
-340.348	370.547	-0.182	-0.467
-339.333	-149.456	0.587	-0.058
-338.318	-94.595	0.230	0.079
-337.304	800.000	-0.102	0.392
-336.289	8.775	-0.217	-0.206
-335.275	725.046	0.027	0.091
-334.260	-78.098	0.260	-0.112
-333.245	288.308	-0.152	-0.349
-332.231	-140.598	0.194	-0.025
-331.216	6.710	-0.265	-0.248
-330.202	37.969	-0.226	0.253
-329.187	800.000	0.043	0.150
-328.172	-104.302	-0.028	-0.008
-327.158	83.129	0.080	0.110
-326.143	800.000	0.132	-0.511
-325.129	35.397	-0.308	0.340
-324.114	763.713	0.099	0.342
-323.099	353.199	-0.048	0.120
-322.085	800.000	-0.024	0.118
-321.070	146.526	-0.171	0.291
-320.056	-97.410	0.530	0.173
-319.041	-72.448	-0.127	0.059
-318.026	-135.441	-0.323	-0.048
-317.012	-167.149	-0.203	-0.010
-315.997	227.598	0.198	0.407
-314.983	-138.076	0.286	0.040
-313.968	-200.000	0.016	0.435
-312.953	800.000	-0.060	0.264
-311.939	-165.073	-0.368	-0.020
-310.924	800.000	0.016	-0.062
-309.910	241.546	-0.043	-0.090
-308.895	-25.563	0.197	-0.146
-307.880	-104.885	-0.468	0.134
-306.866	-200.000	-0.080	-0.691
-305.851	101.061	-0.156	0.229
-304.837	-200.000	0.006	-0.212
-303.822	-23.060	-0.245	0.185
-302.807	665.586	-0.078	0.255
-301.793	-200.000	-0.023	-0.442
-300.778	-41.863	-0.321	-0.207
-299.764	-39.081	-0.184	-0.121
-298.749	-200.000	0.003	0.119
-297.735	-68.045	-0.178	0.087
-296.720	-50.424	-0.200	0.118
-295.705	800.000	0.100	0.465
-294.691	76.211	0.342	0.456
-293.676	285.268	0.044	-0.099
-292.662	-111.456	0.958	-0.244
-291.647	-175.448	0.503	0.017
-290.632	553.463	0.050	-0.153
-289.618	184.567	-0.233	0.435
-288.603	-126.070	0.202	-0.038
-287.589	-61.836	-0.119	0.062
-286.574	800.000	0.084	-0.301
-285.559	8.288	0.343	-0.324
-284.545	-200.000	-0.032	0.448
-283.530	153.389	0.187	0.323
-282.516	-85.110	-0.036	0.014
-281.501	97.108	0.095	0.138
-280.486	-200.000	0.003	-0.098
-279.472	-200.000	0.002	0.148
-278.457	121.240	0.098	0.154
-277.443	-65.602	-0.254	0.127
-276.428	687.477	-0.094	-0.311
-275.413	-71.460	0.436	-0.204
-274.399	200.943	0.109	0.211
-273.384	196.105	-0.173	0.333
-272.370	-6.306	0.141	-0.120
-271.355	-5.205	0.258	0.223
-270.340	-195.175	0.286	-0.003
-269.326	-32.871	0.356	0.248
-268.311	800.000	-0.105	0.483
-267.297	800.000	-0.053	-0.239
-266.282	-200.000	-0.046	0.305
-265.267	564.035	-0.122	-0.374
-264.253	-129.400	-0.403	0.070
-263.238	-200.000	0.015	0.162
-262.224	126.264	0.224	0.356
-261.209	-77.848	-0.090	-0.039
-260.195	33.189	-0.100	-0.109
-259.180	-55.200	0.133	0.075
-258.165	122.323	-0.147	-0.231
-257.151	-127.160	-0.215	-0.039
-256.136	62.137	-0.315	0.395
-255.122	38.870	-0.073	-0.082
-254.107	-200.000	0.050	-0.583
-253.092	-57.868	-0.135	0.074
-252.078	800.000	-0.103	-0.447
-251.063	800.000	-0.036	0.190
-250.049	765.356	0.057	0.195
-249.034	-86.392	0.605	0.232
-248.019	-113.665	-0.380	-0.092
-247.005	800.000	-0.093	0.340
-245.990	684.519	-0.086	0.285
-244.976	-54.027	-0.166	0.095
-243.961	-19.019	0.216	0.168
-242.946	-91.345	-0.209	-0.075
-241.932	-19.132	0.357	-0.278
-240.917	-200.000	0.035	-0.230
-239.903	-200.000	-0.035	0.205
-238.888	158.871	-0.133	0.232
-237.873	-53.515	-0.278	-0.159
-236.859	-200.000	0.490	-0.002
-235.844	-72.851	0.243	0.112
-234.830	-200.000	-0.025	0.246
-233.815	412.474	-0.057	0.152
-232.800	-127.542	0.273	0.049
-231.786	800.000	-0.011	0.056
-230.771	124.720	0.156	0.248
-229.757	-76.717	0.210	0.092
-228.742	-32.047	0.430	0.302
-227.727	10.188	0.143	0.137
-226.713	-116.923	-0.328	-0.075
-225.698	-61.906	0.343	0.179
-224.684	-90.100	-0.303	0.110
-223.669	800.000	0.077	0.301
-222.655	-10.940	-0.262	-0.217
-221.640	-151.471	0.328	-0.030
-220.625	-8.650	0.338	0.284
-219.611	800.000	0.065	0.309
-218.596	-133.382	0.384	0.060
-217.582	-44.376	0.445	-0.279
-216.567	-200.000	0.064	-0.535
-215.552	1.537	-0.270	0.243
-214.538	-180.932	0.379	0.009
-213.523	29.283	0.267	-0.285
-212.509	-4.916	0.122	-0.105
-211.494	-200.000	0.039	0.268
-210.479	4.889	0.490	0.452
-209.465	-101.558	-0.323	-0.098
-208.450	-78.849	-0.163	-0.069
-207.436	-37.455	0.071	0.047
-206.421	14.985	0.100	-0.098
-205.406	-49.307	0.353	0.210
-204.392	800.000	0.023	-0.091
-203.377	-104.585	0.189	-0.054
-202.363	-90.325	0.293	0.106
-201.348	-200.000	0.028	0.219
-200.333	-92.308	-0.224	-0.079
-199.319	87.659	-0.020	0.028
-198.304	177.609	-0.168	0.307
-197.290	735.045	0.089	-0.300
-196.275	103.067	-0.073	0.108
-195.260	-97.440	0.388	-0.126
-194.246	-3.510	0.200	-0.174
-193.231	393.788	-0.155	-0.407
-192.217	-200.000	-0.020	0.170
-191.202	-33.236	-0.404	0.280
-190.187	16.368	-0.171	-0.169
-189.173	111.238	0.062	-0.094
-188.158	60.161	-0.194	0.240
-187.144	61.336	-0.137	0.171
-186.129	526.642	-0.238	-0.705
-185.114	14.921	0.226	0.221
-184.100	-7.214	0.222	0.188
-183.085	-79.198	-0.162	-0.069
-182.071	-1.442	0.276	0.244
-181.056	-102.662	0.408	-0.121
-180.042	45.521	0.057	-0.066
-179.027	244.356	-0.118	0.248
-178.012	800.000	-0.065	-0.335
-176.998	54.968	0.154	0.186
-175.983	-99.115	0.094	0.029
-174.969	-54.624	0.165	0.093
-173.954	-22.335	-0.165	-0.125
-172.939	40.616	0.152	0.171
-171.925	800.000	0.064	0.223
-170.910	-200.000	-0.019	0.220
-169.896	-200.000	-0.068	-0.399
-168.881	800.000	0.086	-0.366
-167.866	309.089	0.106	-0.250
-166.852	608.660	-0.134	-0.421
-165.837	22.691	0.183	0.188
-164.823	-157.804	0.688	-0.050
-163.808	-17.251	-0.277	-0.219
-162.793	-95.604	-0.265	-0.088
-161.779	-79.843	-0.473	0.198
-160.764	-76.374	-0.218	0.096
-159.750	61.452	-0.216	0.268
-158.735	74.017	0.274	0.360
-157.720	139.413	-0.110	0.182
-156.706	-200.000	0.061	0.411
-155.691	-147.710	-0.381	0.040
-154.677	-69.797	-0.033	-0.015
-153.662	522.913	0.110	0.325
-152.647	249.146	-0.059	-0.125
-151.633	-200.000	0.010	-0.165
-150.618	-200.000	0.002	0.239
-149.604	16.728	0.176	-0.174
-148.589	800.000	0.119	0.427
-147.574	727.078	0.034	-0.116
-146.560	-135.263	0.411	-0.061
-145.545	-200.000	-0.022	-0.424
-144.531	-123.323	-0.389	-0.077
-143.516	12.799	0.248	0.240
-142.502	7.049	0.255	0.238
-141.487	-200.000	0.022	-0.604
-140.472	-102.883	0.236	0.070
-139.458	-62.039	0.414	-0.215
-138.443	-73.792	-0.055	-0.025
-137.429	-33.451	0.669	-0.461
-136.414	-40.690	-0.307	-0.199
-135.399	-57.136	-0.197	-0.108
-134.385	-81.660	-0.094	0.038
-133.370	-200.000	-0.034	0.200
-132.356	-188.127	0.483	0.008
-131.341	-143.279	0.637	0.076
-130.326	70.987	-0.261	0.338
-129.312	-200.000	0.034	0.240
-128.297	-103.635	0.360	0.105
-127.283	126.102	-0.151	0.239
-126.268	-80.168	-0.272	0.113
-125.253	14.685	-0.255	0.249
-124.239	186.645	-0.247	0.460
-123.224	-200.000	-0.013	0.211
-122.210	278.443	0.213	0.475
