DTS Sentinel unit serial number:	SN409020Multiplexer serial number:	ORYXHardware model number:	OX4-SRSoftware version number:	ORYX F/W v3.00 Oryx Data Collector v3.7.2.0data status	okinstallation	HaddamTimeLapsedifferential loss correction	single-endedforward channel	channel 3reverse channel	N/Adate	2011/06/22time	08:26:17forward acquisition time	30.00reverse acquisition time	0.00gamma	498.7831k internal	0.1778k external	0.1778temperature offset calibration	1.0074default loss term (dB/km)	0.3790temperature slope calibration	1.3530multiplexer offset coefficient	1.0000multiplexer slope coefficient	1.0000fibre end	0.00T internal ref (°C)	25.69T ext. ref 1 (°C)	23.18T ext. ref 2 (°C)	0.17length (m)	temperature (°C)	Stokes	anti-Stokes-747.200	-200.000	-0.015	-0.129
-746.185	406.185	-0.249	0.691
-745.171	25.039	-0.368	0.399
-744.156	48.396	-0.412	0.505
-743.142	434.812	0.046	-0.131
-742.127	17.914	0.247	-0.257
-741.112	174.989	-0.122	-0.231
-740.098	-107.779	-0.018	-0.005
-739.083	263.078	-0.010	-0.022
-738.069	121.219	0.046	0.075
-737.054	-140.134	-0.479	0.065
-736.039	-88.372	-0.488	-0.190
-735.025	-136.604	0.589	0.088
-734.010	13.732	-0.247	0.251
-732.996	-76.393	-0.194	-0.089
-731.981	0.424	0.138	0.129
-730.966	38.441	0.105	-0.122
-729.952	108.928	-0.229	-0.359
-728.937	-88.228	0.371	0.145
-727.923	103.788	0.205	-0.315
-726.908	205.200	-0.211	-0.429
-725.894	-11.767	0.212	0.181
-724.879	134.785	-0.261	0.443
-723.864	-140.206	-0.057	-0.008
-722.850	128.209	-0.097	-0.161
-721.835	-51.245	0.515	0.314
-720.821	-113.074	0.133	-0.034
-719.806	-130.594	-0.216	0.038
-718.791	-34.905	-0.325	-0.232
-717.777	-92.050	0.242	-0.089
-716.762	21.768	-0.232	-0.247
-715.748	-107.032	0.659	-0.189
-714.733	96.403	-0.178	0.266
-713.718	264.929	0.041	-0.095
-712.704	183.980	-0.144	0.279
-711.689	-88.001	-0.490	-0.191
-710.675	-40.256	-0.191	0.130
-709.660	-101.062	-0.228	0.072
-708.645	-85.295	0.188	0.076
-707.631	173.985	0.146	0.276
-706.616	43.658	-0.119	0.143
-705.602	-25.467	0.304	0.234
-704.587	-163.607	0.202	-0.012
-703.572	210.918	0.288	0.593
-702.558	-56.230	-0.423	-0.245
-701.543	88.305	0.132	0.191
-700.529	106.879	0.275	0.428
-699.514	62.123	-0.180	0.235
-698.499	-85.046	-0.595	0.242
-697.485	-156.664	-0.428	-0.034
-696.470	73.671	-0.263	0.360
-695.456	800.000	0.045	-0.249
-694.441	387.724	0.027	-0.074
-693.426	580.506	0.207	-0.666
-692.412	287.873	0.132	0.313
-691.397	800.000	0.095	-0.366
-690.383	33.051	0.133	-0.151
-689.368	-200.000	-0.017	0.131
-688.354	752.487	-0.048	-0.169
-687.339	-113.735	0.291	0.073
-686.324	227.568	0.079	-0.168
-685.310	-55.439	-0.089	-0.052
-684.295	-151.792	-0.763	-0.072
-683.281	20.367	-0.396	0.418
-682.266	-200.000	0.035	-0.225
-681.251	-77.829	-0.306	0.137
-680.237	-75.118	0.265	0.123
-679.222	9.424	-0.089	-0.088
-678.208	-17.040	-0.346	-0.285
-677.193	-160.664	-0.317	0.022
-676.178	-41.068	0.282	-0.189
-675.164	334.381	-0.142	-0.359
-674.149	262.175	0.144	-0.327
-673.135	-161.594	0.385	-0.025
-672.120	150.229	0.340	-0.604
-671.105	327.153	0.021	0.053
-670.091	-45.107	0.373	0.241
-669.076	92.711	0.183	-0.270
-668.062	574.660	-0.079	-0.254
-667.047	-175.733	-0.362	0.012
-666.032	-23.312	0.123	-0.096
-665.018	95.667	-0.330	-0.493
-664.003	30.236	0.157	-0.175
-662.989	274.129	0.140	-0.325
-661.974	26.484	-0.172	-0.187
-660.959	459.018	0.065	0.190
-659.945	159.861	-0.266	0.485
-658.930	-131.346	0.076	0.013
-657.916	177.575	0.112	0.213
-656.901	-200.000	0.052	0.335
-655.886	-60.415	-0.058	-0.032
-654.872	702.610	0.126	0.436
-653.857	48.696	0.130	-0.159
-652.843	-172.550	0.093	0.004
-651.828	-36.192	-0.204	0.143
-650.814	800.000	0.006	-0.032
-649.799	-83.705	-0.024	0.010
-648.784	-97.374	-0.241	-0.081
-647.770	800.000	-0.092	0.349
-646.755	-83.861	0.255	-0.105
-645.741	405.902	-0.050	-0.137
-644.726	38.001	-0.198	-0.229
-643.711	-51.658	0.119	0.072
-642.697	-88.699	-0.465	-0.179
-641.682	-200.000	0.028	-0.327
-640.668	-200.000	0.041	0.405
-639.653	585.616	-0.107	-0.345
-638.638	800.000	-0.054	-0.298
-637.624	461.366	-0.084	0.246
-636.609	-4.492	0.346	-0.311
-635.595	800.000	0.035	-0.130
-634.580	-200.000	-0.050	0.418
-633.565	-38.866	-0.159	-0.109
-632.551	-157.650	0.239	-0.018
-631.536	760.069	0.048	0.169
-630.522	-200.000	0.002	0.268
-629.507	-40.845	0.323	-0.217
-628.492	31.590	0.132	0.148
-627.478	-122.068	0.518	0.110
-626.463	-200.000	0.033	0.201
-625.449	480.709	-0.024	-0.070
-624.434	-25.042	-0.446	-0.344
-623.419	800.000	-0.094	-0.381
-622.405	-193.657	-0.377	0.004
-621.390	-180.861	0.469	0.012
-620.376	86.469	0.052	-0.075
-619.361	65.978	-0.134	-0.178
-618.346	95.115	-0.125	0.186
-617.332	-78.785	0.236	-0.104
-616.317	-111.806	0.233	-0.061
-615.303	-69.094	0.316	-0.158
-614.288	327.327	0.075	-0.188
-613.273	-36.189	-0.320	0.224
-612.259	321.850	-0.120	-0.299
-611.244	-148.022	0.334	0.036
-610.230	536.937	-0.083	0.259
-609.215	-50.883	0.193	0.118
-608.201	276.057	0.180	0.418
-607.186	354.843	0.083	0.215
-606.171	-108.561	0.228	0.063
-605.157	-63.545	-0.339	-0.180
-604.142	-112.527	-0.494	-0.127
-603.128	-24.802	-0.127	0.098
-602.113	-200.000	-0.042	-0.244
-601.098	-138.861	0.405	-0.057
-600.084	54.329	0.298	-0.374
-599.069	800.000	-0.163	0.744
-598.055	545.699	0.012	-0.037
-597.040	-170.563	-0.187	-0.008
-596.025	181.210	0.230	-0.441
-595.011	-20.356	-0.164	0.131
-593.996	-8.104	-0.135	-0.118
-592.982	-200.000	-0.010	-0.199
-591.967	-34.569	-0.546	-0.388
-590.952	-200.000	-0.020	-0.183
-589.938	800.000	0.049	0.194
-588.923	800.000	0.172	0.682
-587.909	-167.005	0.399	0.021
-586.894	24.218	0.421	-0.452
-585.879	-67.993	-0.290	-0.146
-584.865	-98.968	-0.231	0.076
-583.850	-200.000	-0.006	-0.154
-582.836	136.535	0.076	0.129
-581.821	-72.468	0.115	0.055
-580.806	-82.278	0.219	0.092
-579.792	32.013	0.283	-0.317
-578.777	517.251	-0.138	0.422
-577.763	25.556	0.022	0.024
-576.748	-14.281	0.253	0.212
-575.733	-200.000	-0.025	0.295
-574.719	-25.867	-0.210	0.160
-573.704	-200.000	-0.093	0.610
-572.690	48.728	0.073	-0.089
-571.675	-196.401	-0.053	0.000
-570.661	-62.118	0.165	-0.089
-569.646	-41.563	-0.268	-0.178
-568.631	-20.503	-0.108	0.086
-567.617	-27.249	-0.111	-0.084
-566.602	-200.000	0.016	-0.294
-565.588	-119.152	0.132	-0.030
-564.573	730.571	-0.081	0.284
-563.558	89.702	-0.168	-0.244
-562.544	800.000	-0.025	0.129
-561.529	-140.730	0.173	-0.023
-560.515	-136.873	0.184	-0.027
-559.500	68.473	-0.078	0.104
-558.485	-71.637	-0.194	-0.093
-557.471	-200.000	-0.034	-0.248
-556.456	17.154	0.187	0.193
-555.442	-10.960	0.234	0.200
-554.427	800.000	-0.056	-0.274
-553.412	-41.313	-0.377	-0.252
-552.398	1.377	0.343	-0.320
-551.383	300.158	0.075	-0.179
-550.369	66.600	0.176	0.232
-549.354	-200.000	-0.028	-0.316
-548.339	-200.000	0.055	0.438
-547.325	-169.155	0.171	-0.008
-546.310	-117.206	0.610	-0.143
-545.296	-69.853	0.114	-0.056
-544.281	213.512	-0.050	0.103
-543.266	-88.738	0.101	-0.039
-542.252	-200.000	0.014	-0.095
-541.237	-87.868	-0.219	-0.085
-540.223	-114.459	0.270	0.067
-539.208	-74.147	-0.247	0.115
-538.193	-105.080	0.126	0.037
-537.179	-2.773	0.207	0.188
-536.164	15.932	0.080	-0.082
-535.150	-96.118	0.529	0.181
-534.135	-176.603	0.460	-0.015
-533.121	76.535	-0.367	-0.505
-532.106	-25.788	-0.124	-0.094
-531.091	-146.559	-0.282	0.031
-530.077	19.564	-0.060	0.062
-529.062	-129.757	0.133	-0.024
-528.048	302.167	-0.062	0.149
-527.033	166.428	0.164	0.303
-526.018	-137.040	-0.504	-0.074
-525.004	-14.116	-0.363	0.304
-523.989	-81.473	-0.609	-0.258
-522.975	-81.578	0.411	-0.174
-521.960	0.157	0.359	-0.331
-520.945	-137.412	-0.335	0.049
-519.931	14.247	0.312	0.315
-518.916	-70.209	0.195	0.096
-517.902	116.125	-0.212	0.337
-516.887	62.973	0.285	-0.370
-515.872	-43.579	-0.396	-0.258
-514.858	800.000	0.072	0.318
-513.843	-93.202	-0.507	0.182
-512.829	-136.315	-0.533	-0.080
-511.814	-127.274	0.072	0.013
-510.799	-103.792	-0.348	0.105
-509.785	800.000	-0.157	-0.822
-508.770	-14.819	-0.316	-0.263
-507.756	-134.738	0.378	-0.059
-506.741	800.000	0.096	0.474
-505.726	54.431	-0.128	-0.160
-504.712	-124.424	0.385	0.077
-503.697	-117.038	0.378	-0.089
-502.683	-19.319	0.219	-0.176
-501.668	-8.422	-0.328	0.285
-500.653	-200.000	0.014	0.463
-499.639	-27.492	0.295	0.222
-498.624	-66.540	0.249	-0.128
-497.610	598.020	-0.094	-0.305
-496.595	-186.423	0.478	0.009
-495.581	-188.662	-0.458	-0.007
-494.566	800.000	-0.094	-0.434
-493.551	-68.328	0.414	-0.207
-492.537	-50.608	-0.415	-0.253
-491.522	-124.923	-0.135	-0.027
-490.508	139.836	0.093	0.159
-489.493	-36.048	0.356	-0.248
-488.478	84.369	0.175	-0.248
-487.464	47.972	-0.047	0.056
-486.449	78.280	-0.180	-0.249
-485.435	-171.289	0.402	-0.017
-484.420	219.265	0.130	-0.271
-483.405	236.548	0.177	0.380
-482.391	-64.634	-0.338	-0.177
-481.376	-187.473	0.169	-0.003
-480.362	800.000	-0.076	0.324
-479.347	313.056	-0.146	0.357
-478.332	-76.969	-0.369	-0.166
-477.318	11.993	0.439	-0.437
-476.303	-60.837	0.564	-0.308
-475.289	-76.626	0.070	0.032
-474.274	-75.784	-0.164	0.075
-473.259	1.944	-0.213	0.199
-472.245	460.903	0.118	-0.341
-471.230	8.821	0.424	-0.413
-470.216	136.955	0.124	0.210
-469.201	61.391	-0.075	-0.097
-468.186	102.381	0.196	-0.298
-467.172	437.188	-0.034	-0.097
-466.157	-58.772	0.391	0.219
-465.143	-108.087	0.286	0.080
-464.128	-71.969	0.298	-0.143
-463.113	104.217	0.052	-0.080
-462.099	-29.111	0.157	0.117
-461.084	800.000	0.023	0.128
-460.070	17.740	-0.259	-0.267
-459.055	-100.156	-0.148	0.047
-458.040	-120.580	0.074	-0.016
-457.026	800.000	0.049	-0.240
-456.011	-75.441	0.080	-0.037
-454.997	-7.078	0.196	-0.172
-453.982	-65.679	-0.162	-0.084
-452.968	291.165	-0.119	0.282
-451.953	-141.976	-0.548	-0.070
-450.938	67.517	-0.334	-0.441
-449.924	153.425	-0.279	-0.495
-448.909	-64.931	0.298	0.155
-447.895	-176.658	0.683	0.022
-446.880	234.662	0.157	0.337
-445.865	800.000	-0.042	-0.165
-444.851	-110.177	0.333	-0.089
-443.836	116.162	-0.205	0.325
-442.822	-39.223	0.284	0.192
-441.807	-11.139	-0.332	-0.283
-440.792	520.116	-0.191	0.583
-439.778	134.962	-0.173	0.292
-438.763	8.959	0.273	-0.266
-437.749	-200.000	0.051	-0.479
-436.734	-67.664	0.487	-0.246
-435.719	-200.000	0.005	0.191
-434.705	24.386	-0.503	0.538
-433.690	-47.686	0.328	0.205
-432.676	2.424	-0.192	0.180
-431.661	794.981	-0.030	0.106
-430.646	-200.000	-0.156	0.000
-429.632	-133.809	0.220	-0.035
-428.617	-88.361	-0.113	0.044
-427.603	-0.339	-0.271	-0.249
-426.588	-55.707	-0.111	0.064
-425.573	20.274	-0.052	0.054
-424.559	79.075	0.100	0.138
-423.544	-59.384	0.419	-0.232
-422.530	429.973	-0.165	-0.464
-421.515	-40.792	0.304	0.203
-420.500	488.556	-0.044	0.131
-419.486	800.000	0.011	0.060
-418.471	60.135	0.451	0.577
-417.457	-10.586	0.477	0.407
-416.442	-200.000	0.013	0.141
-415.428	-95.259	-0.382	0.132
-414.413	-127.619	0.169	0.031
-413.398	-123.097	0.175	0.036
-412.384	-97.815	0.682	-0.226
-411.369	-200.000	0.020	0.324
-410.355	-107.972	-0.341	-0.095
-409.340	-76.241	0.137	0.062
-408.325	-200.000	0.066	-0.440
-407.311	41.173	-0.093	-0.108
-406.296	-164.611	0.056	0.003
-405.282	-200.000	0.013	0.113
-404.267	194.965	-0.055	-0.108
-403.252	105.305	0.270	0.412
-402.238	-121.989	-0.069	0.015
-401.223	-200.000	-0.001	-0.173
-400.209	464.905	-0.064	-0.187
-399.194	800.000	-0.046	0.203
-398.179	196.676	-0.092	0.182
-397.165	-137.484	-0.209	0.030
-396.150	200.965	-0.204	-0.406
-395.136	-6.204	-0.528	-0.465
-394.121	-31.922	-0.423	0.305
-393.106	-200.000	0.029	0.664
-392.092	146.466	-0.167	-0.290
-391.077	16.840	-0.330	-0.337
-390.063	-200.000	-0.013	-0.185
-389.048	24.496	0.541	0.577
-388.033	-200.000	-0.015	0.486
-387.019	-55.935	0.476	0.273
-386.004	-116.177	-0.124	-0.030
-384.990	-64.273	-0.406	0.212
-383.975	-133.490	-0.379	0.061
-382.960	263.916	0.174	-0.392
-381.946	74.696	-0.315	0.428
-380.931	60.091	0.250	0.319
-379.917	-87.025	0.233	-0.091
-378.902	-39.227	0.293	-0.198
-377.888	-200.000	0.050	-0.394
-376.873	159.459	-0.234	-0.421
-375.858	-118.550	0.315	0.071
-374.844	-79.192	0.174	-0.076
-373.829	141.681	0.070	-0.120
-372.815	48.900	-0.209	0.253
-371.800	168.490	-0.255	0.470
-370.785	-103.889	0.121	0.036
-369.771	365.991	-0.056	-0.146
-368.756	-92.794	-0.664	0.238
-367.742	-73.178	-0.142	-0.067
-366.727	679.643	-0.058	0.196
-365.712	-32.997	-0.347	0.248
-364.698	-63.007	-0.292	-0.155
-363.683	84.128	0.222	0.314
-362.669	95.433	0.109	0.161
-361.654	-200.000	0.010	-0.302
-360.639	-200.000	0.020	0.149
-359.625	-199.818	-0.375	-0.002
-358.610	-106.768	0.353	-0.100
-357.596	154.882	-0.049	0.088
-356.581	36.496	0.106	0.120
-355.566	113.164	-0.054	-0.085
-354.552	151.227	-0.129	-0.227
-353.537	-200.000	0.013	0.197
-352.523	-48.163	0.379	0.235
-351.508	-163.314	-0.213	0.013
-350.493	245.560	0.104	-0.225
-349.479	-0.709	-0.281	-0.257
-348.464	-165.186	-0.167	0.009
-347.450	-200.000	-0.038	0.376
-346.435	-123.361	0.345	0.070
-345.420	-122.604	-0.593	0.123
-344.406	200.614	-0.062	-0.124
-343.391	-6.702	0.239	0.209
-342.377	-133.765	-0.296	-0.047
-341.362	-99.579	-0.325	0.104
-340.348	-134.937	-0.017	-0.003
-339.333	-200.000	0.067	-0.451
-338.318	581.234	-0.166	-0.528
-337.304	427.092	-0.055	-0.153
-336.289	7.103	0.157	-0.151
-335.275	166.366	-0.117	0.214
-334.260	-58.685	-0.149	-0.083
-333.245	-149.761	-0.359	-0.036
-332.231	-94.128	-0.265	0.093
-331.216	-8.291	-0.241	0.209
-330.202	-127.695	-0.199	-0.037
-329.187	175.068	0.012	-0.023
-328.172	-160.141	0.064	0.004
-327.158	-134.560	-0.611	-0.095
-326.143	10.416	-0.225	-0.220
-325.129	244.597	0.087	0.188
-324.114	94.731	0.093	-0.136
-323.099	-74.920	0.039	-0.018
-322.085	328.517	0.123	0.306
-321.070	355.623	-0.161	-0.414
-320.056	184.311	0.228	-0.436
-319.041	800.000	0.031	-0.127
-318.026	-200.000	-0.203	0.000
-317.012	800.000	-0.046	-0.221
-315.997	-90.284	-0.139	0.052
-314.983	105.014	-0.298	-0.454
-313.968	58.318	-0.146	-0.184
-312.953	-126.455	-0.354	-0.067
-311.939	-156.157	-0.344	-0.028
-310.924	-127.764	0.299	-0.055
-309.910	-178.311	-0.322	0.010
-308.895	41.641	-0.024	0.027
-307.880	-112.366	-0.292	-0.074
-306.866	-90.019	-0.329	0.123
-305.851	175.964	-0.221	-0.414
-304.837	-200.000	-0.012	0.498
-303.822	-200.000	0.002	-0.078
-302.807	9.319	-0.196	-0.191
-301.793	-8.620	-0.210	-0.181
-300.778	-67.913	0.301	0.150
-299.764	-72.065	0.297	-0.141
-298.749	65.491	0.201	-0.261
-297.735	-200.000	0.025	0.211
-296.720	-194.153	-0.455	-0.005
-295.705	-8.396	0.148	0.128
-294.691	528.667	0.068	0.208
-293.676	-77.574	-0.068	0.030
-292.662	710.191	-0.085	-0.292
-291.647	237.580	-0.153	-0.327
-290.632	247.892	0.289	0.630
-289.618	140.002	0.316	0.536
-288.603	-78.508	0.288	-0.126
-287.589	26.549	0.250	0.269
-286.574	800.000	-0.097	-0.376
-285.559	63.770	-0.113	0.145
-284.545	546.555	0.039	0.122
-283.530	-161.684	0.456	-0.030
-282.516	-200.000	0.003	0.095
-281.501	-161.385	-0.481	-0.031
-280.486	-65.716	-0.246	-0.126
-279.472	-96.525	-0.269	0.091
-278.457	-140.730	0.238	0.031
-277.443	-109.152	0.328	0.089
-276.428	47.771	0.217	0.261
-275.413	300.285	0.080	-0.190
-274.399	-106.574	-0.196	0.056
-273.384	800.000	-0.045	0.237
-272.370	25.326	-0.180	-0.192
-271.355	800.000	-0.071	0.352
-270.340	57.770	0.149	-0.187
-269.326	24.866	-0.348	-0.371
-268.311	469.632	-0.109	-0.315
-267.297	-98.139	0.760	-0.250
-266.282	77.255	0.306	-0.418
-265.267	-106.073	0.105	-0.030
-264.253	220.593	-0.152	0.313
-263.238	-75.822	0.267	-0.121
-262.224	184.693	-0.099	0.190
-261.209	507.067	-0.112	-0.335
-260.195	167.640	0.173	-0.316
-259.180	-134.339	0.328	0.051
-258.165	88.437	0.192	-0.274
-257.151	-200.000	-0.033	0.490
-256.136	337.225	0.082	0.205
-255.122	-137.837	-0.337	0.048
-254.107	-7.573	-0.132	-0.114
-253.092	-61.719	0.302	-0.162
-252.078	116.803	0.157	-0.247
-251.063	-200.000	0.016	0.282
-250.049	385.494	-0.081	-0.215
-249.034	-138.912	0.127	0.018
-248.019	-182.651	0.227	0.005
-247.005	93.133	0.140	-0.204
-245.990	48.609	-0.345	0.415
-244.976	-200.000	0.046	0.402
-243.961	-200.000	0.094	0.579
-242.946	3.351	0.227	0.212
-241.932	-125.931	-0.377	-0.072
-240.917	18.326	-0.310	-0.317
-239.903	-200.000	-0.024	-0.212
-238.888	-49.168	-0.247	0.151
-237.873	429.533	0.019	-0.053
-236.859	-200.000	-0.008	-0.137
-235.844	-165.219	0.421	0.023
-234.830	-200.000	-0.013	-0.188
-233.815	58.063	-0.302	0.379
-232.800	248.778	0.113	0.247
-231.786	-112.073	-0.452	0.116
-230.771	-200.000	0.071	0.489
-229.757	-81.137	0.288	0.122
-228.742	800.000	0.031	0.117
-227.727	-75.463	-0.365	-0.166
-226.713	-200.000	0.070	0.428
-225.698	60.278	-0.249	-0.316
-224.684	-104.071	-0.063	-0.019
-223.669	-3.837	0.020	0.018
-222.655	235.754	0.162	-0.345
-221.640	-87.669	0.098	0.038
-220.625	-171.858	0.179	0.007
-219.611	-200.000	0.039	0.399
-218.596	-11.000	-0.193	0.163
-217.582	-37.447	0.032	-0.022
-216.567	-169.320	0.427	-0.020
-215.552	-116.889	0.414	-0.096
-214.538	800.000	-0.025	-0.133
-213.523	-132.157	0.254	-0.042
-212.509	-127.629	-0.398	0.073
-211.494	-200.000	-0.007	-0.161
-210.479	-200.000	0.003	0.211
-209.465	-154.234	-0.061	-0.005
-208.450	-28.554	0.414	0.305
-207.436	31.625	-0.111	0.122
-206.421	431.023	0.072	-0.201
-205.406	-54.013	0.305	-0.177
-204.392	16.581	0.290	0.293
-203.377	-24.331	-0.203	0.155
-202.363	395.459	-0.036	-0.097
-201.348	360.620	0.104	-0.269
-200.333	800.000	0.117	0.577
-199.319	-106.723	0.075	0.021
-198.304	-154.962	0.460	-0.038
-197.290	-23.584	-0.138	0.106
-196.275	78.019	-0.132	-0.181
-195.260	-106.132	0.463	-0.132
-194.246	-34.828	-0.333	0.233
-193.231	-200.000	0.032	0.244
-192.217	-200.000	0.020	-0.146
-191.202	22.250	-0.358	0.374
-190.187	450.351	-0.178	0.506
-189.173	-119.123	-0.490	-0.109
-188.158	800.000	-0.074	-0.383
-187.144	-101.354	0.786	0.244
-186.129	68.595	0.175	-0.230
-185.114	-154.712	-0.241	0.020
-184.100	195.403	-0.191	-0.372
-183.085	-200.000	0.014	0.299
-182.071	-200.000	-0.064	0.449
-181.056	800.000	-0.052	-0.184
-180.042	125.663	0.087	0.140
-179.027	-200.000	0.019	-0.337
-178.012	107.608	-0.086	-0.130
-176.998	3.803	0.446	-0.417
-175.983	11.736	-0.387	-0.380
-174.969	61.426	-0.226	-0.287
-173.954	46.594	-0.379	0.450
-172.939	-99.108	-0.281	-0.090
-171.925	-66.690	0.221	-0.112
-170.910	37.634	-0.360	0.409
-169.896	800.000	0.041	0.179
-168.881	-89.524	-0.218	-0.081
-167.866	53.966	0.135	0.165
-166.852	-113.112	-0.246	0.062
-165.837	-200.000	-0.010	0.414
-164.823	34.355	0.270	0.302
-163.808	335.434	-0.097	-0.242
-162.793	-155.693	0.135	-0.011
-161.779	-169.145	-0.022	-0.001
-160.764	-68.769	-0.108	-0.053
-159.750	-97.342	-0.534	0.177
-158.735	340.705	0.112	-0.281
-157.720	339.382	-0.104	0.261
-156.706	-128.005	-0.221	-0.040
-155.691	29.223	-0.362	0.392
-154.677	-69.463	0.133	-0.065
-153.662	-167.364	0.495	-0.025
-152.647	-40.637	0.198	-0.131
-151.633	58.133	0.066	-0.083
-150.618	-41.991	0.416	-0.272
-149.604	-110.420	-0.164	-0.043
-148.589	-87.935	-0.389	-0.149
-147.574	-164.663	-0.209	-0.012
-146.560	-200.000	0.006	0.160
-145.545	-76.386	0.709	0.318
-144.531	-157.781	0.157	-0.012
-143.516	-200.000	0.082	0.000
-142.502	302.773	0.284	-0.674
-141.487	-200.000	0.032	0.268
-140.472	800.000	-0.027	0.133
-139.458	13.648	-0.061	-0.060
-138.443	-32.348	-0.227	0.161
-137.429	323.367	0.216	-0.528
-136.414	-29.664	-0.083	0.060
-135.399	19.921	0.214	0.221
-134.385	78.680	0.161	-0.220
-133.370	-54.542	0.426	-0.245
-132.356	415.846	0.070	-0.191
-131.341	-200.000	-0.020	0.411
-130.326	22.193	0.141	0.147
-129.312	-93.104	0.394	-0.139
-128.297	228.606	0.062	-0.130
-127.283	574.715	-0.083	-0.261
-126.268	-22.497	-0.330	0.255
-125.253	371.950	0.119	0.310
-124.239	683.678	0.030	0.102
-123.224	47.779	-0.298	0.356
-122.210	-96.353	0.198	-0.067
-121.195	-200.000	0.016	0.093
