DTS Sentinel unit serial number:	SN409020Multiplexer serial number:	ORYXHardware model number:	OX4-SRSoftware version number:	ORYX F/W v3.00 Oryx Data Collector v3.7.2.0data status	okinstallation	HaddamTimeLapsedifferential loss correction	single-endedforward channel	channel 3reverse channel	N/Adate	2011/06/22time	10:16:17forward acquisition time	30.00reverse acquisition time	0.00gamma	498.7831k internal	0.1812k external	0.1812temperature offset calibration	1.0074default loss term (dB/km)	0.3790temperature slope calibration	1.3530multiplexer offset coefficient	1.0000multiplexer slope coefficient	1.0000fibre end	0.00T internal ref (°C)	29.69T ext. ref 1 (°C)	26.33T ext. ref 2 (°C)	0.22length (m)	temperature (°C)	Stokes	anti-Stokes-747.200	55.326	-0.102	0.127
-746.185	800.000	-0.019	0.100
-745.171	63.903	0.411	0.531
-744.156	29.093	-0.253	0.275
-743.142	216.934	-0.151	-0.309
-742.127	-31.011	0.210	-0.152
-741.112	294.859	0.146	0.344
-740.098	101.103	-0.210	0.314
-739.083	-121.000	0.158	0.034
-738.069	11.991	0.101	-0.099
-737.054	142.598	0.059	0.101
-736.039	-200.000	0.048	0.375
-735.025	5.683	-0.296	-0.280
-734.010	18.829	-0.281	-0.289
-732.996	-67.900	0.182	-0.091
-731.981	595.845	0.122	0.388
-730.966	-140.874	0.284	-0.037
-729.952	45.415	0.123	-0.145
-728.937	-200.000	-0.037	-0.247
-727.923	-47.752	0.241	-0.149
-726.908	-1.557	-0.085	0.077
-725.894	-200.000	-0.008	0.075
-724.879	800.000	-0.035	0.154
-723.864	-200.000	0.019	0.529
-722.850	-200.000	-0.064	0.539
-721.835	217.588	-0.075	0.153
-720.821	-200.000	0.016	0.161
-719.806	-78.597	-0.229	-0.100
-718.791	-200.000	-0.006	-0.498
-717.777	-200.000	-0.018	-0.531
-716.762	-200.000	-0.025	0.275
-715.748	-200.000	-0.075	0.631
-714.733	-108.450	-0.212	-0.058
-713.718	419.180	-0.158	-0.435
-712.704	800.000	-0.033	-0.121
-711.689	155.406	0.169	-0.299
-710.675	-200.000	-0.024	-0.166
-709.660	-186.407	0.182	-0.003
-708.645	76.058	-0.066	-0.090
-707.631	-80.519	-0.140	-0.060
-706.616	-121.604	-0.361	0.076
-705.602	-13.035	-0.312	-0.260
-704.587	-150.266	-0.284	0.028
-703.572	-126.284	-0.536	-0.102
-702.558	45.653	-0.290	0.344
-701.543	21.205	0.202	-0.210
-700.529	133.776	-0.223	0.371
-699.514	17.614	0.165	0.168
-698.499	-10.866	-0.093	0.078
-697.485	-86.428	-0.356	0.139
-696.470	-151.533	-0.196	0.018
-695.456	283.059	-0.128	-0.295
-694.441	800.000	0.077	0.368
-693.426	21.153	-0.278	0.289
-692.412	194.691	0.094	-0.183
-691.397	-99.096	-0.464	-0.150
-690.383	78.805	-0.149	0.205
-689.368	-128.969	0.232	-0.041
-688.354	-101.035	0.301	-0.094
-687.339	603.750	0.095	0.305
-686.324	-54.441	0.371	-0.215
-685.310	-14.188	0.248	0.205
-684.295	121.569	0.172	0.275
-683.281	800.000	-0.074	-0.325
-682.266	19.416	-0.114	0.117
-681.251	-157.534	0.119	-0.009
-680.237	-200.000	0.038	0.277
-679.222	-128.868	-0.258	-0.046
-678.208	-32.090	0.143	0.102
-677.193	-130.891	-0.247	-0.042
-676.178	26.485	-0.341	-0.365
-675.164	-25.132	0.135	-0.102
-674.149	-2.114	0.127	-0.114
-673.135	-116.646	0.326	-0.076
-672.120	43.366	-0.075	0.087
-671.105	90.718	-0.285	0.409
-670.091	-9.611	-0.116	0.099
-669.076	-113.736	0.130	-0.032
-668.062	155.834	0.052	-0.091
-667.047	125.584	-0.350	0.566
-666.032	178.880	0.206	-0.387
-665.018	-48.873	0.326	0.199
-664.003	32.461	-0.169	-0.187
-662.989	-200.000	-0.012	0.106
-661.974	233.479	0.069	0.147
-660.959	-194.744	-0.457	0.004
-659.945	22.764	-0.133	-0.139
-658.930	-171.355	-0.152	-0.006
-657.916	-90.663	-0.260	-0.096
-656.901	75.469	-0.316	0.428
-655.886	-200.000	0.028	-0.222
-654.872	-92.390	-0.228	-0.082
-653.857	-49.163	0.331	-0.202
-652.843	-168.037	-0.094	-0.005
-651.828	-9.513	0.346	-0.295
-650.814	-9.714	-0.406	-0.346
-649.799	26.594	-0.063	-0.067
-648.784	-133.871	0.331	-0.052
-647.770	-157.588	-0.151	-0.011
-646.755	20.808	-0.174	-0.181
-645.741	800.000	0.091	-0.462
-644.726	333.232	0.159	-0.396
-643.711	-37.883	0.438	-0.297
-642.697	-200.000	-0.010	0.295
-641.682	-42.891	0.098	-0.063
-640.668	-40.866	-0.219	0.145
-639.653	99.621	0.128	0.190
-638.638	330.840	-0.139	-0.345
-637.624	-127.307	0.320	0.059
-636.609	-121.900	-0.378	-0.079
-635.595	-68.897	-0.172	-0.084
-634.580	-175.597	-0.242	-0.008
-633.565	-131.211	0.246	-0.041
-632.551	75.623	0.067	0.091
-631.536	-200.000	-0.011	0.084
-630.522	-125.801	0.403	-0.077
-629.507	131.724	-0.042	-0.070
-628.492	-74.439	0.498	0.229
-627.478	123.091	-0.230	-0.370
-626.463	-158.906	0.431	-0.031
-625.449	327.704	-0.011	-0.027
-624.434	-68.664	0.123	0.060
-623.419	-200.000	0.026	-0.496
-622.405	263.122	-0.028	0.063
-621.390	-133.995	-0.423	-0.066
-620.376	-103.119	-0.541	0.162
-619.361	-200.000	-0.014	-0.278
-618.346	-48.200	-0.168	0.103
-617.332	-135.834	0.338	-0.050
-616.317	-200.000	-0.031	0.599
-615.303	800.000	0.043	0.165
-614.288	-45.212	0.352	-0.223
-613.273	-200.000	0.005	-0.068
-612.259	-124.142	-0.585	0.116
-611.244	-107.228	-0.306	-0.086
-610.230	800.000	-0.040	0.177
-609.215	-200.000	-0.025	0.235
-608.201	-67.684	0.603	0.300
-607.186	323.788	0.144	0.352
-606.171	20.769	0.168	-0.174
-605.157	-24.864	0.414	0.313
-604.142	-86.439	0.387	-0.151
-603.128	-2.091	-0.150	0.135
-602.113	4.564	-0.233	-0.218
-601.098	-200.000	0.027	-0.408
-600.084	-21.355	0.096	0.075
-599.069	-142.490	0.377	0.047
-598.055	-56.987	0.418	-0.235
-597.040	-47.766	0.526	0.325
-596.025	-8.736	0.147	0.126
-595.011	170.646	0.240	0.439
-593.996	-80.421	0.320	0.136
-592.982	666.477	-0.152	-0.504
-591.967	800.000	-0.101	0.410
-590.952	-105.022	-0.680	0.197
-589.938	-200.000	0.035	-0.405
-588.923	403.362	0.098	0.265
-587.909	-32.566	0.064	-0.045
-586.894	68.399	0.316	0.414
-585.879	-123.357	0.128	0.026
-584.865	-180.698	-0.093	-0.002
-583.850	-77.550	0.511	0.225
-582.836	-200.000	0.053	0.340
-581.821	-194.698	0.254	0.002
-580.806	-32.955	-0.117	0.083
-579.792	-200.000	-0.030	0.188
-578.777	-91.991	0.508	0.182
-577.763	14.092	-0.252	0.250
-576.748	-192.614	-0.592	-0.007
-575.733	101.602	0.106	-0.157
-574.719	-109.478	-0.331	0.089
-573.704	-79.913	-0.391	-0.167
-572.690	-12.567	-0.515	-0.428
-571.675	51.669	-0.294	0.357
-570.661	-200.000	-0.256	-0.001
-569.646	-182.702	-0.240	0.005
-568.631	-83.597	-0.421	0.171
-567.617	29.064	0.052	-0.056
-566.602	-155.427	-0.299	0.024
-565.588	-39.317	-0.098	0.066
-564.573	-68.833	0.089	0.044
-563.558	-117.150	0.323	-0.074
-562.544	-200.000	0.016	-0.252
-561.529	145.020	-0.190	0.325
-560.515	-26.351	0.296	-0.221
-559.500	103.321	-0.188	-0.282
-558.485	-72.018	0.126	0.060
-557.471	-97.278	0.569	-0.188
-556.456	-105.323	0.433	0.125
-555.442	-82.826	0.264	-0.108
-554.427	-151.216	-0.460	-0.043
-553.412	-127.227	-0.229	0.042
-552.398	-35.348	-0.615	0.425
-551.383	599.178	0.050	-0.159
-550.369	-132.355	0.665	-0.108
-549.354	-170.029	0.295	-0.013
-548.339	157.446	0.062	0.110
-547.325	563.141	0.128	0.397
-546.310	-171.540	0.446	0.019
-545.296	451.062	0.095	-0.269
-544.281	196.310	0.153	-0.298
-543.266	36.600	0.162	-0.182
-542.252	155.403	-0.247	0.435
-541.237	800.000	0.043	0.206
-540.223	75.716	0.097	0.131
-539.208	-200.000	-0.025	-0.223
-538.193	-88.805	-0.250	-0.094
-537.179	-55.545	0.411	0.234
-536.164	39.396	0.119	0.136
-535.150	131.792	-0.077	-0.127
-534.135	-131.176	-0.212	0.036
-533.121	-84.692	-0.313	0.125
-532.106	-139.462	-0.473	0.064
-531.091	-101.023	-0.191	-0.059
-530.077	-148.550	-0.243	0.025
-529.062	-2.933	-0.141	0.126
-528.048	-113.987	0.165	-0.040
-527.033	-99.222	-0.530	0.169
-526.018	-36.929	-0.428	-0.292
-525.004	-101.356	-0.431	-0.133
-523.989	-200.000	-0.029	0.267
-522.975	800.000	0.030	0.162
-521.960	-133.123	-0.222	0.036
-520.945	800.000	0.094	-0.383
-519.931	-105.035	0.314	-0.091
-518.916	92.226	0.114	-0.164
-517.902	-200.000	-0.052	-0.484
-516.887	-57.753	-0.214	0.119
-515.872	-150.015	0.248	-0.024
-514.858	3.757	0.412	-0.383
-513.843	800.000	0.034	-0.192
-512.829	-200.000	-0.024	-0.276
-511.814	-68.597	0.168	-0.083
-510.799	44.857	-0.364	-0.426
-509.785	30.831	-0.299	-0.326
-508.770	-45.087	0.161	-0.102
-507.756	-124.928	-0.228	0.044
-506.741	159.885	-0.096	-0.171
-505.726	-15.451	-0.250	-0.203
-504.712	800.000	0.007	0.033
-503.697	-144.383	-0.134	-0.016
-502.683	21.255	0.296	0.306
-501.668	41.889	-0.371	0.429
-500.653	800.000	0.095	0.411
-499.639	-28.653	0.220	0.161
-498.624	-200.000	0.031	0.482
-497.610	-55.528	0.553	0.314
-496.595	-71.176	-0.926	-0.440
-495.581	-138.578	-0.182	0.025
-494.566	-200.000	-0.007	-0.141
-493.551	-200.000	-0.010	0.099
-492.537	-200.000	-0.046	-0.370
-491.522	-200.000	0.123	0.722
-490.508	-56.276	0.174	0.098
-489.493	35.094	0.142	-0.158
-488.478	101.628	0.123	0.183
-487.464	-99.689	-0.190	-0.060
-486.449	502.355	-0.206	0.609
-485.435	-200.000	0.018	0.285
-484.420	17.583	-0.166	0.167
-483.405	800.000	-0.097	-0.402
-482.391	-153.864	0.349	-0.030
-481.376	-101.322	-0.084	-0.026
-480.362	-83.107	0.242	-0.098
-479.347	458.558	0.082	-0.234
-478.332	39.109	-0.170	0.193
-477.318	446.519	0.079	-0.221
-476.303	-159.266	0.374	-0.026
-475.289	-38.856	0.261	-0.175
-474.274	27.203	0.199	0.213
-473.259	-103.203	0.120	0.036
-472.245	-140.345	-0.338	0.044
-471.230	-85.127	-0.369	-0.146
-470.216	800.000	-0.078	0.280
-469.201	-53.708	-0.266	-0.154
-468.186	393.163	0.060	-0.159
-467.172	500.716	0.165	0.485
-466.157	172.868	-0.106	0.195
-465.143	-200.000	0.013	0.379
-464.128	-166.221	0.190	0.010
-463.113	-155.807	0.505	-0.040
-462.099	-50.753	0.155	-0.093
-461.084	-31.761	-0.182	0.129
-460.070	15.595	-0.236	0.236
-459.055	111.632	0.204	-0.313
-458.040	-150.626	-0.150	-0.014
-457.026	800.000	-0.043	-0.161
-456.011	-200.000	0.037	-0.238
-454.997	203.579	-0.172	-0.339
-453.982	-100.831	-0.396	0.123
-452.968	-36.567	-0.034	-0.023
-451.953	-63.308	-0.024	-0.012
-450.938	-193.428	-0.159	-0.002
-449.924	800.000	0.139	-0.551
-448.909	-87.104	-0.106	-0.041
-447.895	98.918	0.142	-0.209
-446.880	458.795	-0.128	-0.362
-445.865	-109.207	0.127	-0.034
-444.851	-20.195	-0.431	0.336
-443.836	-200.000	0.051	-0.302
-442.822	-138.153	0.426	0.059
-441.807	-200.000	-0.002	0.175
-440.792	800.000	-0.051	-0.254
-439.778	285.061	-0.090	0.206
-438.763	-200.000	0.001	-0.277
-437.749	-50.361	-0.434	0.259
-436.734	127.235	-0.095	0.153
-435.719	-45.132	0.098	0.061
-434.705	297.879	0.039	-0.091
-433.690	-107.153	0.145	-0.040
-432.676	-200.000	-0.056	-0.431
-431.661	-76.898	-0.443	-0.195
-430.646	99.183	-0.501	0.735
-429.632	-91.994	0.150	0.054
-428.617	-97.899	0.392	-0.128
-427.603	-105.631	-0.494	0.141
-426.588	-200.000	0.041	0.246
-425.573	269.075	-0.127	-0.284
-424.559	-140.335	0.324	0.042
-423.544	-82.248	-0.117	0.048
-422.530	-200.000	-0.068	0.491
-421.515	-5.425	-0.187	0.162
-420.500	-98.698	-0.317	-0.102
-419.486	800.000	0.049	0.263
-418.471	-78.957	-0.310	-0.133
-417.457	-45.535	-0.101	0.063
-416.442	16.657	0.407	-0.408
-415.428	-38.946	-0.449	0.299
-414.413	175.867	-0.053	0.099
-413.398	592.398	0.111	0.350
-412.384	-115.900	-0.139	0.033
-411.369	-200.000	0.016	-0.289
-410.355	-75.804	-0.496	-0.222
-409.340	-112.558	0.423	0.106
-408.325	-136.164	0.497	-0.073
-407.311	-34.685	0.193	-0.134
-406.296	-191.880	-0.212	0.003
-405.282	-9.420	-0.251	0.212
-404.267	-200.000	-0.020	0.175
-403.252	385.883	0.200	0.527
-402.238	123.299	-0.322	-0.512
-401.223	22.479	-0.382	0.395
-400.209	-112.127	0.498	0.126
-399.194	-200.000	-0.061	0.450
-398.179	-175.005	-0.391	-0.014
-397.165	-62.778	0.456	0.238
-396.150	-149.316	0.362	-0.036
-395.136	-200.000	-0.001	0.066
-394.121	20.587	0.041	0.042
-393.106	47.679	0.256	-0.303
-392.092	-200.000	-0.020	0.231
-391.077	-200.000	0.002	0.406
-390.063	547.764	-0.021	0.063
-389.048	24.756	-0.139	0.146
-388.033	-160.620	0.165	0.011
-387.019	121.680	0.047	0.074
-386.004	66.115	-0.061	0.078
-384.990	-127.958	0.504	-0.091
-383.975	-19.996	0.184	-0.144
-382.960	-200.000	-0.006	-0.174
-381.946	-200.000	0.060	-0.395
-380.931	35.092	-0.266	-0.295
-379.917	-102.127	-0.283	-0.086
-378.902	-200.000	-0.054	-0.381
-377.888	800.000	-0.051	0.209
-376.873	-7.077	0.146	0.126
-375.858	-85.341	0.355	-0.139
-374.844	68.205	0.144	-0.187
-373.829	-122.903	0.229	0.046
-372.815	-200.000	-0.038	0.588
-371.800	-120.476	0.296	0.063
-370.785	-75.822	-0.058	0.026
-369.771	17.546	-0.062	0.063
-368.756	-71.618	0.207	0.098
-367.742	2.080	-0.322	0.294
-366.727	469.079	0.151	-0.430
-365.712	-200.000	-0.022	-0.217
-364.698	118.782	0.030	0.046
-363.683	-75.672	-0.029	-0.013
-362.669	166.740	0.207	-0.373
-361.654	303.604	0.085	-0.200
-360.639	90.594	-0.278	0.394
-359.625	-22.951	-0.344	0.262
-358.610	-14.234	-0.277	-0.226
-357.596	-142.239	-0.174	-0.021
-356.581	-113.430	0.509	-0.125
-355.566	-62.424	0.396	-0.207
-354.552	-15.090	0.246	-0.199
-353.537	-35.426	-0.560	0.384
-352.523	-60.628	-0.332	-0.177
-351.508	-53.110	0.128	-0.074
-350.493	-25.101	-0.296	0.221
-349.479	196.024	-0.114	0.219
-348.464	194.217	0.100	-0.192
-347.450	-95.673	-0.242	-0.081
-346.435	-141.234	-0.495	0.063
-345.420	800.000	0.052	0.246
-344.406	111.463	-0.141	0.216
-343.391	-106.292	-0.091	0.026
-342.377	-200.000	-0.208	0.001
-341.362	325.219	-0.080	0.195
-340.348	-27.099	0.260	-0.191
-339.333	-148.413	-0.146	0.015
-338.318	145.519	0.197	0.334
-337.304	41.341	0.207	0.237
-336.289	276.123	0.039	0.088
-335.275	-200.000	-0.002	0.207
-334.260	-200.000	0.001	-0.049
-333.245	141.944	-0.175	-0.294
-332.231	7.545	0.152	-0.143
-331.216	-105.342	-0.359	-0.103
-330.202	127.233	-0.076	0.123
-329.187	183.710	0.104	-0.194
-328.172	-86.030	0.566	-0.220
-327.158	800.000	-0.041	0.197
-326.143	129.008	0.171	-0.276
-325.129	-49.066	-0.041	0.025
-324.114	-190.941	0.345	0.004
-323.099	-183.740	0.169	0.004
-322.085	-145.666	0.508	0.057
-321.070	-200.000	0.055	-0.350
-320.056	171.230	-0.182	-0.331
-319.041	194.065	0.126	0.243
-318.026	-41.169	0.168	0.109
-317.012	-41.988	0.389	-0.251
-315.997	76.127	-0.220	-0.294
-314.983	-127.798	0.371	-0.067
-313.968	-99.610	-0.266	0.084
-312.953	38.120	0.109	-0.123
-311.939	-200.000	-0.006	0.389
-310.924	61.992	0.149	0.187
-309.910	-110.153	-0.501	0.131
-308.895	-179.779	-0.434	-0.012
-307.880	607.247	0.164	0.519
-306.866	800.000	0.045	-0.174
-305.851	563.007	-0.129	-0.398
-304.837	51.902	-0.324	-0.389
-303.822	85.388	0.197	-0.273
-302.807	-43.553	-0.331	-0.211
-301.793	-89.850	-0.202	0.074
-300.778	800.000	0.114	-0.434
-299.764	-9.531	0.126	0.106
-298.749	-56.459	-0.323	0.180
-297.735	167.037	-0.030	-0.055
-296.720	117.664	0.087	-0.136
-295.705	-200.000	-0.091	-0.548
-294.691	195.171	0.073	-0.140
-293.676	145.563	0.207	-0.351
-292.662	-48.988	-0.088	-0.053
-291.647	-200.000	0.086	0.508
-290.632	-200.000	0.039	-0.476
-289.618	12.450	-0.377	-0.367
-288.603	-41.400	0.353	0.228
-287.589	-200.000	-0.105	-0.716
-286.574	-200.000	-0.012	0.079
-285.559	5.509	0.325	-0.303
-284.545	-118.583	0.091	0.020
-283.530	-4.594	-0.111	-0.097
-282.516	212.251	-0.163	-0.326
-281.501	-31.335	-0.252	-0.178
-280.486	25.959	-0.215	0.226
-279.472	153.595	-0.109	-0.189
-278.457	-74.761	0.152	-0.069
-277.443	-200.000	0.075	-0.434
-276.428	-129.243	0.379	-0.066
-275.413	330.873	-0.155	0.379
-274.399	-200.000	-0.041	-0.245
-273.384	-200.000	0.015	0.172
-272.370	-143.791	-0.321	-0.038
-271.355	-24.669	-0.071	-0.053
-270.340	-65.815	0.094	0.047
-269.326	95.852	-0.158	0.228
-268.311	-193.661	-0.210	-0.002
-267.297	-38.278	-0.216	0.144
-266.282	-38.302	-0.202	-0.135
-265.267	-81.899	-0.303	0.124
-264.253	32.183	0.246	0.267
-263.238	-126.356	0.040	-0.007
-262.224	-148.017	0.759	0.078
-261.209	59.574	0.369	0.459
-260.195	800.000	-0.065	0.355
-259.180	-200.000	0.036	-0.342
-258.165	119.412	-0.273	-0.426
-257.151	173.997	-0.242	0.441
-256.136	-106.314	-0.260	0.073
-255.122	93.469	-0.036	0.051
-254.107	-139.862	-0.174	-0.023
-253.092	-55.233	-0.406	-0.229
-252.078	-200.000	0.020	-0.279
-251.063	97.046	0.271	0.392
-250.049	296.869	0.157	0.365
-249.034	-200.000	-0.077	-0.438
-248.019	64.433	-0.146	0.185
-247.005	-50.751	0.333	0.197
-245.990	146.518	0.265	0.449
-244.976	270.618	-0.150	0.333
-243.961	-27.263	-0.089	0.065
-242.946	600.840	-0.124	-0.389
-241.932	1.340	0.288	-0.261
-240.917	-84.861	0.290	-0.114
-239.903	-200.000	0.055	0.371
-238.888	113.882	0.165	0.253
-237.873	-136.403	0.229	-0.033
-236.859	-121.564	-0.247	0.051
-235.844	348.902	0.220	0.549
-234.830	514.287	0.009	-0.026
-233.815	611.992	-0.138	-0.436
-232.800	169.278	-0.123	-0.221
-231.786	214.101	0.044	-0.088
-230.771	-188.305	-0.128	0.002
-229.757	800.000	-0.072	-0.312
-228.742	53.139	0.193	0.233
-227.727	7.715	0.364	-0.343
-226.713	-57.947	0.021	0.011
-225.698	-200.000	0.012	-0.510
-224.684	-151.070	-0.118	-0.011
-223.669	800.000	-0.062	-0.269
-222.655	-96.905	-0.579	0.190
-221.640	298.941	0.226	0.524
-220.625	-24.084	-0.570	-0.428
-219.611	132.608	-0.409	0.665
-218.596	136.134	-0.100	-0.164
-217.582	-68.359	-0.423	-0.206
-216.567	217.811	-0.138	0.278
-215.552	266.774	-0.066	-0.145
-214.538	-106.955	-0.351	-0.097
-213.523	-200.000	-0.003	-0.106
-212.509	-59.606	-0.311	-0.167
-211.494	-24.128	0.190	-0.143
-210.479	274.663	0.079	-0.178
-209.465	-139.725	0.284	0.037
-208.450	-91.236	0.468	0.168
-207.436	258.513	-0.104	-0.227
-206.421	442.054	0.076	0.209
-205.406	-107.660	0.517	0.141
-204.392	77.715	-0.136	-0.183
-203.377	-82.857	0.133	0.054
-202.363	108.378	0.222	0.334
-201.348	-200.000	0.031	-0.432
-200.333	554.903	-0.114	0.347
-199.319	52.465	-0.230	0.276
-198.304	191.972	0.244	0.464
-197.290	374.134	0.240	0.616
-196.275	-68.021	0.490	-0.239
-195.260	-200.000	-0.013	-0.178
-194.246	128.160	-0.065	-0.105
-193.231	43.712	0.419	0.482
-192.217	73.729	0.110	-0.144
-191.202	373.925	0.084	-0.217
-190.187	-148.746	-0.200	0.020
-189.173	-93.745	-0.454	0.156
-188.158	-30.115	0.300	-0.214
-187.144	-9.674	0.023	0.019
-186.129	-93.166	-0.233	-0.081
-185.114	259.822	-0.072	-0.156
-184.100	-123.846	0.447	-0.088
-183.085	78.853	0.203	0.273
-182.071	800.000	-0.086	-0.455
-181.056	79.306	0.076	-0.102
-180.042	207.833	0.103	0.202
-179.027	-84.175	0.221	0.088
-178.012	-123.708	-0.590	0.116
-176.998	143.031	-0.083	0.138
-175.983	480.077	-0.091	-0.262
-174.969	17.113	-0.179	-0.178
-173.954	118.987	0.402	-0.625
-172.939	55.733	0.241	0.293
-171.925	-33.055	0.316	0.220
-170.910	800.000	-0.119	-0.436
-169.896	252.861	0.109	0.234
-168.881	427.726	0.204	0.555
-167.866	11.093	-0.385	-0.370
-166.852	-164.333	0.283	-0.016
-165.837	-139.029	-0.103	0.014
-164.823	-62.692	-0.230	0.119
-163.808	54.355	0.224	-0.271
-162.793	502.142	-0.110	0.321
-161.779	69.491	0.015	-0.019
-160.764	434.927	-0.191	0.525
-159.750	18.600	0.278	-0.279
-158.735	-16.967	0.290	0.229
-157.720	101.500	-0.288	0.421
-156.706	256.753	0.251	-0.542
-155.691	351.652	-0.123	-0.308
-154.677	172.213	0.225	-0.407
-153.662	478.785	0.078	0.224
-152.647	8.726	-0.322	0.304
-151.633	-2.646	0.183	-0.160
-150.618	8.533	-0.471	-0.444
-149.604	-138.868	-0.250	-0.034
-148.589	-42.277	0.364	0.232
-147.574	-79.536	0.363	0.153
-146.560	2.874	0.475	0.432
-145.545	8.991	-0.162	-0.153
-144.531	-200.000	-0.036	0.368
-143.516	271.131	0.073	0.161
-142.502	-200.000	-0.027	0.157
-141.487	-85.501	-0.066	-0.026
-140.472	-34.111	0.600	-0.412
-139.458	800.000	0.079	0.394
-138.443	-36.759	0.142	-0.095
-137.429	-29.105	0.256	-0.184
-136.414	-200.000	-0.000	0.789
-135.399	-200.000	-0.022	0.300
-134.385	-200.000	0.049	0.497
-133.370	-42.074	0.322	0.206
-132.356	-125.341	0.422	0.080
-131.341	-73.564	0.540	-0.246
-130.326	-72.851	0.360	0.165
-129.312	714.569	0.021	0.072
-128.297	32.248	0.206	0.223
-127.283	-175.479	-0.171	-0.006
-126.268	-200.000	-0.046	0.265
-125.253	-93.882	-0.072	0.025
-124.239	18.347	-0.261	-0.261
-123.224	-200.000	-0.000	0.457
-122.210	-140.734	-0.432	0.055
