DTS Sentinel unit serial number:	SN409020Multiplexer serial number:	ORYXHardware model number:	OX4-SRSoftware version number:	ORYX F/W v3.00 Oryx Data Collector v3.7.2.0data status	okinstallation	HaddamTimeLapsedifferential loss correction	single-endedforward channel	channel 3reverse channel	N/Adate	2011/06/22time	07:36:17forward acquisition time	30.00reverse acquisition time	0.00gamma	498.7831k internal	0.1758k external	0.1758temperature offset calibration	1.0074default loss term (dB/km)	0.3790temperature slope calibration	1.3530multiplexer offset coefficient	1.0000multiplexer slope coefficient	1.0000fibre end	0.00T internal ref (°C)	23.62T ext. ref 1 (°C)	21.06T ext. ref 2 (°C)	0.14length (m)	temperature (°C)	Stokes	anti-Stokes-747.200	159.105	0.066	-0.122
-746.185	-200.000	-0.023	0.266
-745.171	78.309	0.040	0.056
-744.156	144.658	-0.046	-0.081
-743.142	-92.616	-0.662	0.244
-742.127	91.448	-0.247	0.368
-741.112	-52.371	-0.617	0.376
-740.098	-200.000	0.067	0.514
-739.083	550.312	0.141	-0.449
-738.069	800.000	-0.116	0.468
-737.054	-55.422	-0.150	0.089
-736.039	800.000	0.040	0.230
-735.025	255.594	-0.187	0.425
-734.010	-38.261	0.346	0.242
-732.996	287.135	0.184	0.440
-731.981	-29.355	0.333	0.252
-730.966	-60.370	-0.329	0.185
-729.952	-156.119	-0.155	0.013
-728.937	-119.648	0.414	-0.094
-727.923	622.752	0.053	0.179
-726.908	611.649	-0.069	0.228
-725.894	76.558	0.171	-0.240
-724.879	-13.265	-0.271	0.232
-723.864	-84.182	-0.257	0.107
-722.850	680.882	0.024	0.082
-721.835	-121.343	-0.204	0.045
-720.821	800.000	-0.078	-0.299
-719.806	-176.463	0.163	0.005
-718.791	-4.190	0.242	0.221
-717.777	137.909	-0.258	-0.447
-716.762	-200.000	-0.507	-0.002
-715.748	45.217	0.091	-0.111
-714.733	152.173	0.200	0.361
-713.718	-118.512	0.205	0.048
-712.704	-200.000	-0.046	0.370
-711.689	-164.528	-0.322	-0.019
-710.675	-200.000	0.021	-0.299
-709.660	385.365	0.110	0.302
-708.645	-5.323	-0.091	0.082
-707.631	-200.000	0.063	0.395
-706.616	-2.020	-0.097	-0.090
-705.602	223.173	0.215	-0.459
-704.587	-43.223	-0.116	0.078
-703.572	4.557	-0.236	0.228
-702.558	-200.000	-0.019	0.313
-701.543	-112.273	-0.620	0.163
-700.529	9.788	0.423	0.424
-699.514	266.328	-0.258	0.596
-698.499	4.241	-0.110	0.106
-697.485	-1.085	0.377	0.352
-696.470	4.357	-0.185	-0.179
-695.456	-180.074	-0.140	0.004
-694.441	-148.260	-0.118	0.013
-693.426	-200.000	-0.035	-0.232
-692.412	196.539	0.115	-0.232
-691.397	18.345	-0.151	-0.159
-690.383	-200.000	0.030	0.361
-689.368	-200.000	-0.032	-0.217
-688.354	190.765	-0.046	-0.091
-687.339	-200.000	0.038	-0.253
-686.324	-22.610	-0.062	0.049
-685.310	213.462	-0.142	0.297
-684.295	-142.519	-0.335	0.043
-683.281	-29.116	-0.286	-0.216
-682.266	-161.527	-0.200	0.013
-681.251	-159.263	-0.433	0.032
-680.237	139.625	0.264	0.459
-679.222	-162.966	0.338	0.021
-678.208	101.368	-0.087	0.134
-677.193	291.417	-0.087	0.209
-676.178	85.623	-0.039	-0.056
-675.164	-200.000	-0.040	0.500
-674.149	-61.375	0.452	-0.250
-673.135	-4.859	0.322	0.293
-672.120	-95.383	0.096	0.034
-671.105	-77.526	-0.438	0.199
-670.091	-102.729	-0.671	-0.209
-669.076	-123.801	-0.195	0.040
-668.062	-92.270	-0.294	-0.109
-667.047	-105.746	0.507	0.150
-666.032	-6.008	0.196	0.177
-665.018	800.000	0.120	0.587
-664.003	479.881	-0.193	-0.579
-662.989	-0.859	0.441	-0.411
-661.974	-191.241	-0.203	0.003
-660.959	-133.572	-0.428	0.070
-659.945	119.913	0.151	0.247
-658.930	171.981	0.056	-0.106
-657.916	800.000	0.095	-0.391
-656.901	-56.945	-0.322	0.187
-655.886	255.794	0.098	-0.222
-654.872	-145.093	-0.394	-0.047
-653.857	-27.570	-0.340	-0.260
-652.843	3.414	-0.153	-0.146
-651.828	-32.251	-0.121	-0.089
-650.814	171.975	-0.218	0.414
-649.799	-200.000	-0.056	0.398
-648.784	800.000	-0.055	0.261
-647.770	90.503	-0.240	-0.355
-646.755	337.877	-0.124	-0.320
-645.741	-71.354	0.257	-0.127
-644.726	300.808	0.216	-0.528
-643.711	35.683	-0.016	0.019
-642.697	185.762	0.081	-0.159
-641.682	-200.000	0.009	0.138
-640.668	-29.876	-0.395	0.296
-639.653	12.454	0.316	-0.320
-638.638	-0.603	-0.128	-0.120
-637.624	-25.890	-0.380	-0.294
-636.609	-79.571	-0.200	-0.089
-635.595	-200.000	-0.037	0.309
-634.580	-156.316	-0.471	-0.038
-633.565	-200.000	0.032	0.197
-632.551	93.993	-0.088	-0.132
-631.536	-21.406	0.304	-0.244
-630.522	-102.547	0.061	0.019
-629.507	-53.812	0.406	0.243
-628.492	-155.765	0.489	-0.041
-627.478	-200.000	-0.031	0.182
-626.463	29.545	-0.173	0.194
-625.449	-64.915	-0.171	0.090
-624.434	-200.000	0.022	0.140
-623.419	-200.000	-0.009	0.366
-622.405	-99.377	-0.078	-0.026
-621.390	-36.971	0.185	-0.130
-620.376	800.000	0.033	0.140
-619.361	207.933	0.150	-0.309
-618.346	-87.302	0.441	-0.175
-617.332	-40.333	0.178	0.122
-616.317	-79.156	0.438	-0.195
-615.303	-76.183	-0.186	0.086
-614.288	-49.834	0.283	0.176
-613.273	800.000	-0.026	-0.146
-612.259	-69.294	0.229	-0.115
-611.244	-200.000	0.052	-0.424
-610.230	8.701	0.126	-0.125
-609.215	75.919	-0.202	-0.282
-608.201	-30.446	-0.407	-0.303
-607.186	-200.000	0.003	0.222
-606.171	-105.657	-0.257	-0.076
-605.157	-121.669	0.416	-0.090
-604.142	-144.879	-0.229	0.027
-603.128	-108.675	-0.167	0.047
-602.113	-69.759	-0.037	-0.019
-601.098	-43.047	-0.330	-0.219
-600.084	188.335	-0.124	-0.245
-599.069	197.897	0.211	0.425
-598.055	-85.460	0.372	0.152
-597.040	-43.735	0.102	0.068
-596.025	129.772	0.199	0.336
-595.011	-120.005	-0.246	-0.055
-593.996	128.045	-0.151	0.253
-592.982	-52.062	0.334	0.203
-591.967	-183.435	-0.282	0.006
-590.952	-77.660	0.259	-0.118
-589.938	-149.781	0.135	0.014
-588.923	-200.000	-0.025	-0.169
-587.909	-90.938	-0.239	0.090
-586.894	-200.000	0.027	0.237
-585.879	-200.000	0.023	-0.435
-584.865	-200.000	0.071	0.606
-583.850	-200.000	-0.014	0.084
-582.836	163.785	-0.085	-0.157
-581.821	-39.541	0.264	-0.181
-580.806	637.746	-0.104	-0.349
-579.792	-67.642	-0.104	-0.053
-578.777	69.620	-0.265	-0.359
-577.763	164.519	0.148	-0.276
-576.748	-200.000	0.029	0.301
-575.733	-76.850	-0.240	-0.110
-574.719	175.454	-0.313	-0.598
-573.704	-156.840	0.226	0.018
-572.690	379.219	0.126	-0.339
-571.675	-200.000	0.006	0.188
-570.661	-159.946	0.292	-0.021
-569.646	24.430	-0.088	0.095
-568.631	-172.352	-0.383	-0.016
-567.617	-55.031	0.456	0.269
-566.602	72.634	0.177	0.242
-565.588	330.464	-0.043	-0.109
-564.573	107.904	0.210	-0.330
-563.558	-77.439	-0.162	-0.074
-562.544	-60.893	-0.425	-0.235
-561.529	-60.644	-0.322	-0.178
-560.515	-168.598	0.058	0.003
-559.500	84.790	0.245	-0.353
-558.485	-200.000	-0.002	0.296
-557.471	-47.218	-0.149	-0.095
-556.456	-111.689	0.126	-0.033
-555.442	800.000	0.106	0.457
-554.427	293.368	-0.059	-0.143
-553.412	-75.231	-0.543	-0.253
-552.398	-8.866	-0.079	-0.069
-551.383	-200.000	-0.055	-0.623
-550.369	84.443	-0.102	-0.147
-549.354	-17.112	0.079	0.065
-548.339	-13.849	-0.095	-0.080
-547.325	211.487	0.014	-0.029
-546.310	527.408	0.065	-0.202
-545.296	77.262	0.060	0.084
-544.281	-28.271	-0.087	-0.066
-543.266	-151.471	0.349	-0.034
-542.252	-166.267	0.805	-0.044
-541.237	-165.153	0.481	0.028
-540.223	800.000	0.065	-0.261
-539.208	-149.102	-0.247	0.026
-538.193	-79.704	0.282	-0.124
-537.179	-122.447	-0.690	-0.146
-536.164	-76.478	-0.471	0.216
-535.150	-200.000	-0.426	0.001
-534.135	326.448	-0.085	0.214
-533.121	-12.173	-0.426	0.366
-532.106	359.761	0.254	0.669
-531.091	-1.918	0.241	0.222
-530.077	356.179	-0.096	-0.252
-529.062	-179.254	-0.143	-0.004
-528.048	43.698	-0.238	-0.286
-527.033	-151.426	-0.367	0.035
-526.018	45.981	0.470	0.571
-525.004	37.890	-0.283	0.330
-523.989	-53.870	-0.349	-0.208
-522.975	406.765	-0.203	-0.566
-521.960	-102.009	-0.155	0.049
-520.945	-42.697	0.230	-0.153
-519.931	17.897	0.138	0.144
-518.916	-144.798	0.434	-0.052
-517.902	800.000	-0.091	-0.349
-516.887	-97.570	-0.300	-0.102
-515.872	291.285	-0.120	-0.287
-514.858	-200.000	0.033	0.441
-513.843	-200.000	0.032	0.237
-512.829	155.523	-0.145	-0.263
-511.814	-104.557	-0.124	0.037
-510.799	-107.513	0.284	0.081
-509.785	-200.000	0.020	0.137
-508.770	130.344	-0.148	-0.249
-507.756	400.448	0.025	-0.069
-506.741	-75.081	-0.479	0.223
-505.726	-100.409	0.787	0.254
-504.712	128.234	-0.212	0.355
-503.697	-122.614	-0.380	-0.080
-502.683	-56.499	-0.161	0.093
-501.668	-164.137	0.285	0.017
-500.653	-158.665	-0.522	0.039
-499.639	-80.151	0.057	0.025
-498.624	-93.849	-0.176	-0.063
-497.610	-200.000	-0.028	0.177
-496.595	-117.685	0.335	-0.078
-495.581	64.476	0.069	-0.092
-494.566	-118.775	-0.332	0.076
-493.551	-121.431	-0.284	0.061
-492.537	800.000	0.127	-0.530
-491.522	-100.844	-0.411	-0.132
-490.508	413.736	-0.074	-0.208
-489.493	-185.566	0.218	-0.004
-488.478	677.895	-0.056	0.190
-487.464	-104.569	-0.182	-0.055
-486.449	-200.000	0.004	-0.104
-485.435	-200.000	-0.011	0.393
-484.420	23.735	0.151	-0.163
-483.405	-17.312	0.125	-0.103
-482.391	-108.985	0.366	0.102
-481.376	102.867	0.256	0.392
-480.362	148.374	0.132	0.235
-479.347	30.619	-0.429	0.480
-478.332	51.270	-0.171	-0.212
-477.318	447.198	0.125	0.361
-476.303	206.955	-0.231	0.472
-475.289	-139.122	-0.234	0.033
-474.274	-125.907	0.156	0.031
-473.259	-64.139	-0.111	0.059
-472.245	-13.062	0.076	-0.064
-471.230	357.872	0.232	-0.609
-470.216	25.756	0.117	-0.127
-469.201	-26.641	0.365	0.279
-468.186	-112.195	-0.189	-0.049
-467.172	-139.658	-0.304	-0.042
-466.157	-45.948	0.282	0.181
-465.143	800.000	0.058	-0.280
-464.128	328.071	0.118	0.297
-463.113	80.333	0.176	0.249
-462.099	41.654	0.268	0.318
-461.084	-80.002	-0.206	-0.090
-460.070	217.234	-0.162	-0.339
-459.055	-200.000	0.019	-0.360
-458.040	368.544	-0.050	-0.134
-457.026	-124.983	-0.292	0.058
-456.011	-80.076	0.204	-0.089
-454.997	299.058	-0.159	0.383
-453.982	-98.098	0.291	-0.097
-452.968	3.472	-0.538	0.512
-451.953	-81.719	-0.147	-0.063
-450.938	-151.532	-0.669	-0.064
-449.924	800.000	-0.170	0.632
-448.909	79.916	0.247	-0.347
-447.895	99.166	-0.108	0.164
-446.880	-34.593	-0.181	0.129
-445.865	-200.000	-0.079	0.686
-444.851	-184.462	-0.116	-0.002
-443.836	-17.656	0.207	-0.170
-442.822	201.593	0.154	-0.311
-441.807	64.638	-0.037	0.048
-440.792	-79.884	0.580	-0.254
-439.778	224.853	0.095	-0.202
-438.763	-200.000	-0.109	-0.735
-437.749	-153.495	0.213	-0.019
-436.734	-37.554	0.338	0.235
-435.719	44.519	0.064	0.077
-434.705	-77.957	-0.537	-0.241
-433.690	45.937	-0.121	0.146
-432.676	800.000	-0.011	-0.059
-431.661	-24.183	0.403	0.314
-430.646	-53.104	0.283	0.169
-429.632	119.747	-0.360	0.585
-428.617	17.244	-0.136	-0.141
-427.603	50.832	0.169	0.209
-426.588	-200.000	0.022	-0.452
-425.573	-7.122	0.321	-0.284
-424.559	-136.574	0.587	0.088
-423.544	-127.144	-0.169	-0.032
-422.530	538.486	0.017	-0.054
-421.515	134.919	-0.233	-0.397
-420.500	81.521	0.332	-0.469
-419.486	-200.000	0.020	0.224
-418.471	-162.647	-0.510	-0.032
-417.457	9.067	-0.282	-0.278
-416.442	-106.070	-0.298	0.087
-415.428	-146.063	-0.266	-0.030
-414.413	-200.000	0.006	-0.126
-413.398	-134.548	-0.712	-0.112
-412.384	142.783	0.261	0.454
-411.369	-61.429	-0.499	0.273
-410.355	152.557	0.183	0.327
-409.340	6.717	0.136	-0.132
-408.325	-135.509	-0.273	-0.042
-407.311	430.773	0.014	-0.040
-406.296	378.648	-0.111	-0.297
-405.282	-145.265	-0.086	-0.010
-404.267	280.374	0.157	-0.368
-403.252	-4.647	0.445	-0.401
-402.238	800.000	0.031	-0.136
-401.223	-155.230	0.232	0.019
-400.209	71.235	0.168	-0.228
-399.194	-136.875	-0.253	0.038
-398.179	-18.101	-0.041	-0.034
-397.165	800.000	-0.062	0.263
-396.150	800.000	-0.065	-0.274
-395.136	800.000	-0.133	-0.604
-394.121	-200.000	-0.054	0.425
-393.106	36.394	-0.216	0.249
-392.092	-53.132	0.033	0.020
-391.077	569.175	-0.108	0.346
-390.063	-28.831	0.107	0.080
-389.048	428.203	-0.156	-0.442
-388.033	83.777	0.122	-0.174
-387.019	-144.521	0.764	0.091
-386.004	142.987	0.212	-0.368
-384.990	-104.259	-0.293	-0.088
-383.975	-108.737	0.392	-0.109
-382.960	-78.808	0.151	0.067
-381.946	-200.000	0.178	0.000
-380.931	7.995	0.206	-0.202
-379.917	33.516	-0.207	0.235
-378.902	-22.538	-0.048	-0.038
-377.888	-200.000	-0.011	0.178
-376.873	2.314	0.359	0.338
-375.858	-65.035	-0.218	-0.114
-374.844	-13.148	-0.359	-0.304
-373.829	800.000	-0.084	0.402
-372.815	-188.510	-0.256	-0.004
-371.800	-69.262	0.230	-0.115
-370.785	97.844	-0.264	0.397
-369.771	313.919	-0.195	-0.479
-368.756	800.000	0.063	0.312
-367.742	800.000	-0.153	0.648
-366.727	4.933	0.091	-0.087
-365.712	-26.306	0.191	-0.146
-364.698	106.682	0.191	-0.296
-363.683	328.249	0.051	0.127
-362.669	-61.708	0.222	-0.121
-361.654	378.528	0.214	0.572
-360.639	0.766	-0.062	-0.058
-359.625	-23.423	-0.229	-0.179
-358.610	-143.092	0.589	-0.073
-357.596	-200.000	-0.032	-0.352
-356.581	344.277	0.196	-0.504
-355.566	-41.580	-0.390	-0.261
-354.552	35.830	0.586	0.672
-353.537	-150.568	0.376	-0.037
-352.523	-200.000	0.061	-0.540
-351.508	46.413	0.158	-0.191
-350.493	-93.725	-0.310	0.111
-349.479	-200.000	-0.036	-0.352
-348.464	-55.248	0.209	0.122
-347.450	-96.655	0.097	0.033
-346.435	-82.722	0.266	0.111
-345.420	-88.381	0.423	0.164
-344.406	-72.051	0.409	-0.197
-343.391	800.000	-0.018	-0.081
-342.377	-99.845	-0.233	-0.075
-341.362	285.137	0.164	0.385
-340.348	298.640	-0.146	-0.350
-339.333	101.656	0.250	-0.380
-338.318	205.691	-0.115	-0.234
-337.304	145.740	0.191	-0.334
-336.289	-78.437	0.205	0.091
-335.275	-154.495	-0.256	-0.022
-334.260	-39.100	-0.160	0.109
-333.245	5.803	-0.070	-0.067
-332.231	-61.397	0.265	0.145
-331.216	800.000	-0.096	0.450
-330.202	295.224	-0.152	0.363
-329.187	-182.277	0.251	0.006
-328.172	687.183	-0.086	0.295
-327.158	800.000	-0.032	-0.138
-326.143	-18.647	0.411	0.333
-325.129	-200.000	0.024	-0.285
-324.114	313.296	0.109	-0.267
-323.099	148.524	-0.073	-0.129
-322.085	-20.547	-0.247	-0.197
-321.070	47.640	-0.213	-0.258
-320.056	800.000	0.027	-0.131
-319.041	346.188	-0.041	-0.107
-318.026	-2.718	-0.266	0.242
-317.012	800.000	-0.052	-0.229
-315.997	-116.543	-0.368	0.088
-314.983	-200.000	0.051	0.530
-313.968	-147.751	0.491	0.053
-312.953	415.023	0.193	-0.537
-311.939	312.005	0.161	-0.395
-310.924	-200.000	-0.022	-0.176
-309.910	245.984	0.132	-0.290
-308.895	-94.519	0.054	0.019
-307.880	-119.580	0.254	0.057
-306.866	352.774	-0.126	0.327
-305.851	800.000	-0.090	0.362
-304.837	55.377	0.217	-0.273
-303.822	-74.783	-0.567	0.264
-302.807	538.501	0.030	-0.094
-301.793	-77.291	-0.353	-0.159
-300.778	-86.517	0.444	0.176
-299.764	92.142	0.127	0.187
-298.749	376.792	0.155	0.413
-297.735	-139.595	-0.395	-0.054
-296.720	80.308	-0.184	0.258
-295.705	-111.868	0.845	0.220
-294.691	186.891	0.117	-0.227
-293.676	800.000	0.055	0.240
-292.662	554.532	-0.048	0.152
-291.647	800.000	0.086	0.491
-290.632	-75.013	-0.290	-0.134
-289.618	-168.992	0.075	-0.004
-288.603	51.121	0.278	0.343
-287.589	-68.598	0.303	0.152
-286.574	147.519	-0.104	-0.182
-285.559	-93.517	0.135	0.048
-284.545	120.051	-0.060	0.097
-283.530	285.197	-0.139	0.327
-282.516	255.931	0.060	0.135
-281.501	-107.991	-0.117	0.033
-280.486	-76.294	-0.167	0.076
-279.472	800.000	0.019	-0.073
-278.457	-105.396	-0.351	0.103
-277.443	800.000	0.071	0.354
-276.428	-151.860	-0.291	0.027
-275.413	89.971	0.103	0.150
-274.399	186.878	-0.148	0.287
-273.384	201.183	0.087	0.174
-272.370	-200.000	-0.021	-0.187
-271.355	205.029	0.069	-0.139
-270.340	-200.000	-0.044	-0.309
-269.326	236.587	-0.058	-0.125
-268.311	-127.989	-0.190	0.035
-267.297	319.337	0.138	0.342
-266.282	20.480	0.319	0.335
-265.267	-138.359	0.189	-0.027
-264.253	-63.920	0.260	-0.137
-263.238	-198.744	0.638	0.004
-262.224	444.143	0.180	0.514
-261.209	-58.782	0.199	0.111
-260.195	264.564	-0.099	0.225
-259.180	-14.648	-0.498	0.415
-258.165	125.160	-0.239	0.391
-257.151	67.451	0.252	0.335
-256.136	190.995	-0.126	0.247
-255.122	-124.913	0.141	0.028
-254.107	60.791	0.172	0.221
-253.092	-33.401	-0.232	-0.166
-252.078	289.486	-0.122	0.288
-251.063	-48.762	0.313	-0.194
-250.049	-141.377	-0.276	0.036
-249.034	-85.164	0.089	-0.036
-248.019	-14.228	0.499	0.417
-247.005	146.526	0.183	-0.320
-245.990	800.000	0.066	-0.339
-244.976	-95.048	0.473	0.165
-243.961	191.346	0.208	-0.407
-242.946	-165.096	0.431	0.024
-241.932	-80.310	-0.191	-0.083
-240.917	68.593	-0.098	-0.130
-239.903	-145.609	-0.254	-0.029
-238.888	-85.062	0.646	0.261
-237.873	800.000	0.121	0.579
-236.859	20.210	-0.118	-0.124
-235.844	40.554	-0.123	0.143
-234.830	-61.073	-0.330	0.180
-233.815	-174.234	-0.413	-0.015
-232.800	285.262	-0.235	0.551
-231.786	-183.791	0.624	-0.013
-230.771	173.962	0.245	-0.460
-229.757	-200.000	0.037	0.361
-228.742	-103.708	-0.270	0.082
-227.727	800.000	-0.169	0.655
-226.713	92.460	-0.138	0.202
-225.698	800.000	-0.049	-0.271
-224.684	-66.960	-0.153	0.078
-223.669	-200.000	0.023	0.419
-222.655	57.200	-0.127	-0.161
-221.640	-97.364	-0.438	0.147
-220.625	-40.644	-0.252	-0.169
-219.611	735.287	-0.242	-0.845
-218.596	800.000	0.036	-0.173
-217.582	-200.000	0.007	-0.144
-216.567	-113.506	-0.159	0.040
-215.552	-55.961	-0.491	0.283
-214.538	-5.912	0.145	0.128
-213.523	-23.674	0.493	-0.382
-212.509	75.999	0.367	-0.503
-211.494	-3.826	-0.157	-0.141
-210.479	-100.166	0.319	0.102
-209.465	613.814	-0.150	-0.489
-208.450	285.868	-0.092	-0.216
-207.436	64.148	-0.232	0.302
-206.421	573.706	-0.083	0.263
-205.406	-41.273	0.239	0.159
-204.392	430.323	0.086	0.243
-203.377	-111.410	0.454	-0.119
-202.363	-34.518	0.385	0.273
-201.348	41.858	0.147	0.173
-200.333	-58.184	-0.302	0.170
-199.319	-16.615	0.410	0.336
-198.304	-68.387	-0.329	-0.165
-197.290	56.755	-0.070	0.088
-196.275	-102.777	-0.465	-0.142
-195.260	73.337	-0.346	0.469
-194.246	-200.000	0.019	-0.328
-193.231	37.132	-0.247	-0.284
-192.217	129.444	-0.126	0.209
-191.202	11.281	-0.181	0.179
-190.187	800.000	0.069	-0.295
-189.173	41.502	-0.320	-0.375
-188.158	514.100	0.081	-0.246
-187.144	-200.000	0.064	0.658
-186.129	-143.995	-0.332	-0.040
-185.114	-200.000	0.015	-0.227
-184.100	-130.286	-0.100	0.017
-183.085	-78.379	-0.129	-0.057
-182.071	-47.572	-0.287	-0.180
-181.056	0.360	-0.169	-0.156
-180.042	-200.000	-0.027	-0.245
-179.027	800.000	0.045	-0.220
-178.012	-91.867	0.359	0.131
-176.998	-157.776	0.346	0.026
-175.983	800.000	0.056	-0.298
-174.969	265.934	-0.165	-0.373
-173.954	-137.342	-0.094	0.014
-172.939	51.409	-0.099	0.121
-171.925	173.605	-0.175	0.327
-170.910	-103.510	0.256	0.077
-169.896	-41.757	0.462	-0.306
-168.881	477.917	-0.055	-0.162
-167.866	-141.588	0.244	-0.031
-166.852	-200.000	0.017	0.432
-165.837	173.132	-0.190	0.356
-164.823	63.085	0.147	-0.191
-163.808	-98.984	-0.416	0.136
-162.793	79.383	-0.292	0.406
-161.779	800.000	-0.045	0.241
-160.764	-73.645	0.302	-0.142
-159.750	246.530	-0.201	-0.439
-158.735	800.000	-0.108	-0.417
-157.720	800.000	-0.120	-0.531
-156.706	691.560	-0.135	-0.460
-155.691	-200.000	-0.023	-0.136
-154.677	-172.373	-0.206	-0.008
-153.662	185.255	-0.123	-0.237
-152.647	-200.000	-0.060	0.640
-151.633	800.000	0.068	-0.382
-150.618	-104.562	-0.347	0.103
-149.604	-200.000	0.020	-0.133
-148.589	-163.458	0.552	-0.033
-147.574	-200.000	0.003	-0.425
-146.560	-15.814	0.062	-0.051
-145.545	-200.000	-0.008	-0.077
-144.531	326.392	-0.005	0.012
-143.516	175.605	-0.079	0.149
-142.502	608.912	-0.059	-0.190
-141.487	-200.000	-0.056	-0.425
-140.472	92.050	0.335	0.488
-139.458	16.661	0.287	-0.293
-138.443	-65.001	0.234	0.121
-137.429	-15.106	0.242	0.200
-136.414	-96.742	0.310	-0.105
-135.399	-200.000	-0.001	0.205
-134.385	388.502	0.207	-0.557
-133.370	11.685	-0.320	0.317
-132.356	800.000	0.109	0.455
-131.341	-200.000	-0.008	0.454
-130.326	800.000	-0.109	0.395
-129.312	-200.000	-0.048	-0.450
-128.297	254.159	-0.187	-0.415
-127.283	-185.987	-0.571	-0.011
-126.268	33.879	-0.370	0.416
-125.253	-56.161	-0.181	0.104
-124.239	-103.760	-0.240	0.072
-123.224	-104.288	-0.158	0.047
-122.210	-200.000	0.189	-0.000
