DTS Sentinel unit serial number:	SN409020Multiplexer serial number:	ORYXHardware model number:	OX4-SRSoftware version number:	ORYX F/W v3.00 Oryx Data Collector v3.7.2.0data status	okinstallation	HaddamTimeLapsedifferential loss correction	single-endedforward channel	channel 3reverse channel	N/Adate	2011/06/22time	06:41:17forward acquisition time	30.00reverse acquisition time	0.00gamma	498.7831k internal	0.1752k external	0.1752temperature offset calibration	1.0074default loss term (dB/km)	0.3790temperature slope calibration	1.3530multiplexer offset coefficient	1.0000multiplexer slope coefficient	1.0000fibre end	0.00T internal ref (°C)	22.66T ext. ref 1 (°C)	18.61T ext. ref 2 (°C)	0.21length (m)	temperature (°C)	Stokes	anti-Stokes-747.200	-137.480	-0.327	-0.049
-746.185	-200.000	-0.003	-0.258
-745.171	-152.999	-0.393	-0.036
-744.156	-4.875	0.507	0.464
-743.142	254.696	-0.159	-0.363
-742.127	78.594	0.244	0.347
-741.112	-48.522	-0.217	-0.138
-740.098	-86.104	0.188	0.077
-739.083	-200.000	-0.012	-0.384
-738.069	10.443	0.205	0.207
-737.054	-124.637	-0.127	0.026
-736.039	-142.183	-0.489	-0.064
-735.025	-185.617	-0.337	0.007
-734.010	87.865	0.164	0.242
-732.996	123.208	0.019	0.032
-731.981	139.891	-0.176	-0.309
-730.966	34.470	0.198	0.229
-729.952	-45.398	-0.622	0.408
-728.937	-126.871	-0.177	-0.034
-727.923	33.218	0.377	0.434
-726.908	-24.198	0.018	-0.014
-725.894	209.783	0.158	-0.329
-724.879	60.844	-0.128	0.169
-723.864	800.000	0.112	0.492
-722.850	-150.319	-0.469	-0.047
-721.835	-156.924	0.290	-0.023
-720.821	-109.251	-0.238	-0.067
-719.806	364.323	0.149	-0.399
-718.791	-70.672	-0.228	-0.114
-717.777	800.000	-0.067	-0.281
-716.762	389.794	0.236	-0.653
-715.748	-105.497	-0.541	-0.162
-714.733	-73.309	0.366	0.177
-713.718	-27.476	-0.096	0.074
-712.704	800.000	0.025	0.142
-711.689	185.120	-0.031	-0.062
-710.675	-145.963	0.507	0.059
-709.660	-50.550	0.221	0.138
-708.645	-200.000	-0.000	-0.208
-707.631	486.758	0.118	-0.360
-706.616	-50.877	-0.558	-0.346
-705.602	68.349	-0.395	-0.537
-704.587	-102.252	-0.262	-0.083
-703.572	-49.427	-0.272	0.172
-702.558	64.158	0.118	-0.158
-701.543	368.343	0.122	-0.329
-700.529	-109.785	0.120	0.033
-699.514	-14.762	0.057	-0.048
-698.499	800.000	-0.116	0.563
-697.485	72.609	-0.140	0.194
-696.470	425.101	-0.055	0.159
-695.456	-200.000	0.016	0.182
-694.441	357.941	0.108	0.286
-693.426	-150.884	-0.101	0.010
-692.412	138.626	0.213	-0.372
-691.397	262.676	-0.095	-0.220
-690.383	-103.239	-0.507	-0.158
-689.368	-7.439	0.369	-0.331
-688.354	657.999	0.100	0.342
-687.339	800.000	-0.047	0.250
-686.324	300.663	-0.120	-0.295
-685.310	-100.996	-0.295	-0.095
-684.295	-200.000	-0.043	-0.287
-683.281	-170.917	-0.464	0.021
-682.266	75.293	0.334	-0.467
-681.251	98.902	0.119	-0.182
-680.237	375.792	-0.112	-0.304
-679.222	40.112	-0.140	0.167
-678.208	-200.000	-0.002	-0.147
-677.193	-81.964	0.310	0.134
-676.178	-102.666	0.219	0.069
-675.164	-88.084	-0.236	-0.093
-674.149	88.047	0.116	-0.170
-673.135	-200.000	-0.026	0.181
-672.120	-200.000	-0.049	0.399
-671.105	370.844	0.162	0.436
-670.091	-38.937	-0.344	-0.239
-669.076	800.000	-0.093	0.500
-668.062	159.495	0.145	0.268
-667.047	800.000	0.046	0.191
-666.032	-117.156	-0.279	-0.067
-665.018	-18.304	0.311	0.257
-664.003	-200.000	0.018	-0.277
-662.989	-147.591	0.467	-0.051
-661.974	-115.949	-0.048	-0.012
-660.959	-200.000	0.104	-0.627
-659.945	83.159	0.117	-0.169
-658.930	-19.265	-0.153	0.126
-657.916	109.762	0.080	0.127
-656.901	145.722	-0.062	-0.109
-655.886	124.737	0.171	-0.285
-654.872	-126.902	-0.418	0.081
-653.857	-80.404	-0.178	-0.078
-652.843	161.418	-0.139	0.259
-651.828	-200.000	0.025	0.237
-650.814	-194.999	-0.425	0.004
-649.799	25.234	0.313	0.344
-648.784	-172.007	-0.439	0.019
-647.770	-109.520	-0.693	0.192
-646.755	-11.380	-0.285	0.248
-645.741	68.211	-0.278	-0.378
-644.726	-165.834	0.334	0.019
-643.711	-90.882	-0.065	-0.024
-642.697	-91.143	-0.215	-0.081
-641.682	-200.000	-0.009	0.202
-640.668	104.368	-0.056	0.088
-639.653	-200.000	-0.008	-0.113
-638.638	-130.294	-0.647	-0.115
-637.624	100.508	0.087	0.134
-636.609	267.587	-0.070	0.162
-635.595	-26.977	0.296	0.228
-634.580	-59.885	-0.428	-0.241
-633.565	800.000	-0.065	-0.337
-632.551	-200.000	0.060	0.366
-631.536	-24.694	0.147	-0.116
-630.522	-93.591	0.177	0.064
-629.507	436.893	0.044	-0.128
-628.492	-141.549	-0.280	-0.037
-627.478	-161.439	0.208	-0.014
-626.463	84.589	-0.124	0.180
-625.449	-167.408	0.456	-0.024
-624.434	265.068	-0.054	0.124
-623.419	-36.649	-0.174	-0.123
-622.405	-87.193	-0.308	-0.123
-621.390	800.000	0.021	0.092
-620.376	-81.021	-0.069	-0.030
-619.361	144.513	-0.168	-0.297
-618.346	-179.971	0.170	0.005
-617.332	-132.956	-0.401	-0.067
-616.317	85.574	0.208	-0.303
-615.303	77.952	0.103	-0.145
-614.288	386.888	-0.100	0.273
-613.273	132.476	-0.245	0.418
-612.259	-36.124	0.515	0.367
-611.244	-173.154	-0.342	-0.014
-610.230	-200.000	0.033	-0.451
-609.215	462.918	0.160	-0.474
-608.201	-114.918	-0.379	0.095
-607.186	508.839	-0.076	-0.233
-606.171	-95.346	0.126	0.044
-605.157	-125.315	0.558	0.112
-604.142	136.117	-0.256	0.442
-603.128	-52.720	-0.205	-0.124
-602.113	7.340	0.161	-0.159
-601.098	-132.014	-0.158	0.027
-600.084	145.728	-0.207	-0.367
-599.069	79.206	-0.094	-0.134
-598.055	179.053	0.356	0.689
-597.040	-109.449	0.220	-0.061
-596.025	196.504	0.047	0.095
-595.011	149.564	-0.238	-0.427
-593.996	147.215	-0.181	0.323
-592.982	343.713	-0.131	0.340
-591.967	-100.584	-0.578	0.187
-590.952	-81.196	-0.372	0.161
-589.938	-200.000	0.042	0.354
-588.923	216.737	-0.141	0.298
-587.909	39.618	-0.167	0.198
-586.894	447.506	0.205	-0.599
-585.879	-30.932	0.217	-0.161
-584.865	485.692	0.070	-0.211
-583.850	-197.338	-0.213	-0.002
-582.836	-45.533	0.162	0.106
-581.821	108.672	0.193	-0.305
-580.806	-56.044	-0.282	0.165
-579.792	-103.757	-0.486	0.149
-578.777	-99.304	-0.153	0.051
-577.763	-70.170	-0.278	0.139
-576.748	-80.898	-0.096	-0.042
-575.733	320.450	-0.264	-0.665
-574.719	-200.000	-0.043	0.338
-573.704	1.205	-0.090	0.085
-572.690	45.915	-0.125	0.153
-571.675	55.735	0.164	0.210
-570.661	-45.542	-0.344	0.224
-569.646	278.079	0.236	-0.557
-568.631	-179.279	0.128	0.004
-567.617	218.544	0.013	0.028
-566.602	-6.322	-0.261	0.235
-565.588	-200.000	0.002	0.202
-564.573	-141.899	-0.719	0.094
-563.558	-200.000	0.016	-0.104
-562.544	800.000	0.045	0.240
-561.529	-37.783	0.359	-0.251
-560.515	125.977	-0.439	-0.733
-559.500	75.133	-0.133	-0.185
-558.485	-44.280	-0.363	0.240
-557.471	229.815	0.227	0.490
-556.456	29.387	0.204	0.228
-555.442	-58.224	-0.265	-0.152
-554.427	-26.505	0.227	0.175
-553.412	48.261	-0.015	0.018
-552.398	3.014	0.408	-0.391
-551.383	-200.000	-0.094	-0.734
-550.369	-58.602	-0.191	-0.109
-549.354	204.068	0.220	-0.450
-548.339	-200.000	-0.003	-0.097
-547.325	-159.823	-0.592	-0.042
-546.310	7.077	-0.230	-0.226
-545.296	108.363	0.058	0.092
-544.281	-36.333	0.242	-0.172
-543.266	-144.743	-0.151	0.018
-542.252	-200.000	-0.003	-0.074
-541.237	131.268	-0.033	-0.056
-540.223	-35.679	-0.192	-0.137
-539.208	-160.868	-0.619	-0.042
-538.193	-87.890	0.391	-0.154
-537.179	45.598	0.161	0.196
-536.164	225.122	-0.142	0.304
-535.150	-43.116	0.545	-0.363
-534.135	-24.778	0.217	-0.169
-533.121	49.155	-0.166	-0.206
-532.106	-200.000	-0.014	-0.084
-531.091	800.000	-0.044	0.165
-530.077	-200.000	-0.008	-0.160
-529.062	800.000	-0.069	0.289
-528.048	-141.782	-0.251	-0.033
-527.033	-98.504	-0.292	-0.098
-526.018	-147.631	-0.249	-0.027
-525.004	800.000	-0.090	-0.487
-523.989	-30.076	0.286	0.214
-522.975	-200.000	-0.041	-0.569
-521.960	-200.000	0.020	-0.517
-520.945	23.146	-0.134	-0.145
-519.931	-200.000	-0.046	-0.409
-518.916	258.386	0.187	-0.426
-517.902	246.119	0.076	0.170
-516.887	56.355	-0.082	-0.105
-515.872	-200.000	0.003	-0.345
-514.858	484.678	-0.187	-0.563
-513.843	800.000	0.051	-0.265
-512.829	140.728	0.028	-0.048
-511.814	-200.000	-0.007	-0.104
-510.799	-68.340	-0.350	0.178
-509.785	800.000	-0.026	-0.106
-508.770	-56.101	0.267	-0.156
-507.756	-108.104	0.202	-0.057
-506.741	-9.514	0.076	0.066
-505.726	25.223	-0.367	0.401
-504.712	499.093	-0.039	0.119
-503.697	-116.454	-0.112	0.027
-502.683	69.600	-0.141	0.191
-501.668	180.219	-0.196	-0.379
-500.653	800.000	-0.053	0.294
-499.639	-200.000	-0.011	-0.065
-498.624	353.304	-0.086	-0.226
-497.610	-26.417	-0.251	0.194
-496.595	-25.065	0.145	-0.113
-495.581	50.917	-0.112	0.139
-494.566	-105.670	0.185	-0.055
-493.551	-14.855	0.320	-0.270
-492.537	30.951	0.145	-0.164
-491.522	-64.100	-0.164	0.088
-490.508	-200.000	-0.017	0.190
-489.493	102.536	0.205	-0.315
-488.478	-169.190	0.455	0.022
-487.464	-92.222	0.177	-0.065
-486.449	61.046	-0.170	0.223
-485.435	-86.736	0.419	0.168
-484.420	-106.298	0.103	-0.030
-483.405	38.707	-0.215	-0.252
-482.391	-37.890	0.383	-0.267
-481.376	479.298	0.036	-0.109
-480.362	-200.000	0.000	-0.202
-479.347	800.000	0.010	-0.055
-478.332	271.676	0.069	-0.160
-477.318	-152.669	0.090	-0.008
-476.303	-23.497	0.150	0.118
-475.289	-88.615	-0.618	-0.241
-474.274	-124.573	-0.298	0.060
-473.259	800.000	-0.040	0.190
-472.245	-6.161	-0.406	0.364
-471.230	57.441	-0.275	0.353
-470.216	149.991	0.224	0.399
-469.201	-200.000	-0.030	0.594
-468.186	48.020	0.175	-0.215
-467.172	-200.000	-0.011	-0.065
-466.157	-163.044	0.191	-0.012
-465.143	114.786	-0.085	0.137
-464.128	38.744	0.260	-0.305
-463.113	-112.926	0.277	-0.071
-462.099	-48.727	0.138	-0.087
-461.084	128.958	0.163	-0.273
-460.070	160.365	0.164	0.302
-459.055	-200.000	0.030	0.313
-458.040	23.453	-0.229	0.247
-457.026	-130.378	-0.399	0.070
-456.011	0.097	-0.143	-0.134
-454.997	-200.000	-0.069	0.543
-453.982	800.000	-0.015	-0.072
-452.968	800.000	0.047	0.226
-451.953	-105.258	-0.032	0.010
-450.938	95.721	-0.164	-0.247
-449.924	-20.181	0.101	0.081
-448.909	560.737	0.079	-0.251
-447.895	-108.484	-0.347	-0.097
-446.880	132.489	-0.185	0.314
-445.865	250.310	-0.334	-0.746
-444.851	200.812	-0.119	0.241
-443.836	360.529	0.116	0.307
-442.822	-200.000	0.003	-0.515
-441.807	76.823	0.137	-0.190
-440.792	-116.729	-0.062	0.015
-439.778	800.000	0.098	0.442
-438.763	-66.534	-0.307	0.159
-437.749	62.050	-0.148	0.194
-436.734	-65.647	0.144	0.076
-435.719	-43.587	0.273	-0.180
-434.705	-60.966	-0.133	-0.073
-433.690	-200.000	-0.062	0.743
-432.676	-105.466	0.334	0.099
-431.661	286.693	0.292	0.695
-430.646	-126.172	0.586	0.114
-429.632	261.654	0.097	-0.222
-428.617	107.942	-0.264	-0.414
-427.603	-200.000	-0.042	-0.286
-426.588	341.621	-0.082	0.210
-425.573	-200.000	-0.001	0.101
-424.559	-4.613	0.518	0.469
-423.544	591.635	0.118	-0.384
-422.530	-200.000	-0.002	0.022
-421.515	119.921	0.313	0.510
-420.500	27.307	-0.056	0.062
-419.486	-65.433	-0.238	0.125
-418.471	-200.000	-0.067	-0.478
-417.457	76.122	0.210	-0.292
-416.442	-151.230	-0.256	-0.025
-415.428	-81.335	0.506	-0.218
-414.413	199.788	0.146	-0.295
-413.398	-22.716	0.244	-0.193
-412.384	52.589	0.307	0.384
-411.369	-200.000	0.040	-0.416
-410.355	-144.203	0.157	0.019
-409.340	-38.276	-0.385	-0.267
-408.325	-20.953	0.107	0.086
-407.311	-44.098	-0.175	0.115
-406.296	-110.689	-0.283	-0.076
-405.282	-136.112	0.424	-0.064
-404.267	-86.411	-0.211	0.085
-403.252	-200.000	-0.022	0.157
-402.238	13.837	-0.319	0.325
-401.223	-112.658	0.204	-0.053
-400.209	-149.519	0.545	0.056
-399.194	-32.413	-0.171	-0.125
-398.179	12.381	0.158	0.159
-397.165	8.168	0.409	0.402
-396.150	47.377	0.222	0.271
-395.136	-9.740	0.192	-0.167
-394.121	-200.000	0.005	0.416
-393.106	-27.695	-0.255	-0.193
-392.092	-148.107	0.187	-0.020
-391.077	-200.000	0.011	-0.260
-390.063	-200.000	0.006	0.245
-389.048	-37.813	-0.361	-0.251
-388.033	-128.891	-0.166	0.030
-387.019	-138.191	0.665	0.096
-386.004	-137.796	0.362	0.053
-384.990	-108.635	-0.036	-0.010
-383.975	-200.000	-0.010	0.157
-382.960	-54.758	-0.046	0.027
-381.946	-200.000	-0.019	0.294
-380.931	259.547	0.098	0.221
-379.917	198.751	0.164	0.330
-378.902	-200.000	-0.052	-0.424
-377.888	75.431	0.304	-0.421
-376.873	-200.000	0.013	-0.451
-375.858	94.638	-0.236	-0.352
-374.844	-129.878	-0.062	0.011
-373.829	127.577	-0.204	0.340
-372.815	-137.273	-0.407	-0.060
-371.800	-103.562	-0.383	0.117
-370.785	-40.318	-0.071	-0.049
-369.771	800.000	0.125	0.571
-368.756	81.373	-0.245	-0.347
-367.742	-200.000	-0.008	0.112
-366.727	-37.116	-0.275	0.192
-365.712	191.352	0.246	-0.487
-364.698	-123.227	0.404	0.084
-363.683	-180.999	0.225	0.006
-362.669	-136.976	0.485	0.072
-361.654	353.839	0.117	-0.305
-360.639	-175.737	0.060	0.002
-359.625	161.134	0.216	-0.397
-358.610	800.000	-0.052	-0.235
-357.596	-59.669	-0.292	-0.163
-356.581	29.581	0.339	0.377
-355.566	158.495	-0.196	-0.358
-354.552	-143.367	0.162	0.020
-353.537	-154.184	0.300	0.026
-352.523	324.231	-0.100	0.250
-351.508	180.910	-0.116	-0.223
-350.493	-165.136	-0.342	0.020
-349.479	-200.000	0.021	-0.146
-348.464	307.823	-0.088	0.216
-347.450	740.585	-0.041	0.144
-346.435	-96.508	-0.200	0.069
-345.420	-75.271	-0.423	0.197
-344.406	-1.413	0.302	-0.279
-343.391	-126.426	0.558	0.108
-342.377	3.301	0.335	-0.318
-341.362	139.734	0.257	0.444
-340.348	579.450	0.138	-0.444
-339.333	-200.000	-0.016	-0.533
-338.318	800.000	-0.065	0.259
-337.304	348.869	-0.079	0.204
-336.289	-123.419	-0.435	-0.090
-335.275	261.413	0.139	-0.315
-334.260	135.094	-0.125	0.214
-333.245	2.744	0.226	-0.214
-332.231	-200.000	-0.077	0.458
-331.216	-107.026	-0.387	-0.111
-330.202	-104.081	0.222	0.067
-329.187	319.337	-0.039	0.097
-328.172	800.000	-0.006	0.027
-327.158	800.000	-0.082	0.428
-326.143	-55.796	0.109	0.064
-325.129	202.489	-0.089	-0.180
-324.114	-111.709	0.121	-0.032
-323.099	327.196	-0.100	0.252
-322.085	800.000	0.033	-0.170
-321.070	800.000	0.112	-0.536
-320.056	-50.143	0.027	0.017
-319.041	-96.440	-0.204	-0.070
-318.026	800.000	0.099	0.372
-317.012	194.150	0.147	0.291
-315.997	173.069	-0.172	0.325
-314.983	194.601	-0.032	-0.063
-313.968	-148.998	0.289	0.030
-312.953	241.502	-0.131	-0.287
-311.939	-122.051	-0.297	-0.063
-310.924	-108.704	-0.176	-0.049
-309.910	65.094	-0.186	-0.246
-308.895	610.368	0.093	0.304
-307.880	182.658	-0.094	0.181
-306.866	-14.767	0.176	0.147
-305.851	-115.749	0.407	0.099
-304.837	781.379	0.113	-0.406
-303.822	129.178	0.128	-0.213
-302.807	11.263	-0.285	0.284
-301.793	100.561	-0.263	-0.399
-300.778	94.717	0.186	0.277
-299.764	0.817	0.084	-0.079
-298.749	50.913	0.181	-0.223
-297.735	-59.426	0.335	-0.187
-296.720	-200.000	-0.003	-0.354
-295.705	-49.963	0.071	0.044
-294.691	-146.016	-0.199	-0.023
-293.676	46.697	0.279	-0.339
-292.662	800.000	-0.052	-0.268
-291.647	151.217	0.182	0.324
-290.632	60.823	0.025	-0.032
-289.618	485.227	0.127	0.379
-288.603	-180.383	0.342	0.009
-287.589	-54.472	-0.517	0.304
-286.574	62.410	0.124	0.162
-285.559	-181.199	-0.554	-0.014
-284.545	-200.000	-0.031	-0.258
-283.530	-200.000	-0.024	0.209
-282.516	-167.966	-0.176	-0.009
-281.501	-93.028	0.264	0.095
-280.486	-129.574	-0.104	0.018
-279.472	23.811	0.085	-0.091
-278.457	2.547	0.366	-0.345
-277.443	-160.118	0.376	-0.026
-276.428	-40.317	0.259	0.175
-275.413	-61.463	0.092	0.050
-274.399	-34.960	0.250	-0.178
-273.384	-200.000	0.004	-0.312
-272.370	-43.274	0.401	-0.264
-271.355	-61.573	-0.425	0.232
-270.340	-43.287	-0.348	-0.229
-269.326	-44.092	-0.245	0.160
-268.311	-200.000	0.039	-0.308
-267.297	54.746	-0.493	0.621
-266.282	-6.377	-0.330	0.293
-265.267	-53.391	0.341	0.203
-264.253	-139.231	-0.233	0.032
-263.238	-5.231	-0.195	0.175
-262.224	42.543	-0.265	0.314
-261.209	-192.711	-0.050	0.001
-260.195	800.000	-0.102	0.498
-259.180	-113.987	0.197	0.049
-258.165	-200.000	0.005	0.267
-257.151	800.000	0.047	0.176
-256.136	494.299	-0.066	0.197
-255.122	800.000	-0.069	0.375
-254.107	67.131	-0.128	-0.170
-253.092	149.487	-0.259	0.458
-252.078	-200.000	0.007	-0.217
-251.063	-101.146	0.431	0.136
-250.049	-128.421	0.351	0.064
-249.034	-33.976	-0.423	-0.302
-248.019	433.406	0.022	0.061
-247.005	-135.145	0.199	-0.031
-245.990	-98.459	0.134	-0.044
-244.976	29.768	0.100	-0.111
-243.961	-200.000	0.297	0.000
-242.946	-123.755	-0.132	0.027
-241.932	-38.966	0.143	0.098
-240.917	-126.388	0.479	-0.092
-239.903	53.689	0.192	-0.240
-238.888	-141.523	-0.126	-0.016
-237.873	800.000	-0.136	0.597
-236.859	84.412	0.269	0.383
-235.844	157.995	0.119	0.215
-234.830	-144.385	-0.279	0.033
-233.815	-67.262	0.195	0.100
-232.800	-57.148	-0.215	-0.123
-231.786	-163.936	0.484	-0.029
-230.771	-101.363	0.235	0.074
-229.757	-156.872	0.218	0.017
-228.742	-16.992	-0.367	-0.301
-227.727	-131.424	0.514	-0.088
-226.713	32.472	0.277	0.311
-225.698	-77.173	-0.385	0.174
-224.684	-130.411	0.150	-0.026
-223.669	18.048	0.113	-0.117
-222.655	-200.000	0.027	0.227
-221.640	-114.352	0.278	0.069
-220.625	684.932	-0.087	-0.296
-219.611	-23.086	-0.065	0.051
-218.596	-168.050	0.503	0.025
-217.582	-102.037	-0.235	0.073
-216.567	800.000	-0.096	0.352
-215.552	212.630	-0.249	0.512
-214.538	-85.133	0.132	-0.053
-213.523	137.119	-0.126	-0.214
-212.509	-57.464	0.237	0.135
-211.494	339.514	-0.074	0.187
-210.479	-200.000	-0.043	0.281
-209.465	-200.000	-0.037	0.304
-208.450	800.000	0.111	-0.486
-207.436	390.577	0.114	-0.309
-206.421	133.922	-0.233	0.393
-205.406	-200.000	0.186	0.001
-204.392	-117.439	-0.019	-0.005
-203.377	426.939	0.116	0.326
-202.363	-169.038	0.347	0.017
-201.348	800.000	-0.056	0.303
-200.333	-130.745	-0.121	-0.021
-199.319	-48.253	0.291	0.182
-198.304	-105.157	-0.304	-0.090
-197.290	800.000	0.077	0.438
-196.275	-112.631	-0.216	-0.056
-195.260	130.627	0.129	0.215
-194.246	-9.544	0.213	0.185
-193.231	398.857	-0.133	-0.365
-192.217	127.857	-0.161	-0.267
-191.202	-184.966	0.248	0.005
-190.187	138.580	-0.203	-0.348
-189.173	-200.000	-0.046	-0.538
-188.158	-92.749	0.351	-0.127
-187.144	-48.386	-0.138	-0.086
-186.129	450.587	-0.161	-0.463
-185.114	260.428	-0.237	0.534
-184.100	-79.957	0.300	0.130
-183.085	-200.000	-0.027	-0.671
-182.071	-7.687	-0.134	0.118
-181.056	289.395	-0.131	-0.311
-180.042	334.862	0.047	0.119
-179.027	-200.000	-0.007	0.232
-178.012	157.916	-0.132	0.239
-176.998	-53.111	0.088	-0.052
-175.983	109.490	-0.214	0.334
-174.969	-118.302	0.152	0.035
-173.954	379.160	-0.150	-0.400
-172.939	-97.368	-0.342	-0.115
-171.925	-122.030	-0.105	-0.022
-170.910	-33.022	0.157	0.113
-169.896	-200.000	-0.029	0.372
-168.881	-91.877	0.196	-0.072
-167.866	-159.316	0.144	0.010
-166.852	48.910	0.106	0.129
-165.837	112.395	0.052	-0.081
-164.823	233.228	-0.156	0.334
-163.808	-156.430	0.399	-0.032
-162.793	173.667	0.117	-0.220
-161.779	32.289	-0.209	-0.234
-160.764	118.484	-0.266	-0.427
-159.750	-72.579	0.270	0.129
-158.735	-118.072	-0.189	0.043
-157.720	-89.127	0.457	0.174
-156.706	229.473	-0.113	-0.240
-155.691	-42.472	0.049	-0.033
-154.677	14.315	0.413	0.418
-153.662	-141.649	-0.164	0.021
-152.647	222.137	0.056	-0.116
-151.633	-200.000	0.082	-0.610
-150.618	248.813	0.136	-0.299
-149.604	-1.310	-0.257	0.235
-148.589	-71.024	0.243	-0.118
-147.574	207.637	-0.063	0.127
-146.560	98.119	0.362	0.542
-145.545	800.000	0.118	0.445
-144.531	-7.908	0.027	-0.024
-143.516	-91.345	0.211	-0.078
-142.502	291.647	0.139	-0.330
-141.487	72.749	-0.193	-0.262
-140.472	101.971	0.092	0.140
-139.458	-200.000	0.037	0.222
-138.443	-39.841	0.176	0.119
-137.429	-200.000	0.003	-0.197
-136.414	-17.569	0.312	-0.254
-135.399	-133.454	0.602	-0.097
-134.385	38.536	-0.220	0.255
-133.370	-200.000	-0.046	-0.595
-132.356	-95.396	0.475	0.164
-131.341	258.151	0.020	-0.044
-130.326	581.692	-0.118	0.378
-129.312	-80.032	-0.407	-0.176
-128.297	-200.000	0.333	0.002
-127.283	-141.368	-0.183	0.024
-126.268	11.696	0.180	0.179
-125.253	-200.000	-0.106	-0.629
-124.239	55.093	-0.184	0.230
-123.224	-21.831	0.089	-0.070
-122.210	685.429	-0.209	0.712
