DTS Sentinel unit serial number:	SN409020Multiplexer serial number:	ORYXHardware model number:	OX4-SRSoftware version number:	ORYX F/W v3.00 Oryx Data Collector v3.7.2.0data status	okinstallation	HaddamTimeLapsedifferential loss correction	single-endedforward channel	channel 3reverse channel	N/Adate	2011/06/22time	09:46:16forward acquisition time	30.00reverse acquisition time	0.00gamma	498.7831k internal	0.1799k external	0.1799temperature offset calibration	1.0074default loss term (dB/km)	0.3790temperature slope calibration	1.3530multiplexer offset coefficient	1.0000multiplexer slope coefficient	1.0000fibre end	0.00T internal ref (°C)	28.06T ext. ref 1 (°C)	25.15T ext. ref 2 (°C)	0.19length (m)	temperature (°C)	Stokes	anti-Stokes-747.200	23.743	-0.194	-0.206
-746.185	-200.000	-0.044	0.363
-745.171	35.830	0.404	-0.460
-744.156	191.486	0.122	0.238
-743.142	349.468	0.219	0.562
-742.127	-197.938	-0.358	-0.003
-741.112	800.000	-0.050	0.194
-740.098	-100.657	0.285	0.090
-739.083	-200.000	0.044	-0.270
-738.069	800.000	0.197	0.853
-737.054	-51.912	-0.121	-0.073
-736.039	-130.810	-0.377	-0.065
-735.025	-81.884	0.561	-0.236
-734.010	20.122	0.464	0.484
-732.996	57.137	-0.192	0.242
-731.981	237.058	0.046	0.098
-730.966	-0.734	-0.155	-0.141
-729.952	-200.000	0.020	0.144
-728.937	-95.234	0.217	-0.075
-727.923	-76.166	-0.082	0.037
-726.908	-101.580	-0.259	0.081
-725.894	-109.409	-0.127	0.035
-724.879	-200.000	0.025	0.358
-723.864	-0.320	0.420	-0.385
-722.850	-162.213	0.042	0.003
-721.835	34.608	-0.366	0.413
-720.821	54.779	-0.259	-0.324
-719.806	66.468	0.200	-0.262
-718.791	-61.398	-0.069	0.037
-717.777	800.000	-0.092	-0.413
-716.762	800.000	-0.171	0.747
-715.748	-143.826	-0.274	-0.033
-714.733	-54.594	0.078	0.045
-713.718	800.000	-0.038	-0.138
-712.704	-62.037	-0.567	0.305
-711.689	-147.582	0.286	0.031
-710.675	-43.939	0.225	-0.146
-709.660	270.054	-0.168	-0.383
-708.645	-135.494	0.593	0.090
-707.631	-108.765	0.544	-0.149
-706.616	800.000	0.031	0.110
-705.602	800.000	0.120	0.515
-704.587	30.702	-0.249	-0.275
-703.572	7.635	-0.108	0.104
-702.558	800.000	-0.141	-0.617
-701.543	-200.000	-0.030	-0.721
-700.529	107.672	-0.104	0.161
-699.514	-113.362	0.669	0.168
-698.499	559.466	0.160	-0.502
-697.485	-65.051	0.232	0.121
-696.470	-128.936	-0.226	-0.041
-695.456	108.350	0.173	-0.267
-694.441	-200.000	0.003	-0.372
-693.426	140.528	-0.155	-0.265
-692.412	800.000	-0.016	0.075
-691.397	388.954	-0.070	0.188
-690.383	-165.147	0.344	-0.019
-689.368	650.033	-0.028	0.093
-688.354	-200.000	0.045	0.733
-687.339	487.261	-0.167	0.495
-686.324	800.000	0.109	0.451
-685.310	75.290	-0.160	-0.218
-684.295	-97.172	0.459	-0.154
-683.281	-116.502	-0.129	-0.031
-682.266	44.665	-0.373	-0.443
-681.251	-17.375	0.364	0.295
-680.237	-9.264	-0.171	-0.147
-679.222	-7.629	-0.301	-0.262
-678.208	-97.294	-0.502	-0.168
-677.193	-163.755	0.302	-0.018
-676.178	-49.465	-0.319	0.195
-675.164	-42.106	-0.278	-0.183
-674.149	-102.773	0.152	0.047
-673.135	326.823	0.080	0.197
-672.120	-85.420	-0.291	-0.116
-671.105	-16.807	0.248	0.202
-670.091	38.791	-0.447	-0.514
-669.076	10.898	0.117	-0.115
-668.062	-200.000	0.064	0.390
-667.047	72.538	0.253	0.340
-666.032	-14.737	-0.614	-0.508
-665.018	-163.821	0.225	-0.013
-664.003	167.296	-0.098	0.180
-662.989	79.885	0.236	0.328
-661.974	-161.972	0.080	0.005
-660.959	-125.407	0.337	0.066
-659.945	-200.000	-0.001	-0.123
-658.930	100.101	-0.075	-0.112
-657.916	155.680	0.283	-0.503
-656.901	-186.046	-0.403	-0.007
-655.886	-126.020	-0.181	0.035
-654.872	387.367	-0.175	0.468
-653.857	-98.340	-0.143	-0.047
-652.843	242.455	-0.101	-0.219
-651.828	54.226	0.102	0.127
-650.814	231.243	-0.053	-0.112
-649.799	-113.746	0.187	-0.047
-648.784	46.580	-0.160	-0.191
-647.770	-77.486	0.412	-0.183
-646.755	254.101	0.261	0.578
-645.741	147.202	0.149	0.259
-644.726	-95.450	-0.284	0.097
-643.711	800.000	-0.072	-0.342
-642.697	-87.770	-0.233	0.090
-641.682	92.225	0.279	-0.405
-640.668	-14.411	-0.130	-0.108
-639.653	-149.290	0.374	0.038
-638.638	146.245	-0.110	0.191
-637.624	10.926	-0.228	-0.225
-636.609	-43.358	0.187	0.122
-635.595	377.184	-0.067	0.178
-634.580	800.000	-0.121	0.501
-633.565	-200.000	0.053	-0.331
-632.551	-7.461	-0.137	-0.119
-631.536	800.000	-0.078	-0.309
-630.522	-131.722	-0.610	0.102
-629.507	-95.775	0.223	-0.076
-628.492	-200.000	0.023	0.156
-627.478	-168.651	-0.577	0.028
-626.463	116.464	-0.166	0.263
-625.449	258.932	0.078	-0.173
-624.434	800.000	-0.067	0.347
-623.419	-55.703	0.206	0.118
-622.405	-2.489	0.333	-0.300
-621.390	-139.602	-0.600	0.081
-620.376	-60.766	0.284	0.154
-619.361	-12.199	0.097	-0.082
-618.346	-99.703	0.471	0.151
-617.332	-167.072	-0.873	-0.045
-616.317	-89.772	-0.326	0.122
-615.303	-73.069	0.103	-0.048
-614.288	800.000	-0.046	-0.257
-613.273	31.436	0.263	-0.290
-612.259	256.826	-0.241	0.533
-611.244	-200.000	0.018	-0.118
-610.230	328.035	-0.098	-0.242
-609.215	-66.378	-0.190	0.097
-608.201	99.057	0.170	0.254
-607.186	-145.626	-0.346	-0.039
-606.171	8.770	0.137	0.133
-605.157	156.008	0.220	-0.392
-604.142	-60.020	0.538	0.295
-603.128	135.395	0.260	-0.436
-602.113	-37.997	0.184	-0.125
-601.098	47.061	-0.068	0.081
-600.084	432.650	0.123	-0.345
-599.069	505.676	0.016	-0.048
-598.055	272.596	-0.105	-0.240
-597.040	220.293	0.132	0.273
-596.025	269.798	-0.228	0.516
-595.011	-167.739	0.246	-0.012
-593.996	391.723	0.189	-0.508
-592.982	-126.709	0.467	-0.088
-591.967	123.246	-0.018	-0.029
-590.952	800.000	0.103	0.391
-589.938	536.013	-0.067	0.205
-588.923	50.377	-0.173	-0.210
-587.909	47.531	-0.514	-0.616
-586.894	4.949	-0.277	0.261
-585.879	-114.189	-0.344	0.085
-584.865	65.584	-0.170	-0.221
-583.850	-119.445	0.297	-0.066
-582.836	-80.141	0.095	0.041
-581.821	-40.523	-0.102	0.068
-580.806	-200.000	-0.016	0.577
-579.792	-138.641	-0.779	0.108
-578.777	-188.449	0.213	0.003
-577.763	-97.426	-0.395	0.131
-576.748	-200.000	-0.019	-0.168
-575.733	154.325	-0.137	0.243
-574.719	-200.000	-0.046	0.503
-573.704	-97.538	0.167	-0.055
-572.690	-66.793	0.296	0.150
-571.675	-200.000	0.042	0.248
-570.661	800.000	-0.036	0.144
-569.646	-53.724	0.298	0.174
-568.631	-89.800	-0.243	0.091
-567.617	82.512	-0.120	-0.168
-566.602	-129.975	-0.275	0.048
-565.588	-200.000	-0.033	-0.275
-564.573	-200.000	0.005	0.180
-563.558	156.322	-0.278	0.494
-562.544	-200.000	0.014	0.287
-561.529	-105.918	-0.183	-0.053
-560.515	25.310	-0.140	-0.149
-559.500	-200.000	0.005	-0.089
-558.485	-200.000	-0.044	0.276
-557.471	89.649	0.207	-0.297
-556.456	519.653	-0.042	-0.126
-555.442	-78.703	-0.475	0.207
-554.427	-13.203	-0.317	-0.264
-553.412	87.480	0.129	-0.183
-552.398	359.391	-0.189	-0.488
-551.383	-200.000	0.046	-0.409
-550.369	800.000	0.082	0.329
-549.354	-88.966	0.171	0.065
-548.339	800.000	0.106	0.444
-547.325	197.506	-0.127	-0.250
-546.310	-46.188	0.168	0.106
-545.296	237.280	0.195	-0.415
-544.281	-196.753	-0.047	0.000
-543.266	-200.000	-0.014	0.087
-542.252	176.611	0.044	-0.082
-541.237	-88.158	0.483	-0.185
-540.223	-55.995	-0.212	0.121
-539.208	-54.116	-0.343	-0.199
-538.193	-200.000	0.018	-0.653
-537.179	108.209	-0.303	-0.464
-536.164	800.000	0.146	-0.754
-535.150	-62.660	-0.180	-0.095
-534.135	-200.000	0.003	-0.461
-533.121	-147.571	0.365	0.039
-532.106	-20.395	0.118	-0.093
-531.091	-160.365	0.086	0.006
-530.077	25.482	-0.446	-0.475
-529.062	110.503	-0.229	-0.353
-528.048	-200.000	-0.032	0.279
-527.033	82.907	0.202	0.282
-526.018	89.589	-0.270	-0.387
-525.004	-27.210	0.292	-0.218
-523.989	800.000	-0.136	-0.564
-522.975	125.446	0.235	-0.381
-521.960	291.382	-0.073	0.171
-520.945	-126.161	-0.282	0.054
-519.931	-133.808	0.040	-0.006
-518.916	-142.961	-0.161	-0.020
-517.902	-86.253	0.044	0.017
-516.887	-53.422	0.344	-0.201
-515.872	800.000	0.073	-0.343
-514.858	53.296	-0.202	-0.249
-513.843	-76.576	-0.301	-0.135
-512.829	-142.880	0.294	-0.036
-511.814	800.000	-0.045	-0.168
-510.799	-102.099	-0.443	-0.136
-509.785	-98.087	-0.434	0.142
-508.770	-160.481	-0.249	-0.017
-507.756	36.044	0.264	-0.298
-506.741	-200.000	-0.014	0.479
-505.726	-106.067	-0.167	-0.048
-504.712	-141.791	-0.183	-0.023
-503.697	800.000	-0.061	-0.298
-502.683	-97.425	0.226	0.075
-501.668	-200.000	0.031	0.337
-500.653	39.411	-0.256	-0.294
-499.639	-56.393	0.282	-0.160
-498.624	-78.883	0.532	-0.231
-497.610	131.744	-0.133	-0.219
-496.595	-59.548	-0.449	0.246
-495.581	11.735	0.107	0.105
-494.566	800.000	0.028	-0.140
-493.551	221.766	0.154	0.318
-492.537	-156.688	0.110	-0.009
-491.522	-200.000	0.066	0.507
-490.508	-42.934	-0.132	0.086
-489.493	-10.480	-0.413	-0.350
-488.478	-58.874	0.009	0.005
-487.464	-84.645	-0.247	0.099
-486.449	-115.398	-0.157	0.037
-485.435	61.757	0.056	0.071
-484.420	-41.339	-0.157	0.103
-483.405	163.994	-0.215	-0.388
-482.391	115.216	-0.119	-0.187
-481.376	-167.894	-0.274	0.014
-480.362	32.527	-0.128	-0.141
-479.347	203.386	-0.077	-0.153
-478.332	-101.923	-0.134	-0.041
-477.318	-152.880	-0.314	-0.028
-476.303	10.250	0.194	0.188
-475.289	19.154	0.267	0.274
-474.274	96.748	0.347	-0.509
-473.259	72.969	-0.131	0.175
-472.245	391.777	0.077	-0.205
-471.230	81.009	-0.140	0.194
-470.216	-52.280	0.444	-0.262
-469.201	-100.038	-0.134	0.043
-468.186	-200.000	0.030	0.277
-467.172	135.164	-0.106	-0.177
-466.157	-163.230	-0.652	-0.039
-465.143	-57.916	-0.228	0.127
-464.128	53.843	-0.321	-0.395
-463.113	-43.155	-0.153	-0.099
-462.099	131.852	-0.227	0.374
-461.084	40.640	0.127	0.146
-460.070	492.344	0.178	0.525
-459.055	92.697	0.237	0.342
-458.040	635.651	0.115	-0.374
-457.026	-200.000	0.000	-0.580
-456.011	-95.537	0.338	-0.115
-454.997	31.975	-0.235	0.259
-453.982	185.890	0.031	0.059
-452.968	-94.023	0.245	0.086
-451.953	-98.791	-0.426	-0.138
-450.938	-200.000	-0.061	0.568
-449.924	-66.040	0.269	0.136
-448.909	-148.547	0.293	0.030
-447.895	-3.051	-0.566	0.504
-446.880	501.644	0.009	0.027
-445.865	-87.465	0.441	-0.170
-444.851	-200.000	0.030	0.410
-443.836	-200.000	0.007	0.271
-442.822	-84.912	-0.365	0.146
-441.807	-127.985	-0.142	-0.026
-440.792	-53.386	0.696	0.406
-439.778	-14.161	0.047	0.038
-438.763	401.612	-0.072	0.193
-437.749	-80.596	0.359	-0.152
-436.734	-128.582	0.242	0.043
-435.719	2.467	-0.219	-0.202
-434.705	-81.981	0.118	0.049
-433.690	7.523	0.087	0.083
-432.676	-81.178	0.281	0.118
-431.661	-163.238	-0.103	0.006
-430.646	-84.809	-0.463	-0.185
-429.632	-144.454	0.305	0.036
-428.617	-68.487	-0.204	0.101
-427.603	-60.684	0.163	-0.088
-426.588	-108.514	0.651	0.178
-425.573	118.018	-0.033	0.051
-424.559	800.000	-0.093	0.442
-423.544	76.063	-0.426	0.576
-422.530	-136.381	-0.312	0.046
-421.515	13.256	-0.116	-0.114
-420.500	205.638	-0.119	-0.237
-419.486	265.789	-0.146	-0.326
-418.471	512.437	-0.082	-0.244
-417.457	71.675	0.279	0.370
-416.442	334.814	0.228	-0.566
-415.428	-140.540	0.312	-0.041
-414.413	127.979	-0.423	-0.689
-413.398	422.578	0.142	-0.392
-412.384	132.414	-0.148	-0.243
-411.369	-126.029	0.178	-0.034
-410.355	208.989	-0.072	0.144
-409.340	-145.803	0.528	0.059
-408.325	131.819	0.245	0.403
-407.311	69.555	-0.089	-0.117
-406.296	-128.061	0.391	-0.071
-405.282	-56.510	0.428	-0.241
-404.267	-12.313	0.368	0.307
-403.252	16.477	0.155	0.156
-402.238	-200.000	0.216	0.001
-401.223	48.027	0.248	-0.296
-400.209	800.000	-0.030	-0.130
-399.194	-125.444	-0.525	0.101
-398.179	-135.086	0.142	0.022
-397.165	390.568	-0.137	0.363
-396.150	-26.753	0.331	-0.246
-395.136	-50.263	-0.185	0.111
-394.121	-151.328	0.199	0.019
-393.106	-36.040	0.112	-0.077
-392.092	-73.272	-0.354	-0.165
-391.077	50.305	0.105	-0.126
-390.063	-200.000	-0.004	0.064
-389.048	-169.400	0.435	0.020
-388.033	738.239	-0.016	0.053
-387.019	-74.124	-0.186	0.085
-386.004	800.000	-0.100	0.451
-384.990	382.412	-0.116	-0.305
-383.975	557.928	-0.102	0.316
-382.960	-200.000	0.004	0.108
-381.946	-200.000	0.032	-0.459
-380.931	666.049	0.075	0.247
-379.917	800.000	-0.072	-0.335
-378.902	60.828	-0.143	-0.181
-377.888	140.352	-0.329	0.555
-376.873	40.523	0.180	0.206
-375.858	111.641	0.401	0.618
-374.844	-65.671	0.299	-0.152
-373.829	118.296	0.221	-0.349
-372.815	-20.753	0.217	-0.169
-371.800	-114.855	0.558	0.135
-370.785	-200.000	0.005	0.137
-369.771	-78.165	0.392	0.171
-368.756	-11.311	0.180	0.151
-367.742	-174.232	0.319	0.012
-366.727	146.629	0.097	0.166
-365.712	-137.252	-0.278	0.040
-364.698	-200.000	-0.075	0.445
-363.683	92.672	0.104	-0.149
-362.669	-200.000	0.005	0.351
-361.654	204.687	-0.135	-0.267
-360.639	-200.000	0.059	-0.359
-359.625	-171.153	0.501	-0.021
-358.610	-200.000	0.004	-0.117
-357.596	-77.680	0.269	-0.118
-356.581	216.690	-0.044	-0.090
-355.566	-155.230	0.450	-0.037
-354.552	-42.421	-0.031	0.020
-353.537	47.766	-0.362	0.431
-352.523	552.755	0.023	0.070
-351.508	-129.406	-0.146	0.026
-350.493	169.190	-0.273	-0.497
-349.479	-41.442	0.439	-0.287
-348.464	-154.013	0.412	0.035
-347.450	-133.021	-0.230	-0.037
-346.435	-146.562	-0.463	-0.051
-345.420	-61.508	-0.157	0.083
-344.406	73.138	0.603	0.803
-343.391	-78.185	-0.137	0.060
-342.377	-20.459	0.153	-0.120
-341.362	201.389	0.115	-0.226
-340.348	76.067	-0.297	-0.400
-339.333	-30.466	0.237	-0.170
-338.318	350.337	-0.038	-0.095
-337.304	-14.608	0.304	-0.248
-336.289	-200.000	0.049	-0.322
-335.275	-66.313	0.224	-0.113
-334.260	680.823	0.053	0.177
-333.245	356.268	0.077	-0.197
-332.231	-68.164	-0.501	-0.247
-331.216	-93.133	-0.472	-0.166
-330.202	-32.346	0.232	-0.165
-329.187	2.215	0.114	0.105
-328.172	-126.054	-0.488	-0.092
-327.158	126.400	-0.196	0.316
-326.143	-128.390	0.209	-0.037
-325.129	-33.947	-0.385	-0.269
-324.114	-87.913	-0.327	0.124
-323.099	-164.382	-0.160	-0.009
-322.085	-70.079	-0.142	0.068
-321.070	481.639	-0.093	0.271
-320.056	59.541	-0.241	-0.302
-319.041	85.089	0.260	-0.363
-318.026	-13.176	-0.285	-0.235
-317.012	800.000	-0.050	0.188
-315.997	-200.000	-0.006	-0.149
-314.983	-3.499	0.295	0.261
-313.968	-45.644	0.059	0.037
-312.953	19.097	0.093	-0.094
-311.939	108.511	0.260	-0.395
-310.924	51.992	0.416	0.504
-309.910	-200.000	-0.004	0.412
-308.895	-132.002	-0.290	-0.048
-307.880	222.297	0.220	-0.452
-306.866	-28.062	0.321	-0.235
-305.851	31.267	-0.139	-0.152
-304.837	-95.947	-0.393	-0.132
-303.822	23.268	0.236	-0.246
-302.807	128.403	-0.239	0.388
-301.793	-95.154	-0.213	0.072
-300.778	-143.129	-0.559	0.068
-299.764	-98.065	0.603	-0.196
-298.749	13.892	0.477	0.471
-297.735	50.393	0.057	0.069
-296.720	800.000	-0.024	-0.098
-295.705	-98.857	-0.293	-0.094
-294.691	-15.916	-0.699	-0.564
-293.676	290.730	-0.132	0.305
-292.662	-129.397	0.294	-0.051
-291.647	-147.396	0.337	0.036
-290.632	-99.678	-0.089	0.028
-289.618	-60.527	0.430	0.231
-288.603	18.197	-0.165	0.167
-287.589	99.415	-0.226	0.332
-286.574	-200.000	0.017	0.237
-285.559	-69.199	0.172	0.084
-284.545	110.513	0.125	0.192
-283.530	-99.439	-0.501	0.159
-282.516	63.339	0.340	0.433
-281.501	117.222	-0.294	0.460
-280.486	-92.733	-0.479	0.169
-279.472	-48.807	0.143	-0.087
-278.457	113.149	-0.148	-0.229
-277.443	-2.875	-0.243	-0.215
-276.428	187.679	0.136	-0.258
-275.413	-107.086	0.048	0.013
-274.399	86.483	-0.271	0.380
-273.384	41.822	-0.156	-0.179
-272.370	-135.413	-0.033	0.005
-271.355	267.650	0.024	-0.054
-270.340	338.693	0.050	0.125
-269.326	465.931	0.079	-0.224
-268.311	-127.009	0.412	0.076
-267.297	78.391	0.114	-0.155
-266.282	-187.702	0.349	-0.006
-265.267	194.234	-0.183	-0.353
-264.253	-76.989	0.107	-0.047
-263.238	-104.769	-0.310	-0.090
-262.224	800.000	0.122	0.644
-261.209	-94.262	0.128	0.044
-260.195	800.000	-0.043	0.163
-259.180	607.048	-0.148	-0.471
-258.165	-20.898	0.056	-0.043
-257.151	-43.318	0.415	0.266
-256.136	-142.294	0.164	-0.020
-255.122	18.503	-0.110	-0.112
-254.107	159.503	0.137	0.242
-253.092	800.000	-0.026	-0.105
-252.078	-97.446	0.177	0.058
-251.063	-152.830	0.357	-0.032
-250.049	800.000	-0.086	0.372
-249.034	-200.000	0.002	-0.114
-248.019	-200.000	-0.018	-0.481
-247.005	176.070	-0.088	0.162
-245.990	-113.388	-0.182	-0.045
-244.976	70.495	-0.307	0.403
-243.961	-200.000	-0.010	0.167
-242.946	-21.309	0.380	0.294
-241.932	-75.380	-0.064	-0.029
-240.917	-74.118	0.236	-0.108
-239.903	-182.548	0.198	0.005
-238.888	800.000	-0.106	0.470
-237.873	-23.773	0.348	-0.264
-236.859	-102.327	-0.282	0.085
-235.844	-200.000	0.009	0.151
-234.830	28.526	-0.147	-0.157
-233.815	393.074	-0.149	-0.395
-232.800	11.025	0.177	-0.172
-231.786	-165.593	-0.436	-0.024
-230.771	15.927	-0.284	0.283
-229.757	-200.000	0.067	0.596
-228.742	102.624	-0.155	0.231
-227.727	93.916	0.072	0.103
-226.713	-97.506	0.247	-0.081
-225.698	-200.000	0.035	0.302
-224.684	-39.119	0.205	-0.136
-223.669	336.960	0.071	-0.175
-222.655	517.094	-0.084	0.250
-221.640	-200.000	0.076	0.571
-220.625	-125.696	0.411	-0.078
-219.611	-200.000	-0.003	-0.282
-218.596	-185.747	-0.156	0.003
-217.582	177.562	-0.051	0.094
-216.567	800.000	0.093	0.349
-215.552	84.576	-0.102	-0.142
-214.538	-45.078	0.182	0.114
-213.523	-111.194	-0.241	-0.062
-212.509	107.411	0.066	0.100
-211.494	-96.252	0.210	-0.070
-210.479	113.087	-0.132	-0.202
-209.465	-200.000	-0.075	-0.453
-208.450	-7.877	0.051	0.043
-207.436	40.003	0.144	0.164
-206.421	-47.983	0.177	-0.108
-205.406	-200.000	-0.013	0.406
-204.392	-73.234	-0.498	0.230
-203.377	-17.022	-0.265	-0.212
-202.363	23.469	0.048	0.050
-201.348	-28.370	-0.191	0.139
-200.333	-30.606	0.474	-0.339
-199.319	149.212	-0.357	-0.612
-198.304	-200.000	0.056	-0.386
-197.290	-134.311	-0.119	-0.018
-196.275	-111.564	0.459	0.117
-195.260	-40.557	0.200	-0.131
-194.246	107.009	0.190	0.286
-193.231	201.029	-0.154	-0.300
-192.217	-45.367	-0.300	0.188
-191.202	800.000	0.008	-0.028
-190.187	-58.449	0.324	0.177
-189.173	329.289	0.104	-0.255
-188.158	-52.287	-0.294	0.172
-187.144	-32.993	0.340	0.238
-186.129	-200.000	0.003	-0.144
-185.114	-92.989	-0.490	0.172
-184.100	621.339	-0.012	-0.038
-183.085	-73.948	-0.417	0.190
-182.071	182.513	-0.061	0.114
-181.056	77.374	-0.226	-0.305
-180.042	-44.339	0.198	0.125
-179.027	89.847	0.033	-0.046
-178.012	-31.132	0.574	0.408
-176.998	-97.247	0.343	0.112
-175.983	-52.773	-0.676	-0.393
-174.969	800.000	-0.098	-0.345
-173.954	-200.000	-0.017	0.298
-172.939	800.000	0.100	-0.440
-171.925	-7.530	0.236	0.202
-170.910	-200.000	0.075	0.444
-169.896	-200.000	0.020	-0.491
-168.881	-200.000	-0.041	-0.339
-167.866	416.401	0.159	-0.432
-166.852	-0.679	0.114	0.102
-165.837	-102.944	-0.415	0.124
-164.823	290.709	0.169	0.391
-163.808	723.892	0.221	0.750
-162.793	-4.965	-0.374	0.325
-161.779	-159.659	-0.290	-0.020
-160.764	-101.124	-0.077	-0.024
-159.750	-111.302	0.538	0.138
-158.735	800.000	-0.027	0.124
-157.720	-76.640	-0.155	-0.068
-156.706	-42.574	0.127	0.082
-155.691	800.000	0.027	-0.144
-154.677	176.291	-0.028	0.052
-153.662	-8.383	-0.370	-0.314
-152.647	-107.417	0.483	-0.133
-151.633	598.929	0.223	0.704
-150.618	6.255	-0.573	0.537
-149.604	-200.000	0.069	-0.448
-148.589	-87.796	0.275	-0.104
-147.574	24.300	0.272	0.284
-146.560	183.318	0.182	0.341
-145.545	65.155	-0.073	-0.093
-144.531	-200.000	-0.033	0.198
-143.516	-183.310	0.474	-0.010
-142.502	48.041	-0.148	-0.175
-141.487	3.129	-0.277	0.254
-140.472	-8.778	-0.293	0.247
-139.458	717.658	0.055	0.187
-138.443	98.804	0.264	0.385
-137.429	-114.761	-0.661	0.158
-136.414	-29.652	0.259	-0.186
-135.399	359.153	0.075	0.190
-134.385	-26.072	-0.230	0.171
-133.370	82.580	-0.313	0.430
-132.356	-161.490	-0.520	0.033
-131.341	-81.452	0.143	0.059
-130.326	-116.930	-0.425	-0.097
-129.312	239.175	-0.108	-0.227
-128.297	204.291	-0.065	-0.127
-127.283	-140.773	-0.444	-0.057
-126.268	-53.868	-0.072	0.041
-125.253	-200.000	-0.004	0.326
-124.239	-123.298	0.322	0.064
-123.224	-91.808	-0.150	0.053
-122.210	-200.000	0.015	0.370
-121.195	327.120	-0.015	0.037
