DTS Sentinel unit serial number:	SN409020Multiplexer serial number:	ORYXHardware model number:	OX4-SRSoftware version number:	ORYX F/W v3.00 Oryx Data Collector v3.7.2.0data status	okinstallation	HaddamTimeLapsedifferential loss correction	single-endedforward channel	channel 3reverse channel	N/Adate	2011/06/21time	18:41:17forward acquisition time	30.00reverse acquisition time	0.00gamma	498.7831k internal	0.1817k external	0.1817temperature offset calibration	1.0074default loss term (dB/km)	0.3790temperature slope calibration	1.3530multiplexer offset coefficient	1.0000multiplexer slope coefficient	1.0000fibre end	0.00T internal ref (°C)	35.87T ext. ref 1 (°C)	26.86T ext. ref 2 (°C)	0.25length (m)	temperature (°C)	Stokes	anti-Stokes-747.200	-16.801	-0.212	-0.171
-746.185	736.148	0.052	0.178
-745.171	88.066	0.058	-0.082
-744.156	-64.764	0.396	0.205
-743.142	800.000	0.106	-0.413
-742.127	-119.820	-0.479	0.105
-741.112	-42.590	-0.385	-0.250
-740.098	226.235	-0.255	0.531
-739.083	-133.425	-0.808	0.129
-738.069	-200.000	-0.060	0.389
-737.054	287.885	0.061	0.141
-736.039	-12.105	-0.603	0.504
-735.025	-92.787	-0.238	-0.085
-734.010	-200.000	0.006	-0.099
-732.996	-200.000	-0.033	0.195
-731.981	800.000	0.120	0.553
-730.966	-135.813	0.510	-0.076
-729.952	221.853	-0.157	-0.325
-728.937	-57.184	-0.359	-0.202
-727.923	43.866	0.131	-0.154
-726.908	-101.452	-0.168	0.052
-725.894	-125.658	-0.499	0.096
-724.879	-37.976	0.156	-0.106
-723.864	27.586	0.186	0.200
-722.850	-65.092	0.113	0.058
-721.835	-200.000	-0.009	-0.075
-720.821	-200.000	-0.070	0.486
-719.806	104.389	-0.168	0.253
-718.791	-200.000	0.005	-0.061
-717.777	494.179	-0.171	-0.506
-716.762	-19.525	-0.332	-0.263
-715.748	-84.128	-0.391	0.158
-714.733	-1.532	0.335	0.301
-713.718	-48.106	-0.399	-0.246
-712.704	-14.400	-0.279	0.230
-711.689	71.883	0.090	-0.120
-710.675	-14.211	0.115	0.095
-709.660	-134.263	0.179	0.028
-708.645	19.385	-0.351	0.360
-707.631	-146.307	0.382	-0.042
-706.616	-83.799	-0.167	-0.068
-705.602	-155.518	-0.521	-0.042
-704.587	-86.434	-0.520	-0.203
-703.572	59.629	-0.156	-0.197
-702.558	-200.000	0.029	0.421
-701.543	-52.206	-0.294	-0.174
-700.529	35.327	-0.082	0.092
-699.514	-72.142	0.440	-0.208
-698.499	800.000	0.027	0.132
-697.485	772.739	-0.106	-0.372
-696.470	-84.276	-0.429	0.173
-695.456	187.010	0.098	-0.187
-694.441	-104.905	-0.216	-0.063
-693.426	55.873	0.170	0.211
-692.412	-13.499	0.079	0.066
-691.397	-200.000	-0.035	-0.659
-690.383	-108.692	-0.244	0.066
-689.368	-200.000	-0.004	0.225
-688.354	-94.607	0.192	-0.066
-687.339	-108.711	0.277	-0.075
-686.324	-4.922	0.392	0.345
-685.310	-135.779	0.437	0.065
-684.295	-43.602	0.258	-0.166
-683.281	800.000	-0.017	-0.082
-682.266	-24.994	-0.277	-0.210
-681.251	623.987	-0.204	-0.661
-680.237	37.405	-0.288	-0.326
-679.222	84.490	0.121	-0.169
-678.208	-94.993	-0.499	-0.171
-677.193	-96.693	0.572	0.191
-676.178	-107.627	-0.089	-0.025
-675.164	-72.726	-0.240	-0.112
-674.149	37.576	-0.020	-0.023
-673.135	-200.000	-0.283	-0.000
-672.120	684.510	0.056	-0.188
-671.105	40.029	-0.214	-0.246
-670.091	800.000	-0.066	-0.359
-669.076	-45.000	0.246	-0.156
-668.062	-200.000	-0.008	0.121
-667.047	-49.272	-0.503	0.305
-666.032	166.427	-0.255	0.462
-665.018	-200.000	-0.079	0.492
-664.003	-103.711	-0.311	-0.092
-662.989	-200.000	-0.021	-0.612
-661.974	23.934	0.027	0.028
-660.959	-51.904	-0.143	0.085
-659.945	-97.421	-0.274	0.091
-658.930	211.042	0.046	-0.092
-657.916	-129.702	-0.532	-0.093
-656.901	-87.192	0.381	0.147
-655.886	-16.122	-0.319	-0.258
-654.872	-146.727	0.573	0.062
-653.857	-120.942	-0.351	0.075
-652.843	-117.712	0.261	-0.059
-651.828	-111.952	-0.086	0.022
-650.814	-52.391	0.486	-0.286
-649.799	800.000	0.019	-0.098
-648.784	-45.408	-0.059	-0.037
-647.770	-8.299	-0.413	0.354
-646.755	17.209	-0.338	-0.342
-645.741	800.000	-0.200	-0.718
-644.726	-2.166	0.124	-0.111
-643.711	494.275	0.047	0.137
-642.697	-98.985	-0.674	-0.217
-641.682	-78.000	-0.657	0.288
-640.668	89.552	-0.439	-0.626
-639.653	283.475	0.061	-0.140
-638.638	126.658	0.277	-0.449
-637.624	251.826	-0.219	-0.477
-636.609	-93.599	0.059	0.021
-635.595	-52.268	-0.355	-0.209
-634.580	711.638	-0.116	0.394
-633.565	-0.164	-0.344	0.311
-632.551	81.173	-0.085	0.118
-631.536	-3.747	-0.262	0.231
-630.522	0.111	-0.337	0.306
-629.507	-140.545	-0.260	0.034
-628.492	-94.851	0.468	-0.161
-627.478	-178.630	0.241	-0.007
-626.463	-200.000	0.024	0.460
-625.449	-70.980	0.179	-0.085
-624.434	800.000	-0.022	0.095
-623.419	800.000	0.124	-0.621
-622.405	-45.580	0.154	-0.097
-621.390	358.561	0.225	-0.576
-620.376	2.581	-0.205	0.189
-619.361	232.469	-0.116	0.243
-618.346	298.612	0.314	0.738
-617.332	556.100	0.137	0.421
-616.317	-182.738	0.084	-0.002
-615.303	-39.907	0.214	0.142
-614.288	-191.406	0.177	-0.002
-613.273	269.906	-0.062	0.139
-612.259	-199.274	-0.289	-0.002
-611.244	-58.908	-0.256	-0.141
-610.230	233.457	-0.086	-0.180
-609.215	-200.000	0.007	-0.289
-608.201	-0.642	0.244	-0.220
-607.186	-15.867	-0.517	0.418
-606.171	60.908	0.205	-0.259
-605.157	-96.579	0.296	0.099
-604.142	-28.239	0.258	0.189
-603.128	182.820	-0.167	0.315
-602.113	159.359	-0.235	-0.417
-601.098	-79.849	-0.056	0.024
-600.084	372.630	-0.132	0.344
-599.069	83.690	0.169	-0.234
-598.055	53.356	-0.062	-0.076
-597.040	-200.000	0.052	-0.322
-596.025	-200.000	0.043	0.752
-595.011	141.714	0.143	0.242
-593.996	800.000	-0.080	0.345
-592.982	-1.110	-0.438	-0.394
-591.967	438.798	-0.094	0.263
-590.952	-88.135	0.254	-0.096
-589.938	-58.475	0.104	0.057
-588.923	118.988	-0.113	0.178
-587.909	3.257	0.259	-0.240
-586.894	761.999	-0.061	-0.211
-585.879	-200.000	0.032	-0.210
-584.865	800.000	-0.028	-0.110
-583.850	-187.342	0.407	-0.007
-582.836	2.610	-0.177	-0.163
-581.821	-70.334	0.200	-0.096
-580.806	-132.903	-0.479	0.077
-579.792	-63.116	-0.033	-0.017
-578.777	-21.411	0.193	0.150
-577.763	-200.000	-0.042	0.437
-576.748	-200.000	-0.008	-0.271
-575.733	209.150	0.232	-0.463
-574.719	71.561	-0.036	-0.048
-573.704	-48.966	0.107	0.065
-572.690	-2.629	0.137	0.122
-571.675	198.077	-0.097	-0.189
-570.661	-145.488	-0.182	0.021
-569.646	-60.852	-0.444	-0.238
-568.631	-125.728	0.454	-0.086
-567.617	139.645	0.245	0.411
-566.602	-100.460	-0.400	-0.125
-565.588	390.820	-0.126	-0.333
-564.573	-200.000	0.024	-0.203
-563.558	-95.764	-0.299	0.101
-562.544	-74.872	0.115	-0.052
-561.529	253.195	0.069	0.150
-560.515	85.790	0.355	-0.497
-559.500	-56.299	0.189	0.106
-558.485	-17.921	-0.079	0.063
-557.471	-52.668	-0.072	-0.042
-556.456	-17.424	0.279	0.223
-555.442	-32.131	0.392	-0.278
-554.427	-9.819	0.032	0.027
-553.412	111.241	-0.133	-0.204
-552.398	-127.869	-0.147	0.027
-551.383	115.459	0.081	-0.127
-550.369	-91.933	-0.436	-0.156
-549.354	-142.971	-0.084	0.010
-548.339	77.213	0.163	0.220
-547.325	214.310	0.269	0.543
-546.310	200.840	-0.046	0.090
-545.296	-200.000	-0.032	0.260
-544.281	-29.798	0.086	0.062
-543.266	102.485	-0.307	0.456
-542.252	18.940	0.369	0.375
-541.237	45.493	0.170	0.199
-540.223	-10.839	-0.185	0.155
-539.208	-147.419	0.207	0.022
-538.193	-92.473	-0.343	-0.122
-537.179	126.476	-0.126	-0.202
-536.164	0.972	0.386	0.351
-535.150	342.911	-0.092	-0.229
-534.135	206.867	0.033	0.065
-533.121	247.400	-0.191	-0.411
-532.106	-47.645	-0.410	0.252
-531.091	-128.653	-0.048	-0.008
-530.077	83.690	0.178	0.247
-529.062	70.064	0.314	-0.411
-528.048	706.262	0.099	0.333
-527.033	-29.390	0.346	-0.251
-526.018	-29.835	0.162	0.117
-525.004	800.000	0.026	0.145
-523.989	-25.368	0.209	-0.156
-522.975	-35.064	-0.134	-0.092
-521.960	65.044	0.203	-0.261
-520.945	-126.388	0.375	0.070
-519.931	85.713	-0.157	0.219
-518.916	98.583	-0.206	0.301
-517.902	-200.000	0.036	0.244
-516.887	-90.481	-0.289	0.105
-515.872	-48.391	-0.403	-0.245
-514.858	-200.000	0.008	0.532
-513.843	113.676	0.062	-0.097
-512.829	-88.139	-0.274	-0.104
-511.814	-200.000	0.039	-0.240
-510.799	106.342	-0.145	0.218
-509.785	457.104	-0.117	-0.331
-508.770	22.618	-0.261	0.271
-507.756	-90.572	-0.547	0.199
-506.741	800.000	0.093	0.430
-505.726	-66.121	-0.053	-0.027
-504.712	459.250	-0.205	0.583
-503.697	347.537	-0.055	0.137
-502.683	-91.877	0.772	0.276
-501.668	326.991	0.137	0.336
-500.653	-159.619	0.168	0.012
-499.639	96.216	0.137	-0.199
-498.624	-43.309	0.258	-0.165
-497.610	91.097	0.386	-0.550
-496.595	-145.525	0.633	0.071
-495.581	-52.435	-0.506	0.296
-494.566	115.444	-0.208	0.322
-493.551	-185.663	0.361	-0.007
-492.537	513.998	0.033	-0.098
-491.522	221.751	0.221	-0.451
-490.508	-92.241	-0.108	-0.038
-489.493	-126.455	0.135	0.025
-488.478	-62.138	-0.312	-0.165
-487.464	800.000	-0.106	0.469
-486.449	54.348	0.272	0.332
-485.435	395.986	-0.146	0.387
-484.420	-104.026	-0.421	0.124
-483.405	-118.702	-0.169	0.038
-482.391	-139.627	-0.245	-0.033
-481.376	-200.000	0.013	-0.553
-480.362	-148.508	-0.384	-0.039
-479.347	35.001	0.223	0.248
-478.332	-56.735	-0.283	-0.158
-477.318	-84.659	0.555	0.220
-476.303	-177.523	0.181	0.006
-475.289	107.286	-0.104	0.156
-474.274	21.333	-0.353	0.363
-473.259	211.856	-0.176	-0.352
-472.245	-200.000	-0.012	-0.171
-471.230	47.225	0.367	0.433
-470.216	3.900	-0.287	0.265
-469.201	203.369	0.099	-0.194
-468.186	-101.855	-0.369	0.112
-467.172	-200.000	-0.015	-0.314
-466.157	-169.014	0.023	-0.001
-465.143	-96.964	0.330	0.109
-464.128	-200.000	0.004	0.289
-463.113	1.882	0.329	0.300
-462.099	100.266	-0.268	-0.395
-461.084	97.684	-0.074	0.107
-460.070	-172.522	-0.324	0.013
-459.055	800.000	-0.075	-0.295
-458.040	336.209	-0.120	-0.296
-457.026	-133.100	-0.005	-0.001
-456.011	-56.976	0.237	-0.132
-454.997	172.148	-0.230	0.420
-453.982	-5.770	0.415	0.360
-452.968	67.349	-0.096	0.125
-451.953	-4.134	0.395	-0.346
-450.938	629.484	0.047	-0.152
-449.924	479.670	-0.135	-0.389
-448.909	-123.295	0.106	-0.021
-447.895	800.000	0.019	0.102
-446.880	-44.314	0.375	0.237
-445.865	-200.000	0.035	0.244
-444.851	-136.016	-0.369	0.054
-443.836	33.627	0.096	-0.106
-442.822	-200.000	0.020	-0.164
-441.807	-26.220	0.304	-0.225
-440.792	-200.000	0.037	-0.299
-439.778	-200.000	0.016	-0.210
-438.763	-200.000	-0.053	0.344
-437.749	148.258	-0.293	0.502
-436.734	-158.606	0.188	0.014
-435.719	-142.766	-0.529	-0.064
-434.705	-153.187	0.622	-0.054
-433.690	132.574	-0.032	0.053
-432.676	-200.000	0.000	0.374
-431.661	-152.316	-0.252	-0.023
-430.646	-89.201	0.124	-0.046
-429.632	151.082	-0.155	0.267
-428.617	-123.457	0.131	0.026
-427.603	-104.564	-0.448	0.130
-426.588	800.000	-0.078	0.279
-425.573	-108.402	-0.200	-0.054
-424.559	-97.248	0.126	-0.041
-423.544	34.641	-0.356	0.394
-422.530	238.246	-0.151	-0.318
-421.515	-82.148	0.138	-0.056
-420.500	97.507	-0.204	-0.297
-419.486	-182.843	-0.675	0.015
-418.471	-58.876	-0.439	0.239
-417.457	-200.000	-0.043	0.767
-416.442	-181.440	0.536	0.013
-415.428	-94.506	-0.336	0.115
-414.413	-200.000	0.024	0.173
-413.398	102.044	0.299	-0.442
-412.384	-49.869	-0.140	-0.084
-411.369	375.476	-0.116	0.301
-410.355	562.861	-0.045	0.137
-409.340	185.317	0.285	0.537
-408.325	31.882	0.152	-0.165
-407.311	0.061	-0.122	0.110
-406.296	-200.000	-0.074	-0.460
-405.282	100.181	-0.092	0.136
-404.267	252.442	0.114	0.247
-403.252	-132.438	-0.119	-0.019
-402.238	185.199	-0.114	0.215
-401.223	-103.954	0.329	-0.096
-400.209	31.034	0.177	-0.192
-399.194	193.073	0.214	-0.410
-398.179	-40.885	0.300	0.195
-397.165	-93.377	-0.327	0.114
-396.150	76.420	-0.040	0.054
-395.136	-158.275	-0.167	-0.012
-394.121	-200.000	0.015	0.227
-393.106	-54.137	-0.490	0.280
-392.092	-73.897	-0.177	0.081
-391.077	-21.959	0.171	0.131
-390.063	-82.375	0.144	-0.059
-389.048	-75.147	0.431	0.194
-388.033	-25.493	-0.234	0.175
-387.019	-51.500	-0.336	0.198
-386.004	800.000	-0.132	0.592
-384.990	-68.500	0.565	0.276
-383.975	-63.114	0.470	0.244
-382.960	-154.755	-0.342	0.028
-381.946	54.381	-0.316	-0.384
-380.931	800.000	-0.096	-0.336
-379.917	-49.741	-0.343	-0.205
-378.902	-102.364	-0.387	-0.116
-377.888	-200.000	0.039	-0.232
-376.873	375.219	0.069	-0.177
-375.858	339.670	0.130	0.321
-374.844	83.298	0.317	0.437
-373.829	-130.148	-0.388	0.066
-372.815	800.000	0.042	0.196
-371.800	13.340	0.269	-0.263
-370.785	248.366	-0.103	0.221
-369.771	338.653	-0.133	-0.328
-368.756	83.644	0.304	-0.419
-367.742	-200.000	-0.032	-0.236
-366.727	-54.909	-0.354	0.201
-365.712	-119.607	-0.205	0.044
-364.698	194.545	0.194	-0.372
-363.683	155.833	-0.146	-0.254
-362.669	-160.939	0.462	0.030
-361.654	624.839	0.123	-0.395
-360.639	681.230	-0.028	-0.092
-359.625	-37.381	0.323	-0.217
-358.610	-200.000	0.001	0.063
-357.596	15.683	-0.250	0.248
-356.581	-113.349	0.605	0.149
-355.566	28.164	-0.065	0.069
-354.552	-200.000	-0.020	0.341
-353.537	282.059	-0.041	0.093
-352.523	-7.188	0.188	-0.161
-351.508	-89.065	-0.410	0.152
-350.493	-124.208	0.162	-0.032
-349.479	-55.930	0.367	-0.206
-348.464	-168.654	-0.502	0.024
-347.450	22.413	0.198	0.204
-346.435	-170.001	0.675	0.030
-345.420	190.343	0.169	0.322
-344.406	-111.655	0.267	0.068
-343.391	-200.000	0.005	-0.092
-342.377	800.000	0.125	-0.479
-341.362	88.468	-0.222	-0.311
-340.348	57.909	-0.211	-0.261
-339.333	132.287	-0.197	0.320
-338.318	-91.876	0.396	-0.141
-337.304	-150.078	-0.398	0.039
-336.289	-134.874	-0.192	0.029
-335.275	-16.260	0.166	-0.132
-334.260	-75.234	-0.259	-0.116
-333.245	88.718	0.107	0.151
-332.231	800.000	0.009	-0.037
-331.216	218.394	0.210	0.424
-330.202	-104.219	-0.187	0.054
-329.187	800.000	-0.044	-0.172
-328.172	-94.723	-0.444	0.151
-327.158	-115.087	-0.092	-0.022
-326.143	-114.611	0.237	-0.057
-325.129	-144.513	-0.250	0.029
-324.114	-90.967	0.531	0.191
-323.099	-127.451	0.271	-0.049
-322.085	800.000	0.087	0.430
-321.070	-39.563	-0.069	0.045
-320.056	195.258	0.070	-0.134
-319.041	-93.127	0.183	0.064
-318.026	-144.811	0.252	-0.029
-317.012	147.250	-0.250	-0.425
-315.997	57.205	-0.173	-0.212
-314.983	-71.210	-0.428	0.201
-313.968	-1.277	-0.167	-0.149
-312.953	-174.622	0.215	-0.008
-311.939	38.206	-0.033	0.037
-310.924	-72.490	0.200	0.093
-309.910	270.391	0.139	-0.309
-308.895	402.785	-0.064	0.169
-307.880	185.443	-0.148	-0.277
-306.866	51.488	-0.111	0.133
-305.851	-116.627	0.141	0.032
-304.837	-101.638	-0.253	0.077
-303.822	-13.317	0.232	-0.189
-302.807	-200.000	0.068	-0.403
-301.793	-200.000	0.038	-0.490
-300.778	375.717	-0.151	0.390
-299.764	-120.273	-0.504	0.107
-298.749	-200.000	-0.024	0.597
-297.735	-83.409	0.349	0.140
-296.720	-200.000	0.082	0.714
-295.705	91.960	0.220	0.311
-294.691	105.070	-0.174	-0.258
-293.676	247.458	-0.085	0.181
-292.662	-118.863	0.328	-0.072
-291.647	17.338	-0.236	-0.236
-290.632	-144.288	-0.753	-0.087
-289.618	-200.000	0.018	-0.236
-288.603	-80.805	0.072	0.030
-287.589	-82.560	0.163	-0.066
-286.574	175.148	0.037	-0.068
-285.559	-72.168	-0.114	-0.053
-284.545	144.462	-0.220	0.370
-283.530	-68.327	-0.111	-0.054
-282.516	110.368	0.168	0.255
-281.501	-200.000	-0.010	-0.076
-280.486	-43.214	0.427	0.271
-279.472	-21.546	0.313	0.239
-278.457	7.344	0.304	-0.285
-277.443	38.856	0.117	-0.132
-276.428	-200.000	0.004	0.059
-275.413	-10.730	-0.230	-0.191
-274.399	-187.386	0.239	-0.004
-273.384	800.000	-0.164	-0.650
-272.370	-197.718	0.265	-0.002
-271.355	-153.355	0.283	-0.024
-270.340	-86.762	-0.272	-0.104
-269.326	-141.469	-0.498	-0.063
-268.311	-30.587	0.227	-0.161
-267.297	477.509	-0.059	-0.170
-266.282	-64.124	0.150	-0.077
-265.267	345.132	-0.045	-0.112
-264.253	-200.000	-0.002	-0.042
-263.238	-172.066	0.402	-0.016
-262.224	-200.000	-0.011	0.490
-261.209	18.385	0.129	-0.130
-260.195	725.742	0.163	0.549
-259.180	-35.070	-0.320	0.218
-258.165	-200.000	0.031	0.242
-257.151	7.725	0.166	0.156
-256.136	116.387	-0.136	0.210
-255.122	-166.146	0.510	-0.027
-254.107	40.923	0.414	-0.469
-253.092	800.000	-0.057	-0.260
-252.078	10.183	0.208	0.198
-251.063	800.000	-0.014	0.066
-250.049	800.000	0.087	-0.324
-249.034	-12.976	-0.264	-0.216
-248.019	202.039	-0.092	0.179
-247.005	27.031	0.354	-0.372
-245.990	89.699	0.305	0.428
-244.976	-187.769	-0.169	-0.003
-243.961	-45.285	-0.325	0.202
-242.946	-30.135	0.116	-0.083
-241.932	-136.201	0.272	-0.040
-240.917	-200.000	-0.195	-0.000
-239.903	-68.816	0.337	0.163
-238.888	-185.926	-0.213	-0.004
-237.873	18.978	-0.239	-0.240
-236.859	-200.000	0.016	0.161
-235.844	27.325	-0.065	0.068
-234.830	-200.000	-0.018	-0.344
-233.815	7.160	-0.274	0.256
-232.800	7.881	-0.112	0.105
-231.786	-8.215	-0.172	-0.145
-230.771	-120.905	0.473	-0.099
-229.757	-127.684	0.472	-0.085
-228.742	-200.000	0.027	0.382
-227.727	107.588	0.089	-0.133
-226.713	-200.000	-0.036	0.384
-225.698	-200.000	0.063	0.395
-224.684	-75.739	0.236	0.105
-223.669	800.000	-0.115	-0.457
-222.655	62.867	-0.291	-0.366
-221.640	-7.748	0.190	0.161
-220.625	-90.196	0.315	0.114
-219.611	-130.402	-0.152	0.026
-218.596	-86.422	-0.273	0.105
-217.582	-29.482	0.198	0.142
-216.567	-7.948	-0.158	-0.133
-215.552	-197.485	-0.043	0.000
-214.538	699.988	0.065	0.216
-213.523	-174.571	-0.510	0.018
-212.509	-200.000	-0.040	0.305
-211.494	-200.000	0.015	-0.188
-210.479	-14.662	0.124	0.100
-209.465	-200.000	-0.010	-0.235
-208.450	800.000	-0.082	-0.412
-207.436	118.722	-0.237	-0.368
-206.421	60.410	-0.122	-0.151
-205.406	-200.000	0.464	-0.001
-204.392	100.366	0.262	-0.381
-203.377	-200.000	0.024	-0.356
-202.363	-1.746	0.048	0.042
-201.348	102.467	0.158	-0.232
-200.333	416.268	0.148	-0.397
-199.319	78.416	-0.332	-0.445
-198.304	-4.294	0.193	0.167
-197.290	29.542	-0.139	-0.148
-196.275	33.156	-0.265	-0.288
-195.260	800.000	0.046	-0.216
-194.246	-86.272	-0.459	-0.176
-193.231	800.000	-0.122	-0.535
-192.217	-37.385	-0.352	-0.235
-191.202	-122.491	-0.218	-0.044
-190.187	-196.675	0.353	0.003
-189.173	29.143	-0.176	-0.187
-188.158	-182.157	-0.332	0.008
-187.144	-82.238	0.132	0.054
-186.129	-103.819	0.547	0.159
-185.114	-110.052	0.878	-0.228
-184.100	-90.845	0.338	0.121
-183.085	-3.345	0.397	0.346
-182.071	800.000	-0.064	-0.303
-181.056	-84.777	0.186	0.073
-180.042	-200.000	0.090	-0.884
-179.027	304.909	0.118	-0.274
-178.012	203.576	-0.244	-0.475
-176.998	510.567	0.100	-0.292
-175.983	254.511	0.059	0.126
-174.969	-40.154	-0.164	0.107
-173.954	180.413	0.148	-0.272
-172.939	-200.000	-0.014	-0.720
-171.925	-22.501	-0.302	-0.228
-170.910	-9.850	0.170	0.142
-169.896	-95.663	0.048	-0.016
-168.881	-53.149	-0.315	0.180
-167.866	552.880	0.119	0.359
-166.852	800.000	0.034	-0.177
-165.837	800.000	-0.104	0.485
-164.823	-20.146	-0.182	0.140
-163.808	-200.000	0.014	-0.087
-162.793	-92.828	-0.721	-0.251
-161.779	14.406	0.237	0.231
-160.764	-200.000	-0.016	-0.110
-159.750	-14.739	0.511	-0.410
-158.735	-74.768	0.266	0.119
-157.720	63.672	0.273	0.344
-156.706	-200.000	-0.038	0.297
-155.691	376.693	0.073	-0.189
-154.677	249.097	-0.092	-0.195
-153.662	-61.172	0.141	-0.074
-152.647	-200.000	0.002	-0.404
-151.633	-121.201	-0.391	-0.081
-150.618	-200.000	0.096	-0.561
-149.604	416.039	0.129	-0.345
-148.589	-122.066	-0.316	-0.064
-147.574	-136.505	-0.154	0.022
-146.560	-32.044	-0.253	-0.177
-145.545	-84.304	0.603	-0.238
-144.531	-15.583	0.357	0.285
-143.516	-200.000	0.024	-0.406
-142.502	422.835	-0.074	0.200
-141.487	-51.076	-0.383	-0.224
-140.472	-147.168	-0.195	0.021
-139.458	-102.441	-0.264	0.079
-138.443	83.391	-0.134	-0.183
-137.429	564.563	-0.109	-0.332
-136.414	-200.000	-0.019	-0.235
-135.399	-200.000	-0.033	0.224
-134.385	-39.713	0.268	-0.175
-133.370	-96.692	0.288	0.094
-132.356	-128.637	0.252	0.044
-131.341	-74.969	0.117	-0.052
-130.326	800.000	0.080	-0.285
-129.312	-175.323	0.158	0.005
-128.297	-76.423	-0.436	0.191
-127.283	-200.000	0.001	0.043
-126.268	-194.956	0.070	0.001
-125.253	-150.339	0.546	0.052
-124.239	-47.318	0.446	0.271
-123.224	247.911	-0.127	0.269
-122.210	-164.078	0.332	0.019
