DTS Sentinel unit serial number:	SN409020Multiplexer serial number:	ORYXHardware model number:	OX4-SRSoftware version number:	ORYX F/W v3.00 Oryx Data Collector v3.7.2.0data status	okinstallation	HaddamTimeLapsedifferential loss correction	single-endedforward channel	channel 3reverse channel	N/Adate	2011/06/21time	15:16:17forward acquisition time	30.00reverse acquisition time	0.00gamma	498.7831k internal	0.1825k external	0.1825temperature offset calibration	1.0074default loss term (dB/km)	0.3790temperature slope calibration	1.3530multiplexer offset coefficient	1.0000multiplexer slope coefficient	1.0000fibre end	0.00T internal ref (°C)	38.28T ext. ref 1 (°C)	28.34T ext. ref 2 (°C)	0.26length (m)	temperature (°C)	Stokes	anti-Stokes-747.200	134.978	0.074	-0.123
-746.185	-97.529	-0.422	-0.139
-745.171	80.179	0.121	0.166
-744.156	56.442	0.323	0.401
-743.142	9.626	0.479	0.462
-742.127	365.732	-0.083	0.214
-741.112	180.887	0.073	0.138
-740.098	800.000	-0.157	0.684
-739.083	-191.634	0.284	0.004
-738.069	-74.773	0.265	0.121
-737.054	95.156	0.271	0.393
-736.039	179.625	0.173	-0.324
-735.025	-99.953	-0.397	-0.125
-734.010	800.000	-0.099	0.390
-732.996	800.000	-0.014	0.060
-731.981	-123.926	-0.320	0.064
-730.966	-156.811	-0.282	-0.022
-729.952	-42.224	-0.360	-0.234
-728.937	-90.276	0.292	-0.107
-727.923	174.860	-0.137	0.253
-726.908	-57.847	-0.475	0.264
-725.894	-200.000	0.042	-0.298
-724.879	-103.438	-0.259	-0.077
-723.864	-93.740	0.290	-0.101
-722.850	-60.992	0.421	-0.226
-721.835	-93.215	0.134	-0.047
-720.821	-136.505	-0.294	0.043
-719.806	64.264	-0.261	-0.335
-718.791	-81.088	0.488	0.204
-717.777	800.000	0.066	0.363
-716.762	702.662	-0.052	-0.175
-715.748	138.633	0.101	0.169
-714.733	61.752	-0.194	-0.246
-713.718	49.732	-0.082	-0.098
-712.704	-141.200	0.577	0.074
-711.689	-164.207	0.236	0.014
-710.675	-38.178	0.246	-0.166
-709.660	365.317	0.003	-0.007
-708.645	-183.787	0.384	0.008
-707.631	-73.228	-0.360	-0.167
-706.616	-200.000	-0.055	0.565
-705.602	55.749	-0.042	-0.052
-704.587	35.035	-0.385	0.429
-703.572	-200.000	0.006	0.126
-702.558	800.000	0.068	-0.376
-701.543	-200.000	0.018	0.102
-700.529	-23.408	0.371	0.283
-699.514	-140.161	-0.286	0.038
-698.499	-200.000	0.008	-0.162
-697.485	-99.899	-0.211	-0.067
-696.470	683.904	0.084	-0.281
-695.456	17.099	-0.376	-0.379
-694.441	-4.279	-0.436	0.383
-693.426	-200.000	-0.023	0.547
-692.412	-36.738	-0.391	0.266
-691.397	-118.629	-0.211	0.047
-690.383	-79.136	0.209	-0.090
-689.368	177.821	0.011	0.020
-688.354	-1.434	0.105	0.094
-687.339	221.489	0.174	0.357
-686.324	-114.436	-0.122	-0.030
-685.310	-200.000	0.020	-0.229
-684.295	-200.000	0.014	0.267
-683.281	-32.822	-0.100	0.070
-682.266	13.926	0.366	0.362
-681.251	-200.000	0.006	-0.082
-680.237	-65.093	-0.431	-0.220
-679.222	-103.232	0.359	-0.107
-678.208	-49.049	-0.314	0.190
-677.193	410.006	-0.079	0.213
-676.178	231.496	0.250	0.522
-675.164	-67.879	-0.547	0.271
-674.149	-188.482	-0.715	0.011
-673.135	327.167	0.029	0.070
-672.120	-39.507	0.066	0.044
-671.105	-26.917	0.211	0.157
-670.091	-0.115	0.121	-0.110
-669.076	-155.840	-0.336	-0.027
-668.062	0.747	-0.209	-0.190
-667.047	-3.975	-0.378	0.333
-666.032	122.652	-0.216	-0.344
-665.018	189.470	-0.130	-0.249
-664.003	-100.137	0.254	0.080
-662.989	-188.838	-0.470	-0.007
-661.974	-57.348	-0.241	0.134
-660.959	-111.276	-0.179	0.046
-659.945	337.419	0.030	-0.075
-658.930	-87.830	0.157	0.060
-657.916	-73.421	0.081	-0.037
-656.901	-125.827	0.311	-0.059
-655.886	-94.802	-0.341	0.117
-654.872	278.317	0.056	0.127
-653.857	-53.666	0.086	-0.050
-652.843	-113.190	-0.204	0.051
-651.828	-12.306	-0.150	-0.125
-650.814	800.000	-0.055	0.247
-649.799	33.316	0.304	0.336
-648.784	-164.079	0.116	0.007
-647.770	-89.516	0.227	0.084
-646.755	31.500	0.211	-0.230
-645.741	-25.199	0.304	-0.228
-644.726	444.444	-0.078	0.219
-643.711	103.502	-0.072	0.107
-642.697	-163.058	0.356	0.022
-641.682	-86.180	-0.378	-0.147
-640.668	800.000	-0.144	-0.603
-639.653	83.208	0.290	0.401
-638.638	6.351	0.261	0.246
-637.624	83.802	-0.263	0.365
-636.609	-200.000	-0.028	0.264
-635.595	158.499	0.205	0.363
-634.580	28.734	-0.372	-0.400
-633.565	-84.172	0.063	0.025
-632.551	-200.000	0.018	0.471
-631.536	-121.700	-0.308	-0.064
-630.522	212.555	-0.259	0.521
-629.507	-112.268	0.163	-0.041
-628.492	-115.835	0.184	0.043
-627.478	-158.799	-0.404	0.029
-626.463	-131.992	0.400	-0.065
-625.449	-122.490	-0.242	-0.050
-624.434	695.715	-0.042	-0.139
-623.419	-193.844	-0.212	0.002
-622.405	8.204	0.277	0.264
-621.390	-200.000	-0.012	-0.074
-620.376	182.268	-0.121	0.228
-619.361	-125.961	0.552	-0.104
-618.346	165.962	-0.107	0.193
-617.332	-75.457	0.399	-0.179
-616.317	434.152	-0.094	-0.261
-615.303	-89.104	-0.194	-0.072
-614.288	-200.000	-0.045	0.268
-613.273	155.985	-0.259	-0.454
-612.259	385.299	-0.277	-0.727
-611.244	-7.569	0.335	-0.287
-610.230	105.294	0.212	-0.318
-609.215	-65.630	-0.418	-0.212
-608.201	800.000	0.047	-0.184
-607.186	13.609	-0.124	0.122
-606.171	-200.000	-0.006	0.221
-605.157	-200.000	-0.049	0.525
-604.142	277.664	-0.205	0.464
-603.128	-95.353	0.154	-0.052
-602.113	-128.871	-0.260	-0.046
-601.098	-174.565	-0.192	0.007
-600.084	247.956	0.107	-0.229
-599.069	-153.050	-0.091	-0.008
-598.055	-83.426	0.491	-0.198
-597.040	118.802	-0.174	-0.273
-596.025	-200.000	-0.034	0.320
-595.011	-157.540	0.289	-0.022
-593.996	-85.472	0.129	0.051
-592.982	-200.000	-0.002	-0.032
-591.967	92.354	-0.058	0.083
-590.952	-21.525	-0.182	0.141
-589.938	135.188	0.201	0.331
-588.923	77.123	0.079	-0.107
-587.909	11.709	0.369	-0.359
-586.894	-91.596	-0.475	-0.170
-585.879	102.501	0.195	-0.290
-584.865	89.106	-0.165	-0.233
-583.850	6.932	0.229	-0.216
-582.836	109.216	-0.284	-0.431
-581.821	-92.470	0.606	-0.215
-580.806	488.526	-0.055	0.161
-579.792	74.846	-0.277	-0.370
-578.777	-200.000	0.018	0.107
-577.763	141.382	0.076	0.127
-576.748	-155.062	0.323	-0.026
-575.733	-48.052	-0.279	-0.170
-574.719	-163.896	-0.466	-0.027
-573.704	114.451	-0.102	-0.158
-572.690	-200.000	-0.035	-0.413
-571.675	-124.172	0.154	0.030
-570.661	-60.439	0.266	0.143
-569.646	114.436	-0.014	0.022
-568.631	-200.000	-0.043	-0.447
-567.617	-200.000	0.009	-0.201
-566.602	464.011	0.030	-0.086
-565.588	800.000	0.010	0.039
-564.573	-68.244	-0.032	0.016
-563.558	31.885	-0.015	0.016
-562.544	129.044	0.199	-0.321
-561.529	-74.201	-0.056	-0.026
-560.515	-66.584	-0.207	-0.103
-559.500	-143.080	-0.082	-0.010
-558.485	-39.163	0.285	-0.189
-557.471	101.494	-0.189	0.279
-556.456	-63.157	-0.237	0.123
-555.442	-40.491	-0.240	0.157
-554.427	-200.000	-0.011	0.561
-553.412	60.051	0.279	0.349
-552.398	97.227	-0.101	-0.146
-551.383	-131.673	-0.854	0.140
-550.369	800.000	0.091	0.324
-549.354	800.000	-0.052	0.239
-548.339	-0.378	0.227	-0.204
-547.325	-87.375	0.305	-0.116
-546.310	-182.061	0.117	-0.003
-545.296	-105.779	-0.473	0.134
-544.281	-91.191	-0.706	-0.255
-543.266	7.921	-0.340	-0.322
-542.252	-121.307	0.487	-0.102
-541.237	191.759	-0.059	-0.113
-540.223	186.886	-0.173	-0.328
-539.208	265.854	-0.242	-0.535
-538.193	-200.000	0.005	-0.063
-537.179	-105.425	-0.065	-0.019
-536.164	-57.444	0.150	-0.083
-535.150	-43.792	0.360	0.228
-534.135	800.000	0.082	-0.328
-533.121	659.241	0.095	-0.310
-532.106	-74.173	0.176	-0.080
-531.091	800.000	-0.160	-0.731
-530.077	267.283	0.057	0.126
-529.062	698.340	0.099	0.332
-528.048	589.469	0.091	-0.285
-527.033	29.510	0.144	0.155
-526.018	652.201	-0.095	-0.311
-525.004	-11.118	-0.092	-0.076
-523.989	-200.000	-0.018	0.145
-522.975	270.721	-0.124	-0.278
-521.960	-19.418	0.338	0.264
-520.945	141.034	0.264	-0.443
-519.931	-31.288	0.261	0.186
-518.916	-96.076	-0.185	0.062
-517.902	85.670	0.157	0.218
-516.887	-87.718	0.205	0.078
-515.872	-200.000	0.026	0.170
-514.858	-89.888	0.242	0.089
-513.843	118.486	-0.187	-0.293
-512.829	800.000	-0.110	0.412
-511.814	80.599	0.487	0.664
-510.799	-119.195	-0.254	-0.056
-509.785	-21.146	-0.156	0.120
-508.770	-139.605	0.379	0.051
-507.756	-122.394	0.159	-0.032
-506.741	-168.883	0.253	0.012
-505.726	-107.652	-0.316	0.087
-504.712	-200.000	-0.008	-0.111
-503.697	88.247	0.157	-0.221
-502.683	-72.775	0.499	0.231
-501.668	-40.545	-0.343	0.224
-500.653	-86.608	0.415	-0.160
-499.639	-33.392	-0.229	-0.159
-498.624	75.816	-0.072	-0.097
-497.610	115.133	-0.049	-0.075
-496.595	-86.912	-0.178	-0.068
-495.581	31.067	0.156	-0.169
-494.566	98.389	-0.205	-0.298
-493.551	170.413	0.169	-0.306
-492.537	-200.000	-0.003	0.524
-491.522	446.952	-0.138	0.385
-490.508	-7.455	-0.199	-0.170
-489.493	396.198	0.111	-0.295
-488.478	52.906	0.283	0.341
-487.464	-19.059	0.148	0.116
-486.449	-200.000	-0.038	0.327
-485.435	-62.669	-0.277	-0.144
-484.420	-200.000	-0.011	-0.103
-483.405	10.541	-0.228	0.219
-482.391	-138.520	-0.239	-0.033
-481.376	800.000	-0.090	0.324
-480.362	97.438	0.161	0.233
-479.347	158.286	0.047	-0.083
-478.332	548.007	0.086	-0.261
-477.318	-97.386	-0.367	-0.120
-476.303	-99.467	0.372	0.117
-475.289	537.615	0.129	0.389
-474.274	-39.191	0.341	-0.225
-473.259	-30.866	0.207	0.147
-472.245	-143.036	-0.341	0.041
-471.230	11.824	0.099	0.096
-470.216	220.066	-0.141	-0.286
-469.201	-200.000	-0.632	0.003
-468.186	-200.000	-0.005	0.514
-467.172	800.000	-0.058	0.267
-466.157	522.524	0.164	0.489
-465.143	-139.001	-0.202	-0.027
-464.128	-180.877	0.212	-0.005
-463.113	-120.942	0.378	-0.079
-462.099	-149.500	0.130	0.013
-461.084	754.939	-0.117	0.400
-460.070	-21.362	-0.201	-0.154
-459.055	21.550	-0.243	-0.249
-458.040	21.712	-0.090	0.092
-457.026	96.505	-0.081	-0.117
-456.011	-77.640	0.352	0.153
-454.997	-142.301	-0.223	0.027
-453.982	-126.579	0.279	0.052
-452.968	91.833	0.227	0.322
-451.953	3.500	-0.244	0.224
-450.938	11.184	-0.145	0.140
-449.924	3.956	-0.329	0.302
-448.909	-200.000	0.011	0.900
-447.895	256.447	-0.138	0.301
-446.880	86.017	-0.243	0.337
-445.865	-95.756	0.481	0.161
-444.851	-1.449	0.065	0.058
-443.836	16.349	-0.090	-0.089
-442.822	-172.782	0.445	0.017
-441.807	-11.796	-0.057	0.047
-440.792	-200.000	-0.001	-0.042
-439.778	508.796	-0.133	-0.390
-438.763	-200.000	0.068	-0.425
-437.749	220.638	-0.170	0.345
-436.734	-10.593	0.353	-0.294
-435.719	-164.263	-0.256	0.015
-434.705	85.445	-0.065	0.091
-433.690	-96.316	0.033	0.011
-432.676	-200.000	-0.001	0.149
-431.661	-200.000	0.032	0.294
-430.646	-200.000	-0.021	0.235
-429.632	215.869	-0.055	-0.110
-428.617	-27.396	-0.349	-0.255
-427.603	-86.056	-0.487	-0.188
-426.588	77.362	0.214	0.287
-425.573	-200.000	0.037	0.235
-424.559	128.057	0.175	0.281
-423.544	25.495	-0.085	0.089
-422.530	-91.231	0.523	0.187
-421.515	-30.167	0.222	0.159
-420.500	5.620	0.177	-0.164
-419.486	29.372	0.247	-0.264
-418.471	-200.000	-0.049	-0.307
-417.457	-26.885	0.217	0.160
-416.442	510.869	0.124	-0.366
-415.428	-200.000	0.055	-0.750
-414.413	-18.556	-0.085	-0.067
-413.398	-109.447	-0.488	-0.129
-412.384	-187.508	-0.375	0.006
-411.369	-90.422	-0.221	-0.080
-410.355	124.009	-0.115	0.182
-409.340	-122.394	-0.157	-0.032
-408.325	132.684	0.236	-0.385
-407.311	400.522	-0.035	-0.093
-406.296	-28.384	0.311	-0.225
-405.282	335.741	-0.106	-0.260
-404.267	-200.000	-0.010	-0.087
-403.252	23.852	-0.100	0.104
-402.238	800.000	0.111	-0.493
-401.223	7.445	0.242	-0.228
-400.209	800.000	-0.131	-0.572
-399.194	-118.418	0.055	0.012
-398.179	-69.259	0.102	-0.049
-397.165	-164.443	0.504	0.028
-396.150	-122.160	0.362	0.074
-395.136	-3.301	-0.278	0.243
-394.121	-66.336	-0.422	0.210
-393.106	-144.353	-0.322	-0.037
-392.092	425.464	0.192	-0.522
-391.077	9.124	-0.109	0.104
-390.063	-200.000	0.048	0.381
-389.048	-107.576	0.247	-0.067
-388.033	-200.000	-0.001	-0.315
-387.019	-112.169	-0.234	0.059
-386.004	-18.736	0.159	0.124
-384.990	99.538	0.227	-0.331
-383.975	63.712	-0.202	-0.255
-382.960	-101.942	0.375	0.113
-381.946	307.844	-0.089	-0.210
-380.931	-87.662	-0.164	0.062
-379.917	-200.000	-0.013	0.086
-378.902	-200.000	-0.025	0.397
-377.888	-21.958	-0.239	0.182
-376.873	-66.443	-0.234	-0.116
-375.858	-200.000	0.032	0.947
-374.844	-200.000	-0.014	0.262
-373.829	-99.351	0.481	0.151
-372.815	-30.864	-0.252	0.179
-371.800	60.543	0.193	-0.240
-370.785	-26.891	-0.160	-0.117
-369.771	-21.414	-0.310	0.237
-368.756	-15.619	-0.357	0.285
-367.742	-200.000	0.026	0.156
-366.727	69.470	0.154	-0.200
-365.712	-122.405	0.323	0.066
-364.698	46.171	-0.204	-0.237
-363.683	90.598	-0.384	-0.541
-362.669	-131.736	-0.123	-0.020
-361.654	800.000	0.117	-0.449
-360.639	-84.444	0.220	-0.087
-359.625	38.803	0.264	0.297
-358.610	-83.544	0.354	0.142
-357.596	53.469	0.214	0.258
-356.581	-94.645	0.408	-0.139
-355.566	-198.738	0.112	-0.001
-354.552	139.025	-0.471	0.780
-353.537	-200.000	-0.020	0.133
-352.523	-91.827	-0.196	0.069
-351.508	-81.474	-0.195	-0.080
-350.493	136.518	-0.192	-0.315
-349.479	93.797	0.158	-0.226
-348.464	359.831	-0.261	-0.658
-347.450	-200.000	0.001	0.194
-346.435	79.734	-0.192	-0.259
-345.420	106.675	0.132	0.197
-344.406	-195.732	0.499	0.004
-343.391	-160.335	-0.359	0.024
-342.377	-107.414	-0.484	0.132
-341.362	-122.736	-0.179	-0.036
-340.348	-52.094	0.109	0.064
-339.333	-93.867	-0.208	-0.071
-338.318	-181.141	0.469	0.011
-337.304	104.164	-0.103	0.153
-336.289	55.685	0.337	-0.410
-335.275	-127.710	0.549	0.099
-334.260	113.262	-0.093	-0.142
-333.245	-177.701	-0.197	-0.006
-332.231	-91.801	-0.195	-0.069
-331.216	-117.874	-0.244	0.054
-330.202	184.390	-0.056	-0.105
-329.187	-46.570	-0.177	-0.108
-328.172	-131.180	-0.072	0.012
-327.158	-29.681	0.438	0.313
-326.143	-148.092	-0.369	-0.038
-325.129	-33.201	-0.388	-0.269
-324.114	-26.291	0.308	0.226
-323.099	-5.635	-0.404	-0.347
-322.085	-89.908	0.122	0.045
-321.070	-93.597	0.475	0.163
-320.056	-200.000	-0.010	0.142
-319.041	55.523	-0.181	-0.219
-318.026	-112.354	-0.414	-0.103
-317.012	-61.463	0.332	-0.175
-315.997	258.610	-0.104	-0.226
-314.983	132.609	0.330	-0.535
-313.968	292.676	0.335	-0.769
-312.953	73.015	0.138	-0.181
-311.939	800.000	-0.121	-0.641
-310.924	-126.054	0.284	-0.053
-309.910	-183.027	-0.126	0.003
-308.895	35.831	0.268	-0.295
-307.880	-72.199	0.205	-0.095
-306.866	-155.093	0.018	-0.001
-305.851	-165.603	0.247	-0.013
-304.837	-107.347	-0.226	-0.062
-303.822	27.423	-0.239	0.252
-302.807	-107.294	-0.197	-0.054
-301.793	65.700	0.246	-0.313
-300.778	344.568	0.094	0.233
-299.764	-200.000	0.009	0.220
-298.749	72.068	-0.240	0.313
-297.735	-88.510	0.093	0.035
-296.720	-33.647	0.194	0.134
-295.705	-120.044	0.455	0.097
-294.691	-119.649	-0.398	-0.085
-293.676	49.445	0.281	0.331
-292.662	290.477	-0.014	0.031
-291.647	117.585	-0.108	0.167
-290.632	82.376	0.280	0.380
-289.618	-109.639	-0.302	-0.079
-288.603	-3.978	-0.108	0.094
-287.589	-133.058	-0.491	-0.077
-286.574	-200.000	-0.011	0.250
-285.559	-200.000	0.020	0.170
-284.545	40.379	-0.311	0.350
-283.530	-200.000	-0.002	-0.291
-282.516	-15.291	-0.154	-0.123
-281.501	-117.828	-0.438	-0.098
-280.486	-200.000	0.000	-0.060
-279.472	-77.037	0.715	0.311
-278.457	-133.078	-0.061	0.010
-277.443	-19.334	-0.075	0.058
-276.428	190.027	-0.144	-0.271
-275.413	308.252	-0.017	-0.039
-274.399	-123.031	0.741	0.148
-273.384	370.549	0.134	-0.340
-272.370	-129.288	0.188	-0.032
-271.355	-111.612	0.451	-0.114
-270.340	-200.000	0.019	0.231
-269.326	49.566	-0.141	-0.166
-268.311	-12.497	-0.382	-0.312
-267.297	31.351	-0.185	-0.199
-266.282	142.283	-0.109	-0.182
-265.267	-152.644	0.224	0.020
-264.253	46.077	0.215	-0.249
-263.238	-85.037	0.165	-0.064
-262.224	-79.027	-0.265	0.112
-261.209	-135.347	-0.093	0.014
-260.195	190.753	-0.286	0.540
-259.180	-58.993	-0.476	-0.256
-258.165	-6.248	-0.275	-0.234
-257.151	-7.179	0.176	-0.149
-256.136	-200.000	0.037	-0.239
-255.122	-192.570	0.229	0.003
-254.107	305.589	0.162	-0.378
-253.092	51.221	0.294	-0.349
-252.078	132.716	-0.054	-0.088
-251.063	800.000	-0.095	0.383
-250.049	-200.000	0.020	0.139
-249.034	64.821	-0.242	0.306
-248.019	-109.935	-0.463	0.120
-247.005	-200.000	-0.003	-0.232
-245.990	13.851	0.075	-0.072
-244.976	-5.195	0.130	0.112
-243.961	607.974	0.085	0.266
-242.946	104.879	-0.250	0.369
-241.932	-200.000	-0.009	-0.392
-240.917	-42.908	-0.202	-0.128
-239.903	-116.779	0.168	-0.038
-238.888	-103.787	-0.383	0.111
-237.873	106.104	0.263	0.389
-236.859	43.151	0.154	-0.176
-235.844	-200.000	-0.020	-0.366
-234.830	-74.083	0.492	0.222
-233.815	-75.145	0.128	0.057
-232.800	172.204	-0.236	0.425
-231.786	0.997	0.428	-0.383
-230.771	77.342	0.189	-0.252
-229.757	-58.568	-0.297	0.160
-228.742	-173.794	-0.510	0.019
-227.727	-43.803	0.239	0.150
-226.713	-100.512	0.086	0.026
-225.698	-33.782	0.084	-0.057
-224.684	338.004	-0.249	0.609
-223.669	800.000	-0.160	0.702
-222.655	-45.936	-0.101	0.062
-221.640	-139.473	-0.352	0.047
-220.625	-112.035	-0.278	0.069
-219.611	-92.988	0.172	0.060
-218.596	-23.600	0.179	0.134
-217.582	-90.027	0.435	0.157
-216.567	-37.044	-0.056	-0.037
-215.552	-60.965	-0.122	0.064
-214.538	-0.031	0.011	0.010
-213.523	-32.393	0.056	-0.039
-212.509	-10.394	0.290	0.240
-211.494	-200.000	-0.001	0.183
-210.479	-193.043	-0.132	0.001
-209.465	153.102	0.196	0.336
-208.450	377.765	-0.247	0.633
-207.436	94.001	-0.224	0.317
-206.421	26.524	-0.104	-0.108
-205.406	181.396	-0.213	-0.392
-204.392	82.427	0.139	0.188
-203.377	5.910	-0.131	0.121
-202.363	-5.747	-0.200	-0.171
-201.348	-64.974	-0.140	-0.070
-200.333	800.000	-0.066	-0.256
-199.319	-29.738	-0.204	0.145
-198.304	-48.951	-0.423	0.252
-197.290	800.000	-0.080	0.424
-196.275	184.651	-0.060	-0.111
-195.260	-27.525	-0.250	-0.181
-194.246	-11.236	-0.318	0.261
-193.231	-100.288	0.203	0.062
-192.217	169.214	0.135	0.241
-191.202	-200.000	-0.020	0.158
-190.187	-65.943	0.205	-0.102
-189.173	-94.892	0.509	0.171
-188.158	196.912	0.205	-0.391
-187.144	488.289	0.135	-0.387
-186.129	-135.353	-0.151	0.022
-185.114	800.000	-0.018	-0.096
-184.100	-200.000	0.031	-0.241
-183.085	50.617	-0.335	-0.395
-182.071	-54.791	0.346	-0.194
-181.056	497.554	0.148	0.428
-180.042	-163.838	0.196	-0.011
-179.027	-18.329	-0.097	-0.076
-178.012	-111.566	-0.211	0.053
-176.998	-87.068	0.331	0.125
-175.983	2.356	0.210	-0.189
-174.969	-76.817	-0.406	-0.176
-173.954	-200.000	-0.045	-0.432
-172.939	-130.389	-0.617	-0.103
-171.925	800.000	-0.104	0.462
-170.910	132.274	-0.327	0.525
-169.896	800.000	-0.041	0.196
-168.881	800.000	-0.059	0.248
-167.866	-133.931	-0.118	-0.018
-166.852	-139.311	-0.102	0.014
-165.837	-75.741	0.335	0.148
-164.823	-90.646	0.190	-0.068
-163.808	-44.423	0.646	0.402
-162.793	-145.121	0.348	-0.039
-161.779	28.108	0.121	-0.128
-160.764	-168.614	0.390	0.018
-159.750	750.847	-0.108	0.366
-158.735	-200.000	0.011	0.062
-157.720	-20.025	-0.254	-0.195
-156.706	-116.189	0.228	-0.052
-155.691	-26.667	0.154	-0.112
-154.677	800.000	-0.097	-0.408
-153.662	54.021	0.218	0.261
-152.647	800.000	-0.062	-0.239
-151.633	-83.977	-0.419	-0.165
-150.618	406.313	0.069	-0.183
-149.604	31.286	-0.120	0.128
-148.589	-100.520	-0.361	-0.110
-147.574	-59.903	0.310	-0.165
-146.560	-7.711	-0.096	-0.080
-145.545	-200.000	-0.021	0.151
-144.531	-101.146	-0.252	0.076
-143.516	506.184	0.188	0.546
-142.502	195.841	0.166	0.315
-141.487	800.000	0.098	-0.513
-140.472	195.723	0.131	-0.248
-139.458	-51.697	-0.415	0.240
-138.443	-61.853	0.410	-0.213
-137.429	800.000	0.061	0.222
-136.414	-77.201	-0.159	-0.068
-135.399	132.032	0.140	-0.225
-134.385	-181.713	0.593	-0.014
-133.370	-200.000	-0.018	0.195
-132.356	26.305	0.229	-0.238
-131.341	-64.660	-0.245	0.123
-130.326	-22.927	0.094	-0.071
-129.312	-163.980	0.200	-0.011
-128.297	28.669	0.139	0.146
-127.283	800.000	-0.091	0.388
-126.268	58.110	-0.230	-0.280
-125.253	-139.868	-0.392	0.051
-124.239	402.183	-0.201	0.527
-123.224	-200.000	-0.081	0.554
-122.210	29.600	-0.198	-0.210
-121.195	232.996	0.076	0.157
