DTS Sentinel unit serial number:	SN409020Multiplexer serial number:	ORYXHardware model number:	OX4-SRSoftware version number:	ORYX F/W v3.00 Oryx Data Collector v3.7.2.0data status	okinstallation	HaddamTimeLapsedifferential loss correction	single-endedforward channel	channel 3reverse channel	N/Adate	2011/06/22time	09:21:17forward acquisition time	30.00reverse acquisition time	0.00gamma	498.7831k internal	0.1795k external	0.1795temperature offset calibration	1.0074default loss term (dB/km)	0.3790temperature slope calibration	1.3530multiplexer offset coefficient	1.0000multiplexer slope coefficient	1.0000fibre end	0.00T internal ref (°C)	27.84T ext. ref 1 (°C)	23.17T ext. ref 2 (°C)	0.18length (m)	temperature (°C)	Stokes	anti-Stokes-747.200	19.145	0.092	0.095
-746.185	377.859	0.195	0.520
-745.171	-44.689	-0.348	0.225
-744.156	320.848	-0.056	0.140
-743.142	800.000	-0.051	-0.257
-742.127	17.728	0.166	0.172
-741.112	691.975	-0.043	-0.148
-740.098	56.260	0.029	0.037
-739.083	38.217	0.149	0.172
-738.069	198.218	-0.197	0.392
-737.054	92.175	0.165	-0.242
-736.039	140.755	-0.156	0.268
-735.025	-26.843	-0.282	0.213
-734.010	-85.356	-0.233	0.094
-732.996	-135.550	-0.119	0.018
-731.981	-49.890	0.320	0.196
-730.966	800.000	-0.131	-0.501
-729.952	167.792	-0.124	-0.229
-728.937	142.036	0.151	-0.260
-727.923	-80.903	0.081	-0.035
-726.908	71.962	0.204	-0.276
-725.894	117.887	-0.113	-0.181
-724.879	-90.439	-0.238	0.089
-723.864	307.712	-0.209	-0.506
-722.850	-7.333	0.261	-0.229
-721.835	159.719	-0.263	0.476
-720.821	-139.248	-0.792	0.109
-719.806	-200.000	0.035	-0.220
-718.791	131.051	-0.053	-0.088
-717.777	-200.000	-0.037	-0.242
-716.762	-200.000	-0.058	-0.335
-715.748	129.595	-0.319	-0.529
-714.733	113.873	-0.114	-0.179
-713.718	-200.000	-0.003	0.075
-712.704	1.670	0.151	0.141
-711.689	-113.285	-0.121	-0.031
-710.675	67.734	-0.095	0.126
-709.660	-28.636	-0.495	0.368
-708.645	-200.000	0.075	0.540
-707.631	-160.548	0.165	-0.011
-706.616	316.974	0.134	-0.330
-705.602	800.000	0.050	0.220
-704.587	264.796	0.106	-0.239
-703.572	-110.576	0.121	-0.032
-702.558	74.256	-0.235	0.320
-701.543	-200.000	-0.054	0.591
-700.529	504.754	-0.039	0.119
-699.514	321.537	0.090	-0.222
-698.499	-99.239	-0.344	-0.112
-697.485	-97.480	-0.134	-0.045
-696.470	22.531	-0.136	0.144
-695.456	-100.506	-0.221	-0.070
-694.441	-104.378	-0.187	0.056
-693.426	-19.761	-0.204	0.163
-692.412	-73.490	-0.381	0.179
-691.397	-82.102	-0.309	0.130
-690.383	-118.013	-0.223	-0.051
-689.368	800.000	0.062	0.351
-688.354	800.000	0.085	0.462
-687.339	-117.985	0.112	0.026
-686.324	-129.162	-0.199	0.036
-685.310	-118.763	-0.137	-0.031
-684.295	800.000	-0.044	0.189
-683.281	-47.536	-0.033	-0.021
-682.266	-132.197	0.251	0.042
-681.251	188.649	-0.163	-0.316
-680.237	-123.499	0.386	-0.079
-679.222	-14.747	0.172	-0.143
-678.208	376.162	-0.088	-0.234
-677.193	332.468	-0.010	0.026
-676.178	46.109	0.436	-0.522
-675.164	-200.000	0.041	-0.301
-674.149	-30.870	0.064	-0.047
-673.135	-137.155	-0.844	0.123
-672.120	481.793	-0.133	0.392
-671.105	800.000	-0.056	-0.246
-670.091	-100.352	-0.326	0.104
-669.076	-98.693	0.095	-0.031
-668.062	-126.353	-0.340	0.065
-667.047	18.797	0.164	0.170
-666.032	183.214	-0.157	-0.301
-665.018	-54.285	-0.405	-0.237
-664.003	800.000	-0.095	0.380
-662.989	-200.000	0.022	-0.145
-661.974	-200.000	-0.368	0.001
-660.959	-68.543	0.308	-0.154
-659.945	23.395	0.133	-0.141
-658.930	-80.556	-0.279	0.119
-657.916	-39.578	0.360	0.243
-656.901	509.308	0.087	-0.263
-655.886	60.342	0.079	0.101
-654.872	-47.059	-0.295	0.185
-653.857	53.939	-0.264	0.329
-652.843	29.736	0.289	-0.318
-651.828	-54.070	-0.098	-0.058
-650.814	-111.921	-0.536	0.139
-649.799	-200.000	-0.002	-0.089
-648.784	-110.350	0.247	0.066
-647.770	-140.475	-0.417	-0.055
-646.755	-39.990	0.508	-0.341
-645.741	169.400	-0.183	-0.338
-644.726	-29.357	-0.150	0.111
-643.711	-117.539	-0.329	-0.076
-642.697	-180.780	-0.138	0.004
-641.682	-28.779	-0.370	0.274
-640.668	-46.740	0.129	0.081
-639.653	-117.134	-0.229	0.053
-638.638	-61.817	0.229	-0.124
-637.624	389.878	0.170	-0.456
-636.609	800.000	0.158	0.573
-635.595	-180.427	-0.391	-0.010
-634.580	-14.250	0.397	0.330
-633.565	197.186	-0.288	0.568
-632.551	361.157	0.113	-0.293
-631.536	483.582	-0.094	-0.276
-630.522	-156.142	-0.498	0.040
-629.507	284.893	0.129	0.300
-628.492	-76.818	0.115	-0.052
-627.478	438.941	0.066	-0.186
-626.463	-66.320	-0.451	-0.231
-625.449	-73.268	0.177	0.083
-624.434	526.246	0.077	0.236
-623.419	-2.419	-0.438	-0.396
-622.405	-126.169	-0.434	-0.083
-621.390	-200.000	-0.048	-0.341
-620.376	284.502	-0.075	-0.174
-619.361	800.000	0.077	-0.353
-618.346	-13.897	-0.331	-0.275
-617.332	-98.623	-0.470	-0.154
-616.317	-92.333	-0.362	-0.131
-615.303	-29.255	0.237	0.175
-614.288	0.270	0.372	0.342
-613.273	137.378	-0.312	0.527
-612.259	800.000	0.059	0.305
-611.244	218.543	0.098	-0.203
-610.230	-200.000	0.028	-0.298
-609.215	-12.438	0.055	-0.046
-608.201	-59.867	0.553	-0.304
-607.186	23.605	0.286	-0.304
-606.171	41.083	0.164	-0.191
-605.157	555.139	-0.136	-0.423
-604.142	-65.756	0.249	0.128
-603.128	148.494	-0.182	0.318
-602.113	-76.207	-0.203	-0.092
-601.098	-107.940	-0.369	0.103
-600.084	215.867	-0.140	-0.288
-599.069	800.000	-0.034	-0.169
-598.055	-122.727	0.307	0.064
-597.040	-49.377	-0.249	-0.152
-596.025	-4.717	-0.311	0.276
-595.011	122.732	-0.169	0.272
-593.996	-131.655	-0.301	0.051
-592.982	-72.919	0.387	0.182
-591.967	330.498	0.118	0.294
-590.952	-87.986	0.379	0.146
-589.938	-79.967	-0.366	0.158
-588.923	-182.992	-0.326	0.007
-587.909	-200.000	0.058	-0.370
-586.894	-49.534	-0.193	-0.118
-585.879	-200.000	-0.002	-0.064
-584.865	39.121	0.248	0.285
-583.850	-177.126	-0.431	0.014
-582.836	-113.159	0.217	-0.055
-581.821	0.330	0.478	-0.439
-580.806	-63.386	-0.252	-0.133
-579.792	612.612	-0.109	0.354
-578.777	-82.241	0.595	0.248
-577.763	91.537	-0.089	-0.128
-576.748	-149.339	0.259	0.026
-575.733	35.326	0.039	-0.045
-574.719	-200.000	-0.060	-0.734
-573.704	-159.363	0.367	-0.026
-572.690	-55.594	0.215	-0.123
-571.675	92.585	-0.048	-0.070
-570.661	113.470	0.225	0.352
-569.646	-29.327	-0.096	-0.071
-568.631	-69.770	0.098	0.048
-567.617	800.000	-0.108	0.492
-566.602	-200.000	-0.021	0.211
-565.588	-1.492	0.345	-0.313
-564.573	-200.000	-0.040	-0.373
-563.558	35.324	0.268	-0.303
-562.544	39.872	-0.131	-0.151
-561.529	-124.681	-0.210	-0.042
-560.515	83.702	0.355	-0.498
-559.500	-180.220	-0.660	-0.018
-558.485	-2.376	-0.167	-0.151
-557.471	-133.329	-0.240	-0.039
-556.456	-32.863	-0.077	0.055
-555.442	54.851	-0.279	-0.346
-554.427	-49.351	-0.123	-0.075
-553.412	-152.525	0.204	0.019
-552.398	-180.910	-0.164	-0.004
-551.383	-124.152	-0.188	0.038
-550.369	-200.000	0.007	0.236
-549.354	18.445	0.149	-0.153
-548.339	-48.582	-0.103	-0.064
-547.325	98.852	-0.306	0.456
-546.310	-92.715	-0.180	-0.065
-545.296	94.030	-0.162	-0.236
-544.281	800.000	-0.099	-0.405
-543.266	-32.870	-0.126	-0.090
-542.252	8.812	-0.357	-0.346
-541.237	-169.108	-0.188	0.009
-540.223	130.993	-0.260	-0.430
-539.208	-141.907	-0.086	0.011
-538.193	173.725	0.236	0.440
-537.179	-200.000	-0.084	-0.484
-536.164	800.000	0.011	-0.051
-535.150	-32.912	0.317	-0.226
-534.135	-47.897	0.271	-0.168
-533.121	-38.563	0.161	-0.109
-532.106	800.000	-0.088	0.325
-531.091	-60.353	-0.136	0.074
-530.077	21.966	-0.062	0.065
-529.062	-167.706	-0.045	0.002
-528.048	40.647	0.194	-0.225
-527.033	-42.481	0.207	0.135
-526.018	58.736	-0.204	0.257
-525.004	179.462	-0.103	0.194
-523.989	-103.259	-0.412	-0.124
-522.975	-51.119	0.235	-0.141
-521.960	800.000	-0.057	0.263
-520.945	-7.577	-0.087	0.076
-519.931	-80.752	0.505	0.215
-518.916	63.666	-0.115	0.148
-517.902	58.309	-0.280	0.354
-516.887	84.557	0.171	0.241
-515.872	-10.759	0.405	-0.344
-514.858	800.000	-0.051	-0.249
-513.843	294.912	-0.190	0.448
-512.829	-151.488	-0.394	-0.037
-511.814	-182.670	-0.702	0.016
-510.799	-113.242	-0.130	-0.033
-509.785	-92.047	0.417	-0.151
-508.770	30.623	0.125	-0.137
-507.756	-91.924	0.718	-0.260
-506.741	77.892	-0.320	-0.439
-505.726	-59.781	-0.653	-0.358
-504.712	-67.287	-0.174	0.088
-503.697	600.674	-0.073	0.235
-502.683	-36.649	-0.452	-0.311
-501.668	-200.000	-0.014	-0.183
-500.653	-146.535	-0.359	0.040
-499.639	-28.852	-0.245	0.180
-498.624	-125.151	0.408	0.079
-497.610	90.900	-0.157	-0.227
-496.595	-152.954	0.336	-0.030
-495.581	105.801	-0.220	0.335
-494.566	154.991	-0.187	0.331
-493.551	-200.000	-0.055	0.387
-492.537	365.592	0.036	-0.094
-491.522	289.001	-0.294	0.687
-490.508	-48.184	-0.281	0.174
-489.493	50.335	0.164	0.200
-488.478	-82.524	0.281	-0.117
-487.464	-70.952	0.260	0.125
-486.449	-167.664	-0.232	0.012
-485.435	-177.592	-0.373	-0.011
-484.420	36.136	0.337	0.380
-483.405	-121.539	-0.174	0.037
-482.391	-139.774	0.382	-0.051
-481.376	-200.000	-0.027	0.357
-480.362	-41.436	0.403	-0.265
-479.347	31.632	-0.121	-0.133
-478.332	-74.291	-0.658	0.303
-477.318	0.875	-0.323	-0.296
-476.303	80.404	0.220	0.305
-475.289	30.204	-0.352	0.386
-474.274	800.000	-0.045	0.220
-473.259	33.463	0.087	0.097
-472.245	-122.170	0.316	-0.066
-471.230	-200.000	-0.080	0.664
-470.216	-200.000	-0.002	-0.292
-469.201	-45.687	-0.143	-0.090
-468.186	800.000	0.072	0.381
-467.172	67.806	-0.210	-0.275
-466.157	263.043	-0.187	-0.418
-465.143	303.051	0.151	-0.359
-464.128	-200.000	0.027	-0.390
-463.113	53.526	-0.214	0.264
-462.099	329.603	0.122	-0.303
-461.084	-123.640	0.317	-0.064
-460.070	160.887	0.172	-0.308
-459.055	38.061	0.339	0.386
-458.040	-200.000	-0.066	-0.492
-457.026	800.000	0.040	-0.166
-456.011	29.174	0.086	-0.094
-454.997	-29.757	-0.207	0.151
-453.982	-200.000	0.019	0.277
-452.968	-200.000	-0.019	-0.428
-451.953	698.209	-0.041	-0.138
-450.938	-110.917	0.195	-0.051
-449.924	800.000	-0.022	0.124
-448.909	-75.696	0.195	-0.088
-447.895	-81.526	0.184	0.077
-446.880	-111.327	-0.309	-0.080
-445.865	-48.284	0.343	0.212
-444.851	475.397	0.130	0.377
-443.836	-111.215	-0.222	-0.058
-442.822	-82.430	-0.100	-0.042
-441.807	39.362	0.139	-0.159
-440.792	174.206	-0.150	-0.278
-439.778	-73.539	-0.282	-0.131
-438.763	-200.000	-0.016	-0.276
-437.749	-69.422	-0.286	0.140
-436.734	-200.000	-0.044	-0.320
-435.719	362.183	-0.090	-0.231
-434.705	296.805	-0.110	-0.260
-433.690	-70.190	0.497	-0.241
-432.676	364.862	-0.188	-0.486
-431.661	137.930	-0.192	-0.323
-430.646	-111.459	0.233	0.060
-429.632	-92.393	0.061	-0.022
-428.617	800.000	-0.050	0.208
-427.603	215.380	0.085	-0.174
-426.588	-200.000	-0.018	-0.174
-425.573	-63.074	-0.192	-0.101
-424.559	70.167	0.248	0.329
-423.544	4.833	0.301	-0.283
-422.530	0.388	0.179	-0.163
-421.515	-25.546	-0.215	0.163
-420.500	-181.752	0.195	0.005
-419.486	-38.601	-0.287	0.194
-418.471	-101.118	0.202	0.063
-417.457	256.698	0.129	0.284
-416.442	311.981	0.077	-0.186
-415.428	-200.000	-0.011	-0.189
-414.413	-200.000	0.089	-0.543
-413.398	170.011	0.293	0.538
-412.384	-200.000	-0.008	-0.067
-411.369	86.672	-0.270	-0.382
-410.355	-95.727	-0.308	0.105
-409.340	-57.583	-0.213	-0.119
-408.325	-87.569	-0.313	-0.120
-407.311	88.617	-0.175	0.249
-406.296	-83.449	0.172	-0.070
-405.282	-200.000	-0.042	0.344
-404.267	-41.101	0.313	0.206
-403.252	318.817	-0.176	0.427
-402.238	-64.014	-0.435	-0.226
-401.223	-66.999	-0.429	0.216
-400.209	21.229	-0.215	0.223
-399.194	167.214	-0.123	0.224
-398.179	-1.136	0.217	0.196
-397.165	-17.325	0.251	0.202
-396.150	44.262	-0.338	-0.397
-395.136	-138.123	0.275	-0.039
-394.121	-200.000	-0.036	-0.389
-393.106	328.137	0.082	-0.201
-392.092	-180.399	0.160	-0.004
-391.077	-200.000	-0.023	-0.366
-390.063	-136.956	0.255	0.037
-389.048	-200.000	0.040	-0.294
-388.033	190.328	0.109	-0.211
-387.019	-5.719	0.241	-0.211
-386.004	-105.199	0.081	-0.023
-384.990	-129.531	0.271	0.048
-383.975	-175.267	-0.045	-0.002
-382.960	-138.230	0.149	0.021
-381.946	-179.456	-0.225	0.006
-380.931	414.460	-0.123	0.338
-379.917	-104.806	-0.507	0.148
-378.902	-129.635	-0.500	0.087
-377.888	103.391	-0.138	0.207
-376.873	95.777	0.100	0.146
-375.858	-142.104	0.310	-0.039
-374.844	-49.743	-0.105	-0.064
-373.829	-200.000	0.068	0.636
-372.815	227.012	-0.074	0.155
-371.800	-47.868	-0.260	-0.160
-370.785	-29.069	0.072	-0.053
-369.771	-57.424	0.158	-0.088
-368.756	-26.414	-0.268	0.201
-367.742	-74.195	-0.200	-0.092
-366.727	70.005	0.302	0.398
-365.712	238.385	-0.126	0.268
-364.698	-43.880	-0.109	0.070
-363.683	800.000	0.019	-0.075
-362.669	-59.327	0.525	-0.287
-361.654	-141.018	0.589	0.076
-360.639	63.903	-0.231	-0.297
-359.625	3.487	-0.101	0.094
-358.610	44.078	0.140	0.164
-357.596	711.582	-0.058	0.199
-356.581	189.542	-0.195	-0.375
-355.566	-184.157	0.338	0.007
-354.552	800.000	0.066	-0.262
-353.537	-98.534	0.043	-0.014
-352.523	147.963	0.109	0.189
-351.508	-25.522	-0.189	-0.142
-350.493	235.517	0.138	0.292
-349.479	196.416	-0.209	-0.408
-348.464	73.813	0.121	0.163
-347.450	-183.493	0.141	0.003
-346.435	27.608	0.114	-0.122
-345.420	-125.727	-0.491	0.094
-344.406	-131.469	0.589	-0.098
-343.391	110.309	-0.136	-0.210
-342.377	221.389	-0.332	0.683
-341.362	-7.549	-0.401	0.346
-340.348	325.297	-0.211	0.518
-339.333	-105.164	0.613	0.177
-338.318	800.000	0.139	0.511
-337.304	-54.488	0.437	-0.252
-336.289	89.090	0.145	-0.206
-335.275	351.322	-0.155	0.394
-334.260	90.846	-0.337	-0.482
-333.245	800.000	0.016	-0.060
-332.231	8.776	-0.522	0.501
-331.216	-194.633	0.513	0.005
-330.202	-51.624	-0.412	-0.244
-329.187	48.267	-0.147	0.175
-328.172	187.535	0.035	-0.066
-327.158	-200.000	-0.005	0.421
-326.143	287.241	0.117	-0.270
-325.129	-84.135	-0.136	0.055
-324.114	199.874	0.111	0.218
-323.099	17.527	0.179	0.181
-322.085	566.040	-0.038	0.120
-321.070	800.000	0.043	-0.184
-320.056	46.354	-0.113	0.133
-319.041	298.152	0.125	0.295
-318.026	-84.275	-0.333	0.134
-317.012	24.080	0.337	-0.354
-315.997	-153.768	0.350	-0.030
-314.983	136.182	0.270	0.450
-313.968	-200.000	0.027	0.230
-312.953	-147.931	-0.191	-0.020
-311.939	800.000	0.091	-0.464
-310.924	-83.173	0.086	-0.035
-309.910	-96.142	-0.364	-0.123
-308.895	-60.162	0.218	0.118
-307.880	-200.000	0.006	0.293
-306.866	-200.000	-0.038	-0.250
-305.851	-127.063	-0.255	-0.047
-304.837	-200.000	0.606	0.004
-303.822	790.771	-0.070	0.246
-302.807	800.000	-0.100	0.428
-301.793	-150.544	-0.346	-0.033
-300.778	-158.113	-0.204	-0.015
-299.764	269.404	0.093	-0.209
-298.749	265.899	0.125	0.279
-297.735	-14.788	0.178	-0.145
-296.720	-112.634	0.346	-0.087
-295.705	177.754	0.108	-0.201
-294.691	82.492	0.227	0.314
-293.676	7.251	0.102	-0.097
-292.662	-179.330	-0.063	0.002
-291.647	-144.784	0.768	0.089
-290.632	-144.433	0.080	0.009
-289.618	189.386	0.033	-0.063
-288.603	-20.540	-0.268	-0.209
-287.589	-37.406	0.472	0.320
-286.574	-28.600	0.311	0.228
-285.559	30.651	0.298	-0.325
-284.545	-57.591	0.235	0.131
-283.530	800.000	0.033	-0.185
-282.516	-130.913	-0.130	0.022
-281.501	-98.603	0.234	0.076
-280.486	206.390	-0.214	0.425
-279.472	530.057	-0.091	0.275
-278.457	-75.921	0.324	-0.145
-277.443	5.443	0.013	-0.013
-276.428	-72.263	0.210	-0.099
-275.413	800.000	0.028	-0.156
-274.399	-67.708	-0.031	0.015
-273.384	-33.441	0.232	-0.163
-272.370	-45.255	-0.308	0.194
-271.355	-135.305	0.313	-0.047
-270.340	573.927	-0.099	-0.310
-269.326	800.000	0.071	0.288
-268.311	-7.935	-0.283	0.243
-267.297	129.416	-0.251	-0.410
-266.282	1.954	-0.281	-0.258
-265.267	800.000	0.053	0.220
-264.253	-200.000	-0.009	-0.077
-263.238	65.411	0.181	0.233
-262.224	77.589	0.025	0.033
-261.209	-200.000	-0.028	-0.160
-260.195	-96.571	0.145	0.048
-259.180	151.194	-0.137	0.238
-258.165	800.000	0.044	0.230
-257.151	0.300	0.150	0.136
-256.136	-105.098	-0.296	0.086
-255.122	-88.299	-0.413	0.156
-254.107	201.685	0.045	-0.088
-253.092	-200.000	-0.005	-0.095
-252.078	319.342	-0.206	-0.499
-251.063	-26.858	-0.173	-0.128
-250.049	-37.976	0.498	-0.336
-249.034	-145.994	-0.085	-0.009
-248.019	450.936	-0.082	0.232
-247.005	32.945	-0.272	0.299
-245.990	375.780	0.243	0.632
-244.976	-124.059	0.194	0.038
-243.961	-183.974	-0.170	0.004
-242.946	-112.558	0.426	-0.107
-241.932	680.176	0.032	-0.105
-240.917	-200.000	0.021	0.123
-239.903	-74.453	0.263	-0.120
-238.888	-200.000	0.083	-0.570
-237.873	159.428	-0.383	-0.679
-236.859	463.885	-0.079	0.227
-235.844	-200.000	0.053	0.310
-234.830	-200.000	-0.063	-0.372
-233.815	359.769	-0.091	-0.233
-232.800	-110.876	0.558	-0.145
-231.786	143.126	0.192	0.325
-230.771	-162.257	0.156	-0.010
-229.757	6.201	-0.105	-0.099
-228.742	-92.730	-0.174	0.061
-227.727	12.817	0.208	0.204
-226.713	-129.880	0.733	0.127
-225.698	81.170	-0.166	0.228
-224.684	800.000	0.071	0.377
-223.669	-63.184	0.452	-0.236
-222.655	-110.305	-0.332	0.087
-221.640	-200.000	-0.003	-0.065
-220.625	544.584	-0.144	-0.440
-219.611	-19.898	-0.187	0.146
-218.596	121.615	-0.111	-0.177
-217.582	267.611	-0.137	-0.306
-216.567	-59.769	-0.445	-0.241
-215.552	-46.399	0.110	-0.068
-214.538	312.287	-0.062	-0.147
-213.523	722.053	-0.082	-0.280
-212.509	370.371	0.144	-0.373
-211.494	95.809	0.045	-0.065
-210.479	113.836	-0.192	0.298
-209.465	-70.350	0.468	-0.224
-208.450	-106.706	-0.378	0.106
-207.436	1.918	0.339	-0.310
-206.421	-119.666	0.358	-0.078
-205.406	-200.000	-0.039	0.332
-204.392	9.951	0.253	0.244
-203.377	-8.998	-0.236	0.201
-202.363	-200.000	0.035	0.261
-201.348	431.224	-0.195	0.540
-200.333	-85.516	-0.242	0.095
-199.319	-73.825	0.340	0.156
-198.304	-200.000	-0.008	0.265
-197.290	-182.054	0.221	0.005
-196.275	220.684	0.318	0.649
-195.260	29.827	0.406	0.439
-194.246	-147.421	0.181	-0.019
-193.231	800.000	0.106	0.385
-192.217	172.398	-0.151	-0.277
-191.202	101.159	0.292	-0.432
-190.187	-125.463	-0.339	-0.065
-189.173	346.743	-0.254	0.637
-188.158	-74.654	-0.227	0.103
-187.144	-81.710	0.296	0.123
-186.129	800.000	0.096	0.538
-185.114	195.862	0.188	0.363
-184.100	247.969	-0.068	-0.147
-183.085	-200.000	-0.052	-0.614
-182.071	-153.325	-0.374	-0.033
-181.056	429.886	-0.060	-0.166
-180.042	-200.000	0.028	0.358
-179.027	-200.000	0.002	-0.212
-178.012	-24.902	0.346	0.260
-176.998	-160.508	0.516	-0.034
-175.983	22.175	-0.055	-0.057
-174.969	-137.071	0.300	0.043
-173.954	-42.883	0.200	-0.129
-172.939	-200.000	0.060	-0.384
-171.925	-167.271	-0.125	-0.006
-170.910	-133.579	0.069	-0.011
-169.896	-102.627	-0.097	-0.029
-168.881	-30.861	-0.324	-0.232
-167.866	169.098	0.043	-0.077
-166.852	285.527	-0.088	0.203
-165.837	465.468	0.110	0.315
-164.823	41.808	0.304	-0.349
-163.808	-105.443	0.445	0.127
-162.793	800.000	0.090	0.496
-161.779	-85.631	0.150	-0.059
-160.764	-43.133	-0.280	-0.179
-159.750	-186.048	-0.509	-0.009
-158.735	800.000	0.055	-0.230
-157.720	64.951	-0.029	0.037
-156.706	800.000	0.067	0.247
-155.691	227.702	0.089	-0.184
-154.677	63.220	-0.077	0.097
-153.662	140.751	-0.142	0.239
-152.647	54.945	0.230	-0.282
-151.633	-200.000	0.031	-0.362
-150.618	99.985	-0.110	0.161
-149.604	180.967	0.175	-0.326
-148.589	19.663	0.124	0.126
-147.574	-80.756	0.482	0.202
-146.560	788.067	-0.039	-0.137
-145.545	149.325	-0.329	-0.566
-144.531	-169.262	0.142	0.007
-143.516	8.243	0.330	-0.314
-142.502	97.549	0.134	-0.196
-141.487	124.824	-0.220	0.351
-140.472	286.277	-0.143	0.329
-139.458	451.310	-0.075	-0.211
-138.443	13.373	-0.193	-0.189
-137.429	-9.833	0.379	0.319
-136.414	800.000	0.050	0.182
-135.399	-104.170	-0.133	-0.039
-134.385	-21.956	0.136	0.105
-133.370	800.000	0.077	0.416
-132.356	308.593	-0.190	-0.450
-131.341	-50.333	-0.361	-0.215
-130.326	-137.301	0.624	0.089
-129.312	36.441	0.192	-0.215
-128.297	-119.910	0.143	0.031
-127.283	-51.982	-0.071	0.042
-126.268	-105.451	0.219	-0.062
-125.253	-83.716	-0.320	-0.129
-124.239	-200.000	-0.035	-0.470
-123.224	-200.000	0.062	-0.533
-122.210	800.000	0.041	0.184
