DTS Sentinel unit serial number:	SN409020Multiplexer serial number:	ORYXHardware model number:	OX4-SRSoftware version number:	ORYX F/W v3.00 Oryx Data Collector v3.7.2.0data status	okinstallation	HaddamTimeLapsedifferential loss correction	single-endedforward channel	channel 3reverse channel	N/Adate	2011/06/22time	05:36:17forward acquisition time	30.00reverse acquisition time	0.00gamma	498.7831k internal	0.1751k external	0.1751temperature offset calibration	1.0074default loss term (dB/km)	0.3790temperature slope calibration	1.3530multiplexer offset coefficient	1.0000multiplexer slope coefficient	1.0000fibre end	0.00T internal ref (°C)	22.56T ext. ref 1 (°C)	17.86T ext. ref 2 (°C)	0.16length (m)	temperature (°C)	Stokes	anti-Stokes-747.200	-55.607	-0.061	0.036
-746.185	308.700	0.060	0.149
-745.171	-154.634	0.576	-0.050
-744.156	-37.954	-0.684	0.482
-743.142	-125.849	-0.408	-0.081
-742.127	-200.000	-0.082	0.000
-741.112	-100.703	-0.061	0.020
-740.098	230.819	0.126	0.275
-739.083	593.917	-0.141	0.464
-738.069	2.927	-0.231	0.223
-737.054	354.284	0.136	0.362
-736.039	-117.810	-0.087	-0.021
-735.025	800.000	0.041	-0.223
-734.010	-8.898	-0.203	-0.181
-732.996	-98.172	-0.318	-0.108
-731.981	-114.173	0.383	-0.098
-730.966	800.000	0.016	0.081
-729.952	-139.222	0.268	0.038
-728.937	-57.845	-0.180	0.104
-727.923	-4.757	-0.136	-0.124
-726.908	319.840	-0.045	0.113
-725.894	-120.084	-0.416	-0.094
-724.879	-68.717	-0.154	0.079
-723.864	43.316	-0.249	0.302
-722.850	-140.262	-0.441	-0.061
-721.835	47.816	-0.133	0.164
-720.821	42.439	-0.121	0.146
-719.806	12.616	0.272	0.278
-718.791	-112.381	0.334	-0.088
-717.777	-5.366	0.158	0.144
-716.762	-99.271	-0.418	-0.139
-715.748	587.369	0.086	-0.282
-714.733	-32.982	0.312	0.229
-713.718	800.000	-0.113	0.572
-712.704	-146.967	0.347	-0.039
-711.689	145.914	0.203	-0.362
-710.675	-79.522	0.096	0.043
-709.660	-161.739	0.255	-0.017
-708.645	252.511	-0.158	-0.360
-707.631	76.904	-0.106	-0.149
-706.616	38.159	0.183	-0.216
-705.602	-200.000	0.010	0.245
-704.587	800.000	0.055	-0.259
-703.572	-200.000	-0.043	-0.253
-702.558	-184.630	0.157	0.003
-701.543	112.211	-0.222	0.357
-700.529	-159.732	-0.473	0.034
-699.514	-116.176	0.388	0.095
-698.499	-200.000	0.000	0.027
-697.485	-200.000	-0.037	-0.319
-696.470	-16.943	-0.268	0.224
-695.456	-168.919	-0.964	-0.047
-694.441	800.000	0.147	-0.628
-693.426	7.432	0.113	0.112
-692.412	-19.971	-0.291	-0.238
-691.397	-29.060	-0.279	0.212
-690.383	-135.899	0.280	0.043
-689.368	-200.000	0.011	0.143
-688.354	490.661	-0.036	0.110
-687.339	-68.177	0.138	-0.071
-686.324	-153.048	0.165	-0.015
-685.310	423.283	0.125	-0.357
-684.295	-55.160	0.209	-0.124
-683.281	-200.000	-0.074	0.000
-682.266	-200.000	-0.019	-0.291
-681.251	112.113	-0.356	0.571
-680.237	-54.826	-0.220	-0.131
-679.222	422.739	0.188	-0.538
-678.208	-200.000	-0.001	0.123
-677.193	123.448	-0.201	-0.334
-676.178	-200.000	-0.024	-0.561
-675.164	-129.072	0.112	-0.021
-674.149	-0.301	-0.309	-0.291
-673.135	-24.888	0.304	-0.239
-672.120	8.467	0.091	-0.090
-671.105	-200.000	0.006	-0.061
-670.091	-88.250	-0.322	0.127
-669.076	-16.883	-0.353	-0.295
-668.062	15.445	0.417	-0.434
-667.047	259.707	0.022	0.051
-666.032	34.053	0.181	0.208
-665.018	-85.212	-0.168	-0.069
-664.003	-83.866	-0.167	0.070
-662.989	-65.171	0.262	0.139
-661.974	139.781	-0.158	-0.277
-660.959	-63.084	0.316	-0.172
-659.945	144.443	0.088	0.157
-658.930	-40.425	-0.101	0.069
-657.916	48.492	0.451	-0.559
-656.901	360.896	0.266	-0.707
-655.886	-87.282	-0.598	-0.239
-654.872	-74.735	-0.237	-0.112
-653.857	-78.358	0.059	-0.027
-652.843	-156.944	-0.146	0.012
-651.828	532.094	0.048	-0.152
-650.814	-16.488	-0.306	-0.256
-649.799	182.901	-0.151	0.297
-648.784	-200.000	0.011	0.204
-647.770	-139.025	-0.267	-0.038
-646.755	-162.477	0.197	-0.013
-645.741	800.000	-0.067	0.251
-644.726	-200.000	-0.011	0.257
-643.711	-28.120	0.284	0.217
-642.697	78.778	0.217	-0.308
-641.682	23.382	-0.155	-0.168
-640.668	-98.333	-0.135	-0.046
-639.653	177.638	0.088	-0.170
-638.638	263.627	0.054	0.124
-637.624	-200.000	-0.019	0.114
-636.609	383.615	0.186	0.508
-635.595	323.923	0.199	0.504
-634.580	-11.167	-0.195	0.170
-633.565	-200.000	-0.053	-0.542
-632.551	-200.000	-0.012	0.154
-631.536	431.487	0.091	0.262
-630.522	-13.498	-0.053	-0.045
-629.507	651.804	0.050	-0.170
-628.492	-38.029	-0.115	0.080
-627.478	-150.537	0.420	0.042
-626.463	13.482	0.245	-0.252
-625.449	-151.676	0.375	-0.036
-624.434	89.392	0.202	-0.298
-623.419	772.929	-0.044	-0.159
-622.405	-200.000	0.038	-0.332
-621.390	-60.481	0.290	-0.163
-620.376	31.989	-0.170	0.194
-619.361	58.615	0.115	-0.149
-618.346	-66.537	-0.138	0.072
-617.332	800.000	-0.032	0.168
-616.317	-124.136	-0.118	0.024
-615.303	-65.336	-0.288	0.153
-614.288	-53.243	0.070	-0.042
-613.273	15.017	0.472	0.488
-612.259	9.388	0.181	0.181
-611.244	-63.690	-0.388	0.209
-610.230	215.017	-0.069	-0.146
-609.215	128.983	-0.158	0.267
-608.201	-91.368	-0.228	0.086
-607.186	-15.833	0.372	0.312
-606.171	-50.372	-0.073	0.046
-605.157	351.947	0.020	0.052
-604.142	-149.066	0.348	0.037
-603.128	558.922	-0.191	-0.612
-602.113	-62.187	0.285	-0.157
-601.098	543.304	-0.074	0.234
-600.084	-200.000	-0.044	-0.481
-599.069	232.424	0.122	-0.265
-598.055	-137.479	0.156	0.023
-597.040	-200.000	0.028	-0.170
-596.025	-59.915	0.203	-0.114
-595.011	256.191	-0.105	-0.239
-593.996	-0.338	-0.268	-0.251
-592.982	-200.000	-0.004	-0.083
-591.967	327.542	0.122	0.310
-590.952	29.009	-0.187	0.210
-589.938	186.237	-0.103	0.202
-588.923	13.510	0.210	0.215
-587.909	-92.430	0.673	0.248
-586.894	-34.911	0.297	-0.214
-585.879	572.509	-0.094	-0.303
-584.865	-43.738	-0.107	0.071
-583.850	10.176	-0.242	-0.242
-582.836	800.000	0.067	0.310
-581.821	-145.043	-0.462	0.055
-580.806	3.298	-0.123	0.118
-579.792	118.711	0.296	0.484
-578.777	-200.000	-0.001	0.112
-577.763	-60.702	-0.397	0.221
-576.748	40.004	-0.303	-0.359
-575.733	16.387	0.089	0.092
-574.719	3.337	-0.383	-0.368
-573.704	333.499	0.223	-0.572
-572.690	29.794	-0.269	-0.302
-571.675	-200.000	-0.013	-0.127
-570.661	65.045	-0.124	-0.165
-569.646	98.461	0.061	0.093
-568.631	7.927	-0.256	-0.253
-567.617	260.414	-0.191	-0.437
-566.602	-110.949	0.389	0.105
-565.588	15.406	-0.330	0.341
-564.573	-92.688	-0.523	-0.192
-563.558	-40.493	0.397	0.271
-562.544	-66.105	-0.351	0.184
-561.529	-64.166	0.405	-0.217
-560.515	23.205	-0.149	-0.162
-559.500	-131.990	-0.361	0.061
-558.485	692.081	0.160	0.555
-557.471	100.444	-0.113	-0.173
-556.456	800.000	0.045	0.250
-555.442	-200.000	-0.011	0.339
-554.427	-200.000	-0.015	-0.500
-553.412	-200.000	0.013	0.186
-552.398	8.153	-0.445	-0.441
-551.383	-106.859	-0.647	-0.188
-550.369	-93.296	-0.250	0.091
-549.354	406.421	-0.277	0.774
-548.339	8.420	0.166	0.164
-547.325	-121.758	0.235	-0.051
-546.310	-200.000	-0.039	-0.276
-545.296	-200.000	0.021	0.198
-544.281	117.929	-0.104	-0.168
-543.266	-200.000	0.012	0.327
-542.252	-54.848	0.196	0.116
-541.237	800.000	0.122	0.480
-540.223	-112.342	0.404	0.106
-539.208	1.125	0.171	-0.161
-538.193	246.493	0.150	-0.335
-537.179	-200.000	-0.027	0.324
-536.164	-153.259	0.366	-0.033
-535.150	5.465	0.188	-0.183
-534.135	800.000	0.101	-0.511
-533.121	-200.000	0.020	0.500
-532.106	81.424	0.104	-0.149
-531.091	101.835	-0.228	0.352
-530.077	-21.123	-0.198	0.159
-529.062	134.454	0.235	0.403
-528.048	-17.214	-0.383	-0.318
-527.033	-161.992	0.462	0.030
-526.018	226.934	0.125	0.269
-525.004	-27.618	0.276	-0.211
-523.989	-41.416	-0.082	-0.055
-522.975	-200.000	0.018	0.261
-521.960	-165.457	0.183	-0.010
-520.945	-200.000	-0.001	0.394
-519.931	-102.137	-0.321	-0.101
-518.916	180.065	0.150	-0.290
-517.902	658.527	-0.029	0.098
-516.887	-65.583	-0.332	0.175
-515.872	259.084	-0.186	0.424
-514.858	98.919	-0.072	-0.110
-513.843	-15.205	-0.344	0.290
-512.829	8.985	0.063	0.063
-511.814	-35.426	-0.333	0.238
-510.799	68.593	-0.182	0.246
-509.785	-141.021	0.285	-0.038
-508.770	487.310	0.206	-0.621
-507.756	-131.493	-0.214	0.037
-506.741	-200.000	-0.057	0.375
-505.726	-161.439	0.180	0.012
-504.712	-113.739	0.076	0.019
-503.697	4.791	-0.323	0.313
-502.683	-31.696	0.117	0.087
-501.668	-114.121	0.601	-0.152
-500.653	-167.530	0.193	0.010
-499.639	-120.662	-0.257	0.057
-498.624	-114.550	0.425	0.107
-497.610	65.512	0.161	-0.215
-496.595	60.554	-0.086	0.112
-495.581	-60.878	-0.207	-0.115
-494.566	-2.063	-0.250	-0.231
-493.551	-145.879	-0.318	0.037
-492.537	299.402	-0.153	-0.372
-491.522	800.000	-0.027	0.121
-490.508	66.078	-0.071	-0.095
-489.493	-38.602	0.288	0.200
-488.478	-171.018	0.042	-0.002
-487.464	-79.874	0.443	0.195
-486.449	-173.440	-0.252	0.010
-485.435	-80.272	0.192	0.084
-484.420	-188.105	0.147	0.002
-483.405	-71.232	0.183	0.090
-482.391	231.567	0.076	0.164
-481.376	-178.572	0.271	-0.008
-480.362	430.944	-0.033	-0.094
-479.347	-200.000	0.078	-0.487
-478.332	790.307	0.164	0.596
-477.318	-66.251	0.003	0.002
-476.303	74.715	0.189	0.262
-475.289	800.000	-0.060	-0.246
-474.274	-107.171	0.445	0.128
-473.259	-163.766	0.304	0.018
-472.245	-128.136	-0.253	0.047
-471.230	179.248	0.144	-0.277
-470.216	-110.929	-0.417	-0.112
-469.201	-115.525	-0.306	-0.075
-468.186	-56.224	0.200	0.117
-467.172	-46.896	-0.037	-0.024
-466.157	89.328	-0.224	0.328
-465.143	41.586	-0.462	-0.550
-464.128	-200.000	-0.014	-0.202
-463.113	-123.004	-0.330	-0.069
-462.099	-162.801	-0.280	-0.018
-461.084	-5.428	0.227	-0.204
-460.070	124.706	-0.140	-0.232
-459.055	-99.407	0.287	-0.094
-458.040	-200.000	0.096	0.643
-457.026	137.927	0.084	0.144
-456.011	393.725	0.093	-0.256
-454.997	-85.188	0.182	-0.074
-453.982	-18.825	0.368	0.300
-452.968	800.000	-0.039	0.185
-451.953	72.856	-0.388	-0.532
-450.938	-103.275	0.197	0.061
-449.924	-85.577	-0.463	0.188
-448.909	203.135	0.293	-0.597
-447.895	326.630	-0.102	-0.258
-446.880	-91.047	0.158	-0.059
-445.865	-130.252	0.335	-0.059
-444.851	-200.000	-0.035	0.251
-443.836	-192.121	0.130	0.002
-442.822	450.198	0.022	-0.063
-441.807	-200.000	0.079	-0.580
-440.792	234.496	0.189	0.410
-439.778	-200.000	0.016	-0.142
-438.763	-57.101	0.581	0.335
-437.749	-75.107	-0.146	-0.068
-436.734	800.000	-0.065	0.271
-435.719	-200.000	0.031	-0.236
-434.705	-170.522	-0.487	-0.022
-433.690	232.730	0.096	0.207
-432.676	-21.787	0.202	-0.161
-431.661	-184.140	-1.120	-0.024
-430.646	-112.711	0.364	0.094
-429.632	-52.835	0.273	0.165
-428.617	9.645	0.219	-0.218
-427.603	-56.411	-0.136	-0.079
-426.588	-76.940	0.044	0.020
-425.573	-44.773	-0.151	-0.099
-424.559	-26.725	0.135	-0.104
-423.544	800.000	0.026	0.106
-422.530	-25.150	-0.258	0.200
-421.515	-29.797	0.382	0.285
-420.500	91.496	-0.053	-0.078
-419.486	-200.000	0.012	-0.363
-418.471	-200.000	0.005	-0.031
-417.457	-68.977	0.134	0.068
-416.442	122.681	0.288	0.473
-415.428	-45.142	-0.107	0.070
-414.413	491.757	0.116	-0.350
-413.398	-47.780	-0.150	-0.095
-412.384	16.197	0.239	-0.247
-411.369	123.082	0.194	0.320
-410.355	37.441	0.238	-0.277
-409.340	-135.774	0.134	-0.021
-408.325	-53.302	-0.396	-0.237
-407.311	-80.315	-0.263	-0.115
-406.296	33.166	0.126	0.143
-405.282	-77.630	0.224	-0.101
-404.267	196.596	-0.170	-0.341
-403.252	656.093	0.089	-0.302
-402.238	12.579	0.238	0.241
-401.223	-110.386	0.302	0.082
-400.209	-112.007	0.192	-0.050
-399.194	-71.103	0.302	-0.148
-398.179	-200.000	0.038	0.510
-397.165	35.546	-0.114	-0.131
-396.150	125.239	-0.131	-0.218
-395.136	-8.621	0.188	0.165
-394.121	-88.336	-0.246	-0.096
-393.106	383.089	0.290	0.786
-392.092	-142.278	-0.188	-0.024
-391.077	-114.071	-0.428	0.108
-390.063	-163.326	0.299	-0.018
-389.048	39.451	0.152	0.178
-388.033	7.821	0.581	0.570
-387.019	-137.852	-0.413	-0.060
-386.004	12.515	-0.286	-0.289
-384.990	-200.000	-0.067	-0.612
-383.975	800.000	-0.085	-0.332
-382.960	-36.286	0.112	-0.079
-381.946	30.826	-0.196	-0.220
-380.931	128.164	0.219	0.365
-379.917	-200.000	-0.086	-0.595
-378.902	-170.334	-0.456	-0.021
-377.888	-109.384	0.373	0.103
-376.873	-54.299	-0.163	0.096
-375.858	241.880	-0.038	0.084
-374.844	28.348	0.141	0.156
-373.829	-90.415	-0.284	0.107
-372.815	-9.964	0.376	-0.327
-371.800	-200.000	-0.040	-0.504
-370.785	-200.000	-0.015	0.200
-369.771	-88.664	-0.414	-0.160
-368.756	-186.774	0.263	0.005
-367.742	-200.000	-0.051	-0.573
-366.727	-200.000	-0.027	-0.405
-365.712	-92.833	-0.225	0.082
-364.698	659.634	0.080	-0.272
-363.683	-133.712	0.337	0.055
-362.669	143.656	0.111	-0.194
-361.654	-117.773	-0.667	0.156
-360.639	-200.000	-0.016	-0.225
-359.625	-66.179	-0.311	0.161
-358.610	800.000	-0.034	0.180
-357.596	60.886	-0.168	-0.218
-356.581	-200.000	-0.022	0.337
-355.566	332.174	0.075	0.190
-354.552	-65.309	0.450	-0.236
-353.537	328.861	-0.114	-0.287
-352.523	266.624	0.183	-0.420
-351.508	33.704	0.258	-0.293
-350.493	800.000	0.046	0.193
-349.479	45.247	0.312	0.377
-348.464	800.000	0.069	-0.312
-347.450	-96.807	-0.161	0.055
-346.435	170.052	0.342	-0.642
-345.420	-200.000	-0.098	-0.616
-344.406	-64.207	-0.575	0.305
-343.391	-171.661	0.412	-0.017
-342.377	13.490	-0.287	-0.291
-341.362	800.000	0.044	0.218
-340.348	-50.634	-0.417	0.256
-339.333	460.291	-0.096	0.280
-338.318	316.153	0.195	-0.484
-337.304	146.364	-0.266	-0.468
-336.289	-77.700	-0.514	-0.232
-335.275	-200.000	0.020	0.159
-334.260	-23.150	0.206	0.162
-333.245	78.473	0.251	0.351
-332.231	-200.000	0.001	0.504
-331.216	800.000	0.056	-0.245
-330.202	-28.197	-0.036	-0.027
-329.187	-71.073	0.195	0.096
-328.172	309.340	0.091	-0.224
-327.158	-71.424	-0.283	-0.138
-326.143	14.711	0.274	-0.279
-325.129	-146.856	0.323	-0.036
-324.114	-79.092	0.108	0.048
-323.099	385.606	0.134	0.363
-322.085	168.962	-0.217	-0.405
-321.070	-45.412	-0.455	0.294
-320.056	-147.586	-0.210	0.023
-319.041	56.568	0.105	0.134
-318.026	288.009	0.188	-0.445
-317.012	-200.000	0.045	0.328
-315.997	-170.446	-0.171	0.008
-314.983	406.042	-0.078	0.217
-313.968	32.740	-0.205	0.232
-312.953	-37.493	0.132	0.092
-311.939	-167.202	-0.488	-0.025
-310.924	-200.000	-0.003	-0.087
-309.910	-44.269	-0.280	0.183
-308.895	-105.166	0.457	0.135
-307.880	-43.364	0.515	-0.339
-306.866	800.000	-0.013	0.075
-305.851	112.722	0.143	-0.227
-304.837	-200.000	0.027	-0.450
-303.822	85.139	-0.224	-0.321
-302.807	-173.833	-0.529	0.020
-301.793	645.825	-0.072	0.241
-300.778	-154.244	-0.432	0.038
-299.764	234.708	0.238	0.514
-298.749	-18.995	0.204	0.165
-297.735	-57.346	-0.249	-0.142
-296.720	209.508	-0.096	-0.196
-295.705	169.318	-0.088	-0.164
-294.691	151.426	-0.176	-0.314
-293.676	53.165	-0.192	0.240
-292.662	-49.085	-0.137	0.085
-291.647	-99.693	-0.294	-0.096
-290.632	-61.977	0.460	-0.250
-289.618	-200.000	-0.011	0.219
-288.603	-57.184	-0.416	-0.238
-287.589	170.124	-0.038	0.071
-286.574	20.876	-0.263	-0.278
-285.559	37.315	-0.668	-0.773
-284.545	800.000	0.092	0.474
-283.530	-24.302	-0.248	0.193
-282.516	97.225	-0.238	-0.357
-281.501	-93.847	0.208	-0.074
-280.486	-150.542	0.306	-0.030
-279.472	-200.000	0.007	0.307
-278.457	-114.788	-0.479	0.118
-277.443	484.050	0.114	-0.339
-276.428	-46.978	0.090	-0.057
-275.413	-83.225	0.174	0.072
-274.399	-18.908	-0.274	0.222
-273.384	71.379	-0.100	-0.136
-272.370	96.837	-0.086	0.129
-271.355	-19.416	-0.186	0.150
-270.340	-139.554	0.338	0.047
-269.326	143.517	-0.243	-0.422
-268.311	-118.379	-0.308	-0.071
-267.297	-101.275	-0.187	0.059
-266.282	-44.744	0.454	0.295
-265.267	-81.301	-0.163	0.070
-264.253	57.524	-0.470	0.599
-263.238	34.100	-0.372	-0.423
-262.224	-164.298	-0.559	-0.033
-261.209	-200.000	0.006	0.249
-260.195	-85.292	-0.158	0.064
-259.180	-82.683	-0.110	-0.046
-258.165	6.132	-0.286	0.276
-257.151	20.605	-0.202	-0.213
-256.136	-129.158	-0.220	0.040
-255.122	171.911	0.121	0.228
-254.107	-134.045	0.442	-0.070
-253.092	-106.707	0.232	0.067
-252.078	-53.092	0.232	0.138
-251.063	-200.000	0.022	-0.310
-250.049	45.726	-0.251	-0.302
-249.034	191.387	0.203	0.400
-248.019	-32.686	0.301	0.218
-247.005	-57.160	0.281	0.161
-245.990	193.897	-0.082	0.162
-244.976	-123.078	-0.652	-0.135
-243.961	3.392	-0.393	-0.372
-242.946	-200.000	0.013	-0.573
-241.932	45.762	0.396	-0.478
-240.917	800.000	0.053	0.248
-239.903	-101.277	-0.441	-0.139
-238.888	-80.409	0.289	0.125
-237.873	-200.000	-0.033	-0.270
-236.859	800.000	0.058	-0.299
-235.844	162.421	0.063	0.115
-234.830	-128.815	0.177	-0.032
-233.815	-114.397	-0.196	0.049
-232.800	800.000	0.054	-0.234
-231.786	-80.857	0.572	-0.246
-230.771	17.746	-0.244	0.253
-229.757	-117.323	-0.330	-0.077
-228.742	-107.960	-0.561	0.158
-227.727	78.874	0.150	0.209
-226.713	92.931	0.060	0.088
-225.698	-100.190	-0.150	-0.048
-224.684	-94.030	0.348	0.124
-223.669	800.000	-0.109	0.459
-222.655	800.000	-0.042	0.236
-221.640	612.874	0.168	0.549
-220.625	-200.000	-0.053	0.304
-219.611	207.209	0.235	-0.479
-218.596	800.000	-0.096	-0.366
-217.582	-200.000	-0.032	-0.324
-216.567	12.513	0.409	-0.410
-215.552	-200.000	0.031	0.278
-214.538	-101.564	0.426	-0.134
-213.523	-200.000	0.027	-0.163
-212.509	233.657	-0.201	0.431
-211.494	-91.129	0.308	-0.114
-210.479	-81.363	-0.221	-0.094
-209.465	-19.332	0.101	0.081
-208.450	-200.000	-0.056	-0.371
-207.436	570.162	0.125	0.399
-206.421	-163.894	0.642	-0.038
-205.406	-158.585	-0.230	0.017
-204.392	28.944	0.325	0.358
-203.377	-142.296	0.805	0.102
-202.363	-115.192	-0.425	0.104
-201.348	145.878	0.227	0.398
-200.333	64.688	0.310	-0.407
-199.319	-21.536	-0.352	-0.279
-198.304	-200.000	0.111	-0.857
-197.290	800.000	-0.049	0.249
-196.275	7.505	-0.368	-0.358
-195.260	122.882	0.369	-0.602
-194.246	-37.828	-0.273	-0.188
-193.231	-15.556	0.159	-0.132
-192.217	-111.522	-0.090	0.023
-191.202	-136.651	0.084	0.013
-190.187	50.003	0.298	0.366
-189.173	-106.871	0.351	-0.100
-188.158	-50.384	0.386	-0.236
-187.144	19.207	-0.400	0.417
-186.129	-198.553	-0.260	-0.002
-185.114	-200.000	-0.038	-0.231
-184.100	-78.235	0.233	0.103
-183.085	-1.433	-0.178	0.163
-182.071	-84.850	-0.529	0.215
-181.056	91.892	0.147	0.216
-180.042	-22.449	0.409	0.321
-179.027	-126.202	0.359	-0.069
-178.012	-200.000	0.024	-0.171
-176.998	-82.726	-0.626	0.262
-175.983	51.771	-0.309	0.382
-174.969	324.940	0.151	0.378
-173.954	-37.057	-0.545	-0.378
-172.939	304.434	-0.124	-0.301
-171.925	4.594	0.338	0.322
-170.910	-87.070	0.474	0.186
-169.896	-0.551	0.448	0.412
-168.881	47.462	-0.235	0.284
-167.866	-200.000	0.005	0.501
-166.852	-116.592	0.153	-0.036
-165.837	-200.000	0.001	-0.256
-164.823	31.560	-0.315	0.352
-163.808	-190.308	0.304	0.004
-162.793	-125.878	-0.137	0.027
-161.779	82.886	0.056	-0.079
-160.764	754.469	0.145	-0.514
-159.750	-200.000	-0.028	-0.512
-158.735	-62.825	0.120	-0.064
-157.720	-73.029	0.300	-0.142
-156.706	67.351	-0.390	0.518
-155.691	452.978	-0.020	-0.057
-154.677	206.361	0.137	0.278
-153.662	121.482	-0.193	0.312
-152.647	800.000	-0.150	0.543
-151.633	101.972	0.265	0.402
-150.618	-157.718	0.184	-0.014
-149.604	61.237	-0.309	-0.399
-148.589	-96.232	0.299	-0.102
-147.574	26.653	-0.359	0.389
-146.560	-136.705	0.048	0.007
-145.545	-160.999	-0.335	0.023
-144.531	560.656	0.078	0.246
-143.516	93.417	-0.189	-0.278
-142.502	-57.998	-0.290	-0.164
-141.487	174.845	-0.070	-0.133
-140.472	-200.000	-0.025	-0.149
-139.458	3.314	-0.323	-0.305
-138.443	-200.000	-0.033	-0.460
-137.429	343.687	-0.108	-0.276
-136.414	733.784	0.172	-0.600
-135.399	-181.323	-0.182	0.005
-134.385	151.449	0.137	-0.242
-133.370	-21.249	-0.455	0.360
-132.356	-69.939	0.110	-0.054
-131.341	-44.458	0.242	-0.157
-130.326	311.089	-0.145	0.354
-129.312	-200.000	-0.018	0.205
-128.297	-69.648	0.085	0.042
-127.283	691.257	0.035	-0.121
-126.268	431.144	0.051	0.143
-125.253	-200.000	0.005	-0.090
-124.239	-46.435	-0.134	-0.085
-123.224	-77.879	-0.284	-0.126
-122.210	800.000	-0.111	-0.482
-121.195	-67.269	-0.439	-0.223
