DTS Sentinel unit serial number:	SN409020Multiplexer serial number:	ORYXHardware model number:	OX4-SRSoftware version number:	ORYX F/W v3.00 Oryx Data Collector v3.7.2.0data status	okinstallation	HaddamTimeLapsedifferential loss correction	single-endedforward channel	channel 3reverse channel	N/Adate	2011/06/21time	18:46:17forward acquisition time	30.00reverse acquisition time	0.00gamma	498.7831k internal	0.1814k external	0.1814temperature offset calibration	1.0074default loss term (dB/km)	0.3790temperature slope calibration	1.3530multiplexer offset coefficient	1.0000multiplexer slope coefficient	1.0000fibre end	0.00T internal ref (°C)	35.69T ext. ref 1 (°C)	27.05T ext. ref 2 (°C)	0.24length (m)	temperature (°C)	Stokes	anti-Stokes-747.200	252.442	0.045	0.099
-746.185	1.054	0.595	0.547
-745.171	176.961	0.279	-0.522
-744.156	-200.000	-0.009	0.461
-743.142	2.992	0.281	-0.262
-742.127	-200.000	0.078	0.697
-741.112	36.065	0.100	-0.112
-740.098	175.019	-0.288	0.535
-739.083	-122.576	-0.168	0.035
-738.069	-13.646	0.066	-0.055
-737.054	-83.363	-0.375	0.153
-736.039	18.623	0.034	0.035
-735.025	-127.339	-0.083	0.015
-734.010	195.994	0.199	0.389
-732.996	181.480	0.085	0.160
-731.981	136.875	-0.201	-0.337
-730.966	-55.346	-0.483	-0.277
-729.952	-145.263	0.060	0.007
-728.937	-129.975	0.389	0.068
-727.923	-43.669	-0.274	-0.177
-726.908	-56.439	0.195	-0.111
-725.894	43.456	0.302	-0.354
-724.879	24.259	0.034	-0.036
-723.864	394.937	-0.158	-0.424
-722.850	-164.940	-0.360	-0.020
-721.835	-48.514	-0.401	0.246
-720.821	-200.000	-0.004	0.480
-719.806	122.696	0.209	0.335
-718.791	800.000	-0.069	-0.259
-717.777	-123.102	-0.277	0.057
-716.762	-100.313	0.578	-0.183
-715.748	144.007	0.125	0.213
-714.733	-46.630	0.527	-0.330
-713.718	800.000	-0.058	0.296
-712.704	109.773	-0.118	0.181
-711.689	-57.103	-0.413	-0.232
-710.675	-136.537	-0.569	-0.084
-709.660	49.155	0.211	-0.254
-708.645	26.370	-0.084	0.090
-707.631	248.158	0.093	0.203
-706.616	-92.033	0.540	0.195
-705.602	105.827	0.417	-0.632
-704.587	-72.749	-0.199	0.093
-703.572	-16.056	-0.208	-0.169
-702.558	112.499	0.290	-0.450
-701.543	-97.242	0.386	-0.128
-700.529	-25.684	0.221	-0.167
-699.514	-200.000	-0.026	-0.217
-698.499	800.000	-0.055	-0.226
-697.485	326.110	-0.166	-0.408
-696.470	-56.369	0.047	-0.027
-695.456	247.303	0.077	-0.167
-694.441	-135.753	0.682	0.102
-693.426	-200.000	-0.033	-0.298
-692.412	44.456	0.277	-0.326
-691.397	105.402	0.163	0.247
-690.383	180.771	-0.048	0.091
-689.368	257.555	-0.109	0.241
-688.354	-27.922	-0.384	-0.284
-687.339	624.479	0.091	-0.296
-686.324	644.344	0.046	0.150
-685.310	-56.556	0.289	-0.163
-684.295	-3.756	0.061	-0.055
-683.281	-113.482	0.346	-0.086
-682.266	-3.667	-0.251	-0.223
-681.251	751.385	-0.185	-0.644
-680.237	170.480	0.165	-0.304
-679.222	4.228	0.214	-0.200
-678.208	-200.000	-0.064	0.369
-677.193	1.126	0.264	0.242
-676.178	-200.000	0.035	-0.550
-675.164	43.527	0.183	-0.214
-674.149	-57.084	0.308	-0.173
-673.135	800.000	-0.051	0.255
-672.120	-200.000	-0.038	0.271
-671.105	800.000	0.022	-0.084
-670.091	-32.941	0.399	0.282
-669.076	800.000	0.051	-0.216
-668.062	432.720	0.079	-0.219
-667.047	-93.242	-0.210	0.074
-666.032	48.296	0.080	-0.096
-665.018	-200.000	0.035	-0.506
-664.003	-140.380	-0.322	-0.043
-662.989	346.710	0.070	-0.177
-661.974	437.545	0.171	0.478
-660.959	-147.780	0.726	0.077
-659.945	-200.000	0.061	-0.684
-658.930	-200.000	0.061	-0.472
-657.916	-73.194	0.283	0.132
-656.901	126.187	0.069	0.112
-655.886	-19.316	0.208	-0.164
-654.872	800.000	0.053	0.253
-653.857	-66.204	-0.244	-0.124
-652.843	-185.654	0.287	-0.005
-651.828	-110.595	0.279	-0.073
-650.814	-118.752	-0.130	-0.029
-649.799	-104.151	-0.591	0.175
-648.784	800.000	0.018	-0.096
-647.770	-129.454	-0.875	0.154
-646.755	103.670	-0.206	-0.310
-645.741	39.347	0.443	-0.507
-644.726	-46.629	-0.460	-0.287
-643.711	120.655	-0.118	0.188
-642.697	-47.067	0.192	0.119
-641.682	800.000	0.060	-0.249
-640.668	-108.092	0.713	-0.196
-639.653	113.192	0.236	-0.366
-638.638	376.442	-0.169	-0.442
-637.624	-43.814	-0.294	0.189
-636.609	171.565	0.082	-0.151
-635.595	21.168	0.051	0.053
-634.580	-165.517	0.159	-0.009
-633.565	-200.000	0.038	-0.350
-632.551	289.700	0.118	0.275
-631.536	-5.938	-0.207	0.180
-630.522	-45.467	0.561	0.354
-629.507	-98.414	0.502	0.163
-628.492	-200.000	-0.016	-0.238
-627.478	-7.610	-0.336	-0.290
-626.463	38.832	-0.374	-0.427
-625.449	-200.000	-0.057	-0.778
-624.434	6.047	0.258	-0.243
-623.419	31.734	0.276	-0.303
-622.405	-38.602	0.281	-0.189
-621.390	-75.437	-0.191	-0.086
-620.376	88.340	-0.412	-0.584
-619.361	-200.000	0.083	-0.636
-618.346	-200.000	-0.012	-0.225
-617.332	-74.762	-0.442	0.202
-616.317	101.193	-0.270	0.402
-615.303	-57.886	-0.352	-0.195
-614.288	255.623	-0.116	-0.255
-613.273	-143.910	0.075	-0.009
-612.259	116.568	-0.212	0.333
-611.244	-2.320	0.081	-0.072
-610.230	-84.089	-0.541	-0.218
-609.215	-200.000	-0.076	0.498
-608.201	-93.874	0.179	-0.063
-607.186	-113.562	0.113	0.028
-606.171	36.266	0.183	-0.206
-605.157	46.651	-0.382	-0.453
-604.142	800.000	-0.106	-0.433
-603.128	12.985	-0.631	-0.622
-602.113	555.089	-0.055	0.169
-601.098	-48.323	0.287	-0.176
-600.084	-92.593	0.040	0.014
-599.069	-122.458	0.553	0.114
-598.055	1.793	0.441	0.405
-597.040	-85.990	-0.374	0.147
-596.025	800.000	0.067	0.245
-595.011	-107.424	0.402	-0.112
-593.996	-158.199	0.242	0.018
-592.982	24.391	-0.183	-0.192
-591.967	479.119	-0.116	-0.337
-590.952	77.216	-0.230	0.313
-589.938	-7.759	0.148	0.127
-588.923	501.783	-0.060	-0.177
-587.909	-200.000	0.222	-0.001
-586.894	-54.828	-0.254	0.146
-585.879	207.316	0.256	0.511
-584.865	-119.530	-0.096	0.021
-583.850	-114.646	0.162	-0.039
-582.836	39.543	0.126	0.144
-581.821	-200.000	-0.024	0.373
-580.806	86.863	0.289	0.407
-579.792	189.544	0.137	-0.262
-578.777	45.727	-0.281	-0.331
-577.763	-151.617	-0.151	-0.014
-576.748	560.855	0.109	-0.338
-575.733	170.487	-0.182	-0.334
-574.719	-194.906	0.109	-0.001
-573.704	-200.000	-0.008	0.314
-572.690	-76.233	-0.162	-0.072
-571.675	-57.491	-0.284	0.158
-570.661	-184.622	-0.161	0.003
-569.646	91.116	0.236	-0.337
-568.631	-13.361	-0.171	0.141
-567.617	-122.682	0.061	0.013
-566.602	-124.585	0.128	-0.025
-565.588	299.177	0.179	-0.421
-564.573	30.344	0.090	-0.098
-563.558	34.766	-0.424	-0.472
-562.544	-15.456	-0.262	-0.213
-561.529	65.807	-0.180	0.233
-560.515	74.536	-0.221	0.296
-559.500	153.714	-0.025	0.044
-558.485	35.238	-0.232	0.259
-557.471	-200.000	-0.315	-0.000
-556.456	-81.550	0.123	0.051
-555.442	-137.091	0.508	0.073
-554.427	26.848	0.074	-0.079
-553.412	-200.000	0.025	-0.290
-552.398	-31.253	0.611	0.437
-551.383	322.739	-0.168	0.408
-550.369	-123.255	-0.147	-0.030
-549.354	-200.000	0.008	0.348
-548.339	793.067	-0.207	-0.729
-547.325	-32.390	-0.048	-0.034
-546.310	682.091	0.103	0.345
-545.296	177.512	0.096	0.178
-544.281	-78.486	0.504	0.219
-543.266	766.133	-0.032	-0.112
-542.252	800.000	0.129	-0.458
-541.237	-200.000	-0.509	0.001
-540.223	-117.413	-0.616	-0.141
-539.208	374.339	-0.072	0.188
-538.193	7.966	0.191	-0.182
-537.179	800.000	0.060	0.281
-536.164	-175.575	-0.499	0.017
-535.150	-200.000	0.013	0.238
-534.135	-72.725	0.240	0.112
-533.121	-152.486	0.521	-0.047
-532.106	-108.231	-0.132	0.036
-531.091	-138.049	0.146	-0.020
-530.077	86.020	-0.048	0.068
-529.062	93.547	-0.123	0.177
-528.048	-45.718	0.533	-0.334
-527.033	297.048	0.109	0.255
-526.018	800.000	0.079	-0.279
-525.004	211.851	0.203	-0.409
-523.989	-96.784	0.256	0.085
-522.975	-80.791	0.178	-0.075
-521.960	-119.309	0.459	-0.101
-520.945	-132.883	0.229	-0.037
-519.931	-200.000	-0.006	0.241
-518.916	-95.393	0.347	0.118
-517.902	-126.493	0.100	-0.019
-516.887	264.354	0.271	-0.602
-515.872	146.498	0.165	-0.282
-514.858	336.419	-0.089	-0.220
-513.843	-3.830	-0.255	0.225
-512.829	-113.282	-0.389	0.096
-511.814	-200.000	-0.025	0.168
-510.799	295.084	0.106	0.246
-509.785	19.358	-0.134	-0.136
-508.770	268.017	-0.050	-0.111
-507.756	-200.000	0.088	-0.500
-506.741	315.853	0.112	-0.271
-505.726	800.000	0.007	-0.033
-504.712	-200.000	-0.042	0.312
-503.697	-77.007	0.226	-0.100
-502.683	-13.784	-0.146	0.120
-501.668	193.809	-0.246	0.474
-500.653	206.560	-0.151	0.300
-499.639	800.000	-0.059	0.253
-498.624	-92.325	0.264	0.094
-497.610	-39.837	0.525	0.348
-496.595	-151.148	0.537	0.051
-495.581	-70.099	0.131	0.063
-494.566	41.017	-0.178	0.204
-493.551	-81.427	-0.153	0.064
-492.537	-60.818	0.062	-0.033
-491.522	23.057	0.127	-0.132
-490.508	-61.721	0.169	0.090
-489.493	77.926	0.022	-0.030
-488.478	42.098	0.301	0.348
-487.464	-131.582	-0.541	-0.089
-486.449	261.197	-0.097	-0.213
-485.435	-200.000	0.037	-0.249
-484.420	-20.032	0.430	-0.336
-483.405	20.834	0.066	0.068
-482.391	10.857	0.231	-0.224
-481.376	298.772	0.037	0.087
-480.362	35.548	-0.047	-0.053
-479.347	-91.276	0.184	-0.067
-478.332	-144.995	-0.453	0.052
-477.318	800.000	-0.030	-0.134
-476.303	-105.850	-0.161	-0.046
-475.289	112.446	-0.120	-0.184
-474.274	-32.232	-0.062	0.044
-473.259	-171.763	0.055	0.002
-472.245	53.448	-0.086	0.104
-471.230	132.819	-0.095	-0.157
-470.216	-130.436	-0.772	0.131
-469.201	-200.000	-0.039	0.322
-468.186	800.000	0.166	0.596
-467.172	-105.237	-0.270	0.078
-466.157	-75.292	0.240	-0.108
-465.143	75.854	-0.114	-0.153
-464.128	-89.745	0.423	-0.156
-463.113	280.215	0.097	-0.221
-462.099	-143.948	0.288	0.034
-461.084	21.756	0.419	0.432
-460.070	637.184	0.133	-0.430
-459.055	-37.785	-0.391	-0.263
-458.040	-98.000	-0.216	-0.070
-457.026	-91.484	-0.160	-0.058
-456.011	-200.000	-0.036	-0.883
-454.997	-69.249	0.453	-0.220
-453.982	59.677	-0.204	0.255
-452.968	6.810	0.304	0.287
-451.953	-118.378	-0.718	-0.160
-450.938	107.030	-0.101	-0.152
-449.924	52.208	-0.377	0.456
-448.909	800.000	-0.034	0.163
-447.895	800.000	-0.044	-0.204
-446.880	800.000	-0.090	-0.340
-445.865	-60.049	0.380	-0.205
-444.851	-200.000	-0.024	0.134
-443.836	-8.103	-0.363	0.310
-442.822	-3.694	0.067	0.059
-441.807	15.272	0.176	-0.174
-440.792	498.402	-0.051	0.150
-439.778	35.960	0.090	0.101
-438.763	-162.824	0.179	-0.011
-437.749	517.548	-0.068	0.203
-436.734	16.600	0.320	0.320
-435.719	800.000	0.027	-0.120
-434.705	-44.996	-0.073	-0.046
-433.690	646.076	-0.133	-0.432
-432.676	8.693	-0.358	-0.342
-431.661	-200.000	-0.023	-0.343
-430.646	-108.200	0.355	-0.097
-429.632	490.196	0.110	-0.321
-428.617	-107.458	0.257	0.071
-427.603	-9.647	0.101	0.085
-426.588	-200.000	0.014	-0.110
-425.573	-200.000	-0.046	-0.331
-424.559	-200.000	0.007	-0.173
-423.544	800.000	-0.115	0.554
-422.530	-10.470	0.391	0.328
-421.515	19.896	-0.130	0.133
-420.500	-133.556	-0.228	0.036
-419.486	-200.000	0.002	0.485
-418.471	136.071	-0.058	0.096
-417.457	-200.000	0.370	-0.000
-416.442	-58.350	-0.305	0.168
-415.428	52.827	0.204	0.248
-414.413	421.736	-0.137	-0.373
-413.398	-6.332	0.195	-0.169
-412.384	-200.000	0.031	0.506
-411.369	-112.484	-0.457	-0.115
-410.355	305.663	-0.158	0.373
-409.340	344.512	-0.227	0.566
-408.325	-133.541	0.217	-0.034
-407.311	-46.788	-0.177	-0.109
-406.296	11.423	-0.216	-0.209
-405.282	-119.155	-0.429	-0.094
-404.267	800.000	-0.127	0.649
-403.252	22.014	0.439	0.453
-402.238	-161.792	0.277	0.018
-401.223	-24.359	0.096	-0.072
-400.209	35.963	-0.191	-0.213
-399.194	279.335	0.101	0.230
-398.179	-59.581	0.127	0.068
-397.165	267.697	-0.161	-0.357
-396.150	-200.000	-0.040	-0.311
-395.136	195.800	0.028	-0.053
-394.121	-173.223	0.207	0.008
-393.106	-102.852	-0.329	0.098
-392.092	92.510	-0.050	0.071
-391.077	464.341	-0.155	0.440
-390.063	-31.071	-0.095	0.068
-389.048	199.742	0.138	-0.268
-388.033	-3.059	0.324	0.285
-387.019	-112.760	-0.228	0.057
-386.004	-165.785	-0.151	-0.008
-384.990	655.109	-0.072	0.237
-383.975	-200.000	-0.061	0.404
-382.960	45.188	-0.239	0.279
-381.946	-66.248	0.248	-0.125
-380.931	-200.000	-0.025	0.225
-379.917	-200.000	-0.022	0.139
-378.902	-81.346	0.938	0.389
-377.888	-200.000	-0.020	0.590
-376.873	101.151	-0.211	-0.310
-375.858	196.524	0.257	0.496
-374.844	45.387	0.139	0.163
-373.829	-86.352	-0.173	-0.067
-372.815	-136.247	-0.412	-0.060
-371.800	-98.739	0.161	0.051
-370.785	297.779	0.052	0.121
-369.771	22.556	0.250	0.259
-368.756	306.852	-0.157	0.371
-367.742	-162.784	0.161	0.010
-366.727	-131.780	0.423	-0.069
-365.712	569.015	-0.062	-0.192
-364.698	54.290	-0.181	0.221
-363.683	-83.960	-0.523	0.209
-362.669	-144.913	0.128	-0.015
-361.654	-45.380	-0.524	0.327
-360.639	54.597	0.048	0.058
-359.625	-74.268	0.147	0.067
-358.610	-132.130	-0.454	0.074
-357.596	-200.000	-0.063	0.418
-356.581	22.287	-0.046	-0.047
-355.566	-200.000	-0.065	-0.394
-354.552	-200.000	0.003	0.203
-353.537	747.475	-0.030	-0.104
-352.523	-84.940	0.315	-0.124
-351.508	42.702	0.119	0.136
-350.493	-65.018	-0.400	0.203
-349.479	387.967	0.149	0.391
-348.464	76.393	-0.232	0.311
-347.450	177.260	-0.099	0.182
-346.435	49.852	-0.326	-0.389
-345.420	-159.682	0.121	0.008
-344.406	-200.000	0.084	0.492
-343.391	-200.000	0.005	-0.167
-342.377	-7.888	-0.446	-0.379
-341.362	41.476	-0.317	-0.362
-340.348	-200.000	0.026	0.185
-339.333	-128.171	0.072	0.013
-338.318	-171.166	-0.071	-0.003
-337.304	30.169	0.283	0.304
-336.289	89.180	0.151	0.212
-335.275	748.660	-0.023	0.079
-334.260	-59.806	-0.141	-0.076
-333.245	-6.974	0.390	-0.334
-332.231	-126.733	0.380	0.070
-331.216	-194.206	-0.170	-0.002
-330.202	78.178	-0.084	0.113
-329.187	-94.210	-0.353	-0.121
-328.172	-34.040	0.456	0.315
-327.158	11.810	-0.460	0.446
-326.143	-200.000	0.017	0.128
-325.129	227.750	-0.160	-0.330
-324.114	247.662	0.037	-0.079
-323.099	424.001	-0.126	0.343
-322.085	629.669	-0.050	0.159
-321.070	109.936	-0.176	0.266
-320.056	52.602	-0.135	0.162
-319.041	226.321	-0.174	0.357
-318.026	-10.575	0.286	-0.238
-317.012	-77.029	-0.250	-0.110
-315.997	-176.153	-0.551	0.018
-314.983	-6.372	0.345	0.296
-313.968	255.985	0.126	0.275
-312.953	-75.328	-0.348	-0.156
-311.939	-93.826	0.293	0.101
-310.924	-52.677	0.066	-0.038
-309.910	800.000	-0.052	0.194
-308.895	96.646	0.161	0.233
-307.880	69.681	-0.068	-0.088
-306.866	-94.429	0.062	0.021
-305.851	3.881	-0.257	-0.237
-304.837	-200.000	-0.071	-0.632
-303.822	800.000	-0.062	-0.304
-302.807	-92.853	-0.030	0.010
-301.793	-184.277	-0.081	0.002
-300.778	-43.439	0.057	0.036
-299.764	-125.539	-0.449	0.085
-298.749	74.933	0.161	0.214
-297.735	-155.939	0.029	0.002
-296.720	-200.000	0.067	0.444
-295.705	-200.000	0.033	0.186
-294.691	455.663	-0.118	-0.331
-293.676	-130.674	0.161	-0.027
-292.662	-200.000	-0.016	-0.621
-291.647	800.000	-0.029	0.153
-290.632	-170.261	-0.371	-0.016
-289.618	88.343	0.329	-0.461
-288.603	34.613	0.198	-0.217
-287.589	438.367	-0.076	-0.211
-286.574	227.746	-0.064	-0.132
-285.559	287.448	-0.077	0.176
-284.545	715.387	0.014	-0.048
-283.530	183.053	-0.144	0.269
-282.516	800.000	0.036	0.167
-281.501	-168.664	0.382	-0.018
-280.486	800.000	-0.048	0.198
-279.472	-150.120	0.365	-0.035
-278.457	-49.496	-0.083	-0.050
-277.443	-52.191	-0.341	0.198
-276.428	-49.214	-0.311	0.187
-275.413	-166.902	0.262	0.013
-274.399	698.482	-0.127	-0.424
-273.384	-27.869	0.165	-0.120
-272.370	-91.638	-0.227	0.081
-271.355	115.935	0.198	-0.306
-270.340	88.478	0.292	-0.410
-269.326	114.986	-0.076	0.117
-268.311	-112.821	0.204	0.051
-267.297	-129.143	0.479	0.084
-266.282	10.763	0.200	0.192
-265.267	800.000	-0.056	-0.256
-264.253	-200.000	0.021	0.162
-263.238	800.000	0.094	-0.444
-262.224	-93.782	0.581	0.200
-261.209	-200.000	0.011	-0.067
-260.195	-30.478	-0.187	0.133
-259.180	671.414	-0.056	-0.185
-258.165	195.447	0.173	-0.332
-257.151	-200.000	-0.040	0.535
-256.136	42.273	-0.137	-0.157
-255.122	-130.644	0.475	-0.080
-254.107	50.656	0.063	0.075
-253.092	-94.732	-0.477	0.162
-252.078	108.499	-0.021	0.032
-251.063	-47.292	-0.369	0.226
-250.049	800.000	0.055	-0.210
-249.034	-185.950	0.190	0.003
-248.019	86.511	-0.324	-0.450
-247.005	29.514	0.152	0.163
-245.990	-110.163	-0.270	0.070
-244.976	135.785	0.033	-0.055
-243.961	-200.000	0.095	0.536
-242.946	-200.000	0.008	0.058
-241.932	366.374	-0.132	0.335
-240.917	-44.977	-0.301	0.188
-239.903	-17.300	0.287	-0.227
-238.888	674.124	-0.176	-0.577
-237.873	-100.077	0.217	-0.068
-236.859	-51.830	0.226	-0.132
-235.844	-94.542	0.123	0.042
-234.830	176.170	0.113	0.208
-233.815	42.408	0.162	-0.185
-232.800	-182.138	0.370	-0.009
-231.786	300.238	-0.173	-0.403
-230.771	-49.286	-0.488	-0.292
-229.757	106.503	-0.138	0.206
-228.742	-46.819	-0.157	-0.096
-227.727	-28.057	0.297	0.216
-226.713	-140.722	-0.287	-0.037
-225.698	245.949	-0.157	-0.334
-224.684	-200.000	-0.023	-0.225
-223.669	-16.851	-0.163	-0.129
-222.655	-3.227	-0.092	-0.081
-221.640	670.267	0.062	0.203
-220.625	-85.916	0.178	-0.069
-219.611	298.232	0.182	0.423
-218.596	-200.000	0.001	-0.066
-217.582	19.258	0.199	-0.201
-216.567	-200.000	0.023	-0.432
-215.552	96.841	0.204	-0.294
-214.538	503.462	0.094	-0.276
-213.523	-155.297	-0.338	-0.027
-212.509	46.462	-0.246	-0.287
-211.494	-52.204	-0.135	-0.078
-210.479	-132.511	-0.044	0.007
-209.465	-63.288	0.323	0.166
-208.450	-116.843	0.145	0.033
-207.436	-75.715	0.104	0.046
-206.421	110.062	-0.196	-0.295
-205.406	40.372	-0.201	0.227
-204.392	1.075	-0.382	0.344
-203.377	-156.077	-0.350	0.027
-202.363	191.251	-0.096	0.183
-201.348	-155.544	0.323	-0.026
-200.333	14.521	0.250	0.245
-199.319	-63.663	0.372	-0.191
-198.304	594.851	0.131	-0.408
-197.290	-2.130	0.153	-0.135
-196.275	-200.000	-0.032	0.211
-195.260	-200.000	-0.022	0.451
-194.246	266.503	-0.153	-0.337
-193.231	-144.885	0.195	-0.022
-192.217	800.000	0.076	0.336
-191.202	429.729	0.135	0.368
-190.187	372.098	0.162	-0.414
-189.173	192.708	-0.106	-0.202
-188.158	-2.143	0.274	-0.241
-187.144	86.768	0.035	0.048
-186.129	201.582	-0.165	0.320
-185.114	374.359	0.211	-0.542
-184.100	-54.188	-0.467	0.265
-183.085	-89.461	-0.570	0.209
-182.071	23.989	-0.361	0.374
-181.056	-43.752	0.097	0.061
-180.042	-23.524	-0.098	0.073
-179.027	-83.890	0.205	0.081
-178.012	-59.447	0.216	0.116
-176.998	-23.864	0.352	-0.264
-175.983	-60.355	-0.119	-0.063
-174.969	11.796	-0.375	0.361
-173.954	800.000	-0.063	0.324
-172.939	-149.350	0.505	-0.050
-171.925	800.000	0.061	-0.243
-170.910	-200.000	-0.002	-0.131
-169.896	-41.682	0.579	-0.372
-168.881	-128.164	0.470	0.083
-167.866	-186.389	0.373	-0.007
-166.852	87.454	0.157	-0.217
-165.837	-86.671	-0.096	0.037
-164.823	-3.935	-0.255	0.221
-163.808	-200.000	0.026	0.264
-162.793	270.495	-0.150	-0.332
-161.779	-158.487	-0.539	-0.039
-160.764	391.712	0.055	0.143
-159.750	-55.928	0.128	-0.071
-158.735	-168.046	0.723	-0.035
-157.720	-0.959	0.259	-0.230
-156.706	-17.716	-0.216	-0.170
-155.691	238.392	0.171	0.358
-154.677	79.591	-0.348	0.469
-153.662	-77.266	-0.288	-0.125
-152.647	113.615	-0.083	0.127
-151.633	549.489	0.086	-0.261
-150.618	52.195	0.073	0.087
-149.604	-126.641	-0.478	0.088
-148.589	-152.646	-0.261	0.023
-147.574	39.008	0.145	-0.163
-146.560	-200.000	-0.048	-0.705
-145.545	-49.877	0.224	0.133
-144.531	760.020	0.123	0.420
-143.516	-182.539	-0.103	0.002
-142.502	-178.818	0.497	-0.014
-141.487	-83.494	-0.322	0.128
-140.472	-84.550	-0.245	0.096
-139.458	800.000	-0.110	-0.488
-138.443	-175.968	-0.437	0.014
-137.429	-100.238	-0.613	0.189
-136.414	173.074	-0.077	-0.139
-135.399	631.792	0.104	-0.332
-134.385	26.299	0.362	0.378
-133.370	-119.738	-0.142	-0.030
-132.356	137.427	-0.239	-0.392
-131.341	82.860	0.248	0.338
-130.326	-134.895	0.228	-0.034
-129.312	-200.000	0.066	-0.499
-128.297	-150.532	0.355	-0.034
-127.283	255.135	0.053	-0.115
-126.268	-84.897	0.419	0.164
-125.253	-154.931	-0.405	-0.033
-124.239	-200.000	0.041	-0.704
-123.224	-45.036	-0.472	0.293
-122.210	800.000	0.044	-0.215
-121.195	78.270	0.222	0.298
-120.180	-200.000	-0.066	-0.393
