DTS Sentinel unit serial number:	SN409020Multiplexer serial number:	ORYXHardware model number:	OX4-SRSoftware version number:	ORYX F/W v3.00 Oryx Data Collector v3.7.2.0data status	okinstallation	HaddamTimeLapsedifferential loss correction	single-endedforward channel	channel 3reverse channel	N/Adate	2011/06/22time	11:01:01forward acquisition time	30.00reverse acquisition time	0.00gamma	498.7831k internal	0.1771k external	0.1771temperature offset calibration	1.0074default loss term (dB/km)	0.3790temperature slope calibration	1.3530multiplexer offset coefficient	1.0000multiplexer slope coefficient	1.0000fibre end	0.00T internal ref (°C)	29.75T ext. ref 1 (°C)	24.80T ext. ref 2 (°C)	-0.10length (m)	temperature (°C)	Stokes	anti-Stokes-747.200	348.129	-0.157	-0.409
-746.185	15.703	0.162	0.167
-745.171	486.600	0.120	-0.362
-744.156	800.000	0.051	-0.237
-743.142	-122.576	-0.141	0.030
-742.127	116.112	0.131	0.212
-741.112	38.518	-0.297	-0.348
-740.098	250.801	0.203	0.455
-739.083	-43.490	0.063	0.042
-738.069	-99.136	-0.050	-0.017
-737.054	-11.167	-0.308	0.266
-736.039	-200.000	0.049	0.551
-735.025	344.577	-0.252	0.652
-734.010	226.973	-0.126	0.270
-732.996	402.118	-0.125	-0.347
-731.981	-160.293	1.061	0.074
-730.966	-115.058	0.425	-0.105
-729.952	-193.651	-0.646	0.007
-728.937	386.340	-0.053	-0.145
-727.923	-84.467	-0.082	0.034
-726.908	-16.241	-0.230	0.192
-725.894	-200.000	-0.058	-0.350
-724.879	126.316	-0.135	0.224
-723.864	-34.307	-0.311	-0.223
-722.850	44.708	0.091	0.110
-721.835	-200.000	0.029	0.285
-720.821	14.770	0.202	0.208
-719.806	134.636	0.110	0.188
-718.791	-106.206	-0.244	-0.071
-717.777	452.589	0.054	-0.158
-716.762	338.121	-0.182	-0.467
-715.748	-6.543	0.151	0.135
-714.733	90.171	-0.065	0.095
-713.718	279.871	-0.280	0.659
-712.704	-200.000	0.005	0.218
-711.689	-200.000	0.030	0.267
-710.675	-25.111	0.377	-0.293
-709.660	-59.091	-0.300	0.169
-708.645	555.890	-0.170	0.541
-707.631	9.696	0.235	-0.233
-706.616	-200.000	0.010	-0.207
-705.602	-104.946	-0.136	0.041
-704.587	-121.157	0.304	0.066
-703.572	-200.000	-0.003	-0.175
-702.558	-193.433	0.441	0.005
-701.543	-29.131	0.388	-0.291
-700.529	-200.000	-0.042	-0.356
-699.514	-110.513	-0.069	-0.019
-698.499	57.475	-0.165	-0.212
-697.485	88.538	-0.047	-0.068
-696.470	219.282	-0.058	0.123
-695.456	-104.484	-0.275	0.083
-694.441	-200.000	0.012	-0.181
-693.426	-64.891	0.530	-0.280
-692.412	-200.000	-0.001	-0.331
-691.397	177.543	-0.113	-0.217
-690.383	-19.608	0.403	-0.326
-689.368	-57.120	0.173	0.100
-688.354	-149.367	0.370	-0.038
-687.339	-200.000	-0.043	0.287
-686.324	-200.000	0.021	0.317
-685.310	22.614	-0.259	0.277
-684.295	281.794	-0.112	0.264
-683.281	-71.393	0.247	-0.121
-682.266	131.893	0.130	0.220
-681.251	-108.779	-0.095	0.026
-680.237	-200.000	0.033	0.297
-679.222	-200.000	0.021	0.165
-678.208	34.903	0.239	-0.274
-677.193	-57.897	0.333	0.190
-676.178	-142.219	0.074	0.010
-675.164	-200.000	0.040	0.286
-674.149	-200.000	-0.031	-0.218
-673.135	17.278	0.190	-0.197
-672.120	-50.969	0.233	0.143
-671.105	-200.000	-0.055	0.469
-670.091	369.179	0.154	0.410
-669.076	31.878	-0.186	0.210
-668.062	-81.573	0.254	-0.109
-667.047	-193.498	0.118	0.001
-666.032	321.565	0.048	-0.120
-665.018	-110.680	0.441	-0.118
-664.003	-129.175	-0.376	0.068
-662.989	-72.180	0.261	-0.126
-661.974	402.665	0.202	0.558
-660.959	48.460	-0.072	-0.088
-659.945	-3.290	0.224	-0.204
-658.930	-200.000	0.003	-0.172
-657.916	-62.604	0.538	0.291
-656.901	800.000	0.040	0.199
-655.886	-72.323	-0.330	0.159
-654.872	260.117	-0.064	-0.145
-653.857	19.463	0.188	-0.198
-652.843	-181.292	0.142	0.004
-651.828	2.146	0.265	-0.251
-650.814	-25.391	0.274	-0.212
-649.799	-80.583	0.297	0.129
-648.784	800.000	-0.022	-0.109
-647.770	-61.667	0.249	-0.136
-646.755	-78.985	-0.184	-0.081
-645.741	-200.000	0.000	0.048
-644.726	173.326	0.282	0.533
-643.711	-13.407	-0.537	-0.455
-642.697	-30.205	-0.169	0.126
-641.682	-132.671	-0.455	0.076
-640.668	-200.000	-0.075	0.540
-639.653	-56.497	-0.036	0.021
-638.638	-66.388	-0.223	0.115
-637.624	-99.665	-0.175	-0.057
-636.609	-168.111	-0.382	-0.019
-635.595	-29.631	0.247	0.184
-634.580	-21.184	-0.203	-0.162
-633.565	105.374	-0.114	-0.177
-632.551	474.189	0.103	0.304
-631.536	-82.638	-0.210	-0.089
-630.522	122.140	-0.190	-0.311
-629.507	59.282	-0.245	0.316
-628.492	-102.034	-0.448	-0.140
-627.478	-172.423	-0.229	0.009
-626.463	53.106	0.170	-0.212
-625.449	81.327	0.071	0.101
-624.434	-25.187	0.161	-0.124
-623.419	51.199	-0.191	-0.238
-622.405	205.453	-0.170	0.345
-621.390	633.344	0.121	-0.403
-620.376	105.342	0.151	-0.234
-619.361	-46.361	-0.276	0.177
-618.346	249.108	-0.151	0.336
-617.332	-116.292	-0.118	0.028
-616.317	-95.701	0.264	0.092
-615.303	-122.023	-0.193	0.041
-614.288	-200.000	0.016	-0.263
-613.273	103.696	0.135	-0.208
-612.259	-200.000	0.045	0.310
-611.244	-61.494	0.319	0.174
-610.230	11.010	-0.181	-0.180
-609.215	-34.265	0.279	-0.199
-608.201	-0.886	-0.022	0.021
-607.186	-200.000	-0.012	0.569
-606.171	-147.503	-0.165	0.018
-605.157	142.072	0.145	-0.252
-604.142	800.000	0.062	0.256
-603.128	-117.193	0.064	-0.015
-602.113	-161.939	-0.144	0.009
-601.098	-140.573	-0.531	0.071
-600.084	41.086	0.387	0.457
-599.069	-120.939	0.159	-0.035
-598.055	-115.606	0.233	0.057
-597.040	-28.555	-0.526	-0.395
-596.025	-200.000	0.035	-0.697
-595.011	-36.860	0.315	-0.220
-593.996	8.154	-0.272	0.267
-592.982	-3.796	0.082	-0.074
-591.967	189.333	0.148	-0.291
-590.952	800.000	-0.032	0.150
-589.938	-112.900	0.608	0.156
-588.923	-7.320	0.239	-0.211
-587.909	-200.000	0.062	-0.379
-586.894	-48.869	0.203	-0.127
-585.879	216.751	-0.221	-0.460
-584.865	142.670	0.208	-0.361
-583.850	-9.351	-0.184	0.160
-582.836	140.661	0.312	-0.539
-581.821	43.756	-0.044	-0.052
-580.806	-7.984	-0.244	-0.214
-579.792	-84.905	-0.497	-0.203
-578.777	226.913	-0.077	-0.164
-577.763	29.289	0.115	0.128
-576.748	-72.303	-0.253	0.122
-575.733	63.986	0.112	0.148
-574.719	-146.557	-0.434	-0.049
-573.704	-17.623	-0.335	-0.275
-572.690	77.313	-0.113	-0.157
-571.675	-102.083	0.150	-0.047
-570.661	-105.167	0.384	0.114
-569.646	-200.000	-0.036	-0.370
-568.631	-200.000	0.028	-0.224
-567.617	-30.421	0.101	-0.075
-566.602	-71.251	-0.348	-0.170
-565.588	285.012	-0.045	0.107
-564.573	800.000	-0.018	-0.087
-563.558	-200.000	0.017	0.160
-562.544	76.719	0.236	0.327
-561.529	22.865	-0.275	0.294
-560.515	2.567	-0.240	-0.227
-559.500	-28.786	-0.273	-0.204
-558.485	-200.000	0.019	0.310
-557.471	-200.000	-0.076	0.459
-556.456	50.362	-0.157	0.194
-555.442	800.000	0.045	-0.210
-554.427	-114.425	-0.268	0.067
-553.412	394.085	-0.137	-0.373
-552.398	800.000	0.031	0.164
-551.383	358.671	-0.061	0.160
-550.369	-138.928	-0.189	0.026
-549.354	182.595	0.139	-0.269
-548.339	-4.352	-0.061	-0.055
-547.325	36.566	0.054	0.062
-546.310	800.000	0.207	-0.823
-545.296	-95.293	-0.236	-0.082
-544.281	-136.163	0.022	-0.003
-543.266	-57.796	-0.140	0.079
-542.252	-73.663	-0.368	0.174
-541.237	5.553	-0.139	0.134
-540.223	-145.890	-0.278	0.032
-539.208	-50.148	0.074	-0.045
-538.193	-182.202	0.270	-0.006
-537.179	-131.750	0.052	-0.009
-536.164	-156.834	-0.308	0.024
-535.150	800.000	-0.037	-0.169
-534.135	329.105	0.170	0.427
-533.121	-130.586	0.203	-0.035
-532.106	-13.728	-0.438	-0.368
-531.091	800.000	-0.027	-0.122
-530.077	-164.780	0.494	-0.029
-529.062	173.215	0.139	-0.261
-528.048	-119.569	-0.502	-0.112
-527.033	-38.432	0.445	0.306
-526.018	110.011	-0.140	0.219
-525.004	-24.123	-0.262	0.203
-523.989	-200.000	-0.090	0.669
-522.975	612.373	0.069	0.225
-521.960	-200.000	-0.003	-0.050
-520.945	-200.000	0.003	0.295
-519.931	-126.803	-0.405	0.077
-518.916	-176.582	-0.321	-0.011
-517.902	-123.632	0.329	-0.067
-516.887	188.168	0.172	-0.336
-515.872	-44.772	-0.326	0.211
-514.858	99.628	0.098	0.148
-513.843	-62.190	0.100	-0.054
-512.829	-42.053	0.257	0.171
-511.814	21.246	0.174	-0.184
-510.799	27.836	-0.284	0.311
-509.785	489.768	-0.103	-0.308
-508.770	274.487	0.112	-0.259
-507.756	-168.549	0.422	-0.021
-506.741	757.678	-0.078	-0.275
-505.726	-158.879	-0.572	0.042
-504.712	16.005	-0.219	0.224
-503.697	55.463	-0.271	0.342
-502.683	-149.754	-0.506	-0.051
-501.668	-64.571	0.184	-0.097
-500.653	-200.000	-0.030	0.282
-499.639	236.309	-0.122	-0.264
-498.624	-105.055	-0.706	-0.209
-497.610	49.628	0.155	-0.190
-496.595	800.000	-0.132	0.512
-495.581	522.605	-0.104	0.319
-494.566	412.723	-0.139	-0.386
-493.551	148.878	0.184	0.325
-492.537	193.922	0.256	-0.505
-491.522	-125.452	0.317	-0.062
-490.508	-5.746	-0.411	0.365
-489.493	-139.922	-0.068	0.009
-488.478	538.950	-0.234	-0.728
-487.464	106.164	0.129	0.199
-486.449	-41.187	0.141	-0.095
-485.435	568.313	-0.071	0.225
-484.420	-54.781	-0.502	-0.294
-483.405	404.307	-0.151	-0.415
-482.391	-200.000	0.033	0.196
-481.376	-122.224	-0.299	0.063
-480.362	-9.471	-0.160	-0.139
-479.347	-63.668	0.160	0.085
-478.332	800.000	0.019	0.074
-477.318	800.000	-0.036	-0.150
-476.303	43.125	0.212	-0.252
-475.289	-119.228	0.342	-0.077
-474.274	-90.122	0.357	0.134
-473.259	-128.834	0.248	0.045
-472.245	47.423	-0.155	0.188
-471.230	20.107	-0.312	-0.327
-470.216	510.025	0.010	0.030
-469.201	223.115	-0.077	-0.161
-468.186	-35.856	-0.300	-0.211
-467.172	177.298	-0.141	0.268
-466.157	-114.852	-0.353	-0.087
-465.143	-9.045	-0.429	0.373
-464.128	-170.609	-0.238	0.011
-463.113	-200.000	-0.073	0.427
-462.099	-105.770	-0.319	0.093
-461.084	-99.731	-0.146	-0.047
-460.070	-73.563	0.141	-0.067
-459.055	154.533	-0.068	0.123
-458.040	14.717	-0.254	-0.258
-457.026	-26.724	0.122	0.092
-456.011	23.563	0.197	-0.211
-454.997	-31.837	0.086	0.063
-453.982	108.649	0.110	-0.171
-452.968	-10.860	0.120	-0.102
-451.953	81.401	-0.169	-0.238
-450.938	113.539	-0.425	-0.671
-449.924	-103.183	-0.518	0.158
-448.909	-17.981	0.149	-0.121
-447.895	-139.503	0.282	0.039
-446.880	-97.398	0.345	0.116
-445.865	-50.477	-0.217	0.132
-444.851	-63.230	0.173	-0.092
-443.836	-39.886	-0.215	-0.145
-442.822	-200.000	0.038	-0.274
-441.807	-143.165	0.146	0.018
-440.792	-44.943	0.505	-0.326
-439.778	-6.738	0.329	-0.291
-438.763	95.718	-0.258	0.383
-437.749	-64.121	-0.543	0.286
-436.734	-36.661	0.164	-0.114
-435.719	519.154	-0.069	0.212
-434.705	-43.348	-0.387	-0.254
-433.690	-160.125	0.336	0.023
-432.676	90.921	0.230	-0.336
-431.661	14.606	0.190	-0.193
-430.646	22.498	0.456	-0.484
-429.632	-130.364	0.325	-0.057
-428.617	-200.000	-0.022	-0.151
-427.603	-57.023	0.256	-0.146
-426.588	-29.625	-0.247	0.183
-425.573	-59.156	0.359	0.200
-424.559	-80.021	-0.162	-0.070
-423.544	294.943	0.107	-0.256
-422.530	800.000	-0.044	-0.231
-421.515	800.000	-0.076	-0.360
-420.500	-200.000	-0.006	-0.315
-419.486	43.508	0.028	0.034
-418.471	-200.000	-0.005	-0.129
-417.457	-45.432	-0.464	0.298
-416.442	139.193	-0.163	-0.279
-415.428	-49.172	0.269	0.166
-414.413	-82.524	-0.312	-0.131
-413.398	265.234	0.224	0.507
-412.384	404.019	-0.077	-0.212
-411.369	800.000	0.019	0.093
-410.355	-37.909	-0.296	0.204
-409.340	47.461	-0.083	-0.100
-408.325	-139.076	-0.382	0.053
-407.311	-151.504	0.165	0.016
-406.296	355.587	0.097	0.252
-405.282	-37.242	0.161	0.111
-404.267	-10.841	0.048	0.041
-403.252	-126.889	0.282	-0.053
-402.238	-10.578	0.087	0.074
-401.223	-186.794	-0.175	0.003
-400.209	-155.865	0.562	0.046
-399.194	-60.055	0.084	-0.046
-398.179	196.371	0.160	-0.317
-397.165	137.091	-0.151	0.256
-396.150	-48.015	0.277	-0.173
-395.136	-68.277	0.181	0.091
-394.121	-76.056	-0.338	-0.154
-393.106	-109.845	0.020	-0.005
-392.092	189.947	-0.069	0.135
-391.077	-155.748	-0.310	-0.025
-390.063	491.410	0.090	-0.269
-389.048	-22.227	0.090	0.071
-388.033	6.424	0.367	-0.353
-387.019	7.864	-0.228	0.221
-386.004	205.779	-0.179	0.361
-384.990	420.082	0.097	0.269
-383.975	-200.000	0.014	0.465
-382.960	-200.000	0.072	-0.497
-381.946	-69.845	-0.521	-0.257
-380.931	-109.889	-0.332	0.090
-379.917	-200.000	0.020	-0.487
-378.902	800.000	-0.064	0.252
-377.888	69.331	0.110	0.147
-376.873	-101.832	0.223	-0.069
-375.858	-31.197	0.503	0.366
-374.844	-76.263	0.277	0.126
-373.829	275.206	-0.136	0.313
-372.815	800.000	0.005	0.023
-371.800	-63.378	-0.222	0.118
-370.785	-63.537	0.713	0.377
-369.771	255.241	0.129	0.287
-368.756	351.443	-0.011	0.029
-367.742	-127.590	-0.288	-0.054
-366.727	-97.698	0.616	0.205
-365.712	-200.000	-0.002	0.128
-364.698	-53.333	0.399	-0.236
-363.683	97.320	-0.235	-0.349
-362.669	150.912	0.125	-0.220
-361.654	800.000	0.041	0.171
-360.639	-99.468	0.264	-0.085
-359.625	-198.962	-0.233	0.002
-358.610	800.000	-0.068	0.271
-357.596	-81.156	0.231	-0.098
-356.581	505.012	-0.022	0.065
-355.566	-64.914	-0.642	0.335
-354.552	-12.862	-0.217	0.183
-353.537	-187.308	-0.051	-0.001
-352.523	285.300	0.236	-0.551
-351.508	23.416	-0.105	-0.112
-350.493	-144.556	-0.269	0.032
-349.479	-200.000	0.006	-0.092
-348.464	-200.000	0.039	-0.368
-347.450	346.760	-0.048	-0.124
-346.435	-39.050	0.054	0.037
-345.420	31.981	0.204	-0.228
-344.406	91.615	0.373	-0.542
-343.391	-135.210	-0.153	0.024
-342.377	-95.513	-0.556	0.192
-341.362	-171.301	-0.130	0.006
-340.348	-42.867	-0.408	0.267
-339.333	73.038	-0.215	0.291
-338.318	307.903	0.049	0.118
-337.304	800.000	-0.060	-0.301
-336.289	-11.534	-0.194	-0.165
-335.275	-57.884	0.370	-0.208
-334.260	-65.698	0.460	-0.238
-333.245	2.097	0.165	0.154
-332.231	-200.000	-0.007	-0.595
-331.216	250.834	-0.246	-0.542
-330.202	124.854	-0.132	-0.215
-329.187	219.290	-0.209	0.433
-328.172	598.540	0.056	-0.180
-327.158	-10.554	-0.690	0.590
-326.143	-200.000	0.001	0.219
-325.129	-45.947	0.397	0.252
-324.114	468.706	-0.061	-0.177
-323.099	364.735	-0.161	-0.421
-322.085	9.879	0.206	0.202
-321.070	-83.296	0.640	0.264
-320.056	155.631	0.065	-0.115
-319.041	585.001	-0.110	-0.351
-318.026	-200.000	-0.021	-0.399
-317.012	-16.069	-0.180	0.147
-315.997	-200.000	-0.058	0.383
-314.983	-200.000	0.027	0.515
-313.968	-105.857	-0.281	0.081
-312.953	-80.726	-0.126	-0.054
-311.939	-65.235	0.468	0.242
-310.924	-200.000	0.010	0.085
-309.910	2.588	-0.125	0.117
-308.895	76.563	0.231	0.317
-307.880	40.493	-0.178	0.207
-306.866	59.836	0.462	-0.589
-305.851	517.251	-0.127	0.385
-304.837	-115.123	0.475	0.115
-303.822	13.670	0.136	0.136
-302.807	24.873	0.246	0.263
-301.793	686.212	0.128	0.433
-300.778	203.902	0.095	-0.190
-299.764	46.560	-0.101	0.121
-298.749	-26.986	-0.311	-0.234
-297.735	232.663	-0.139	0.295
-296.720	-154.244	0.585	-0.050
-295.705	-146.624	0.601	0.067
-294.691	-35.463	-0.186	-0.130
-293.676	140.928	0.203	-0.346
-292.662	-122.663	0.443	0.092
-291.647	100.533	-0.063	-0.094
-290.632	-84.427	0.338	-0.137
-289.618	313.820	0.129	0.316
-288.603	44.149	-0.252	0.299
-287.589	0.742	0.192	-0.177
-286.574	-200.000	0.076	0.766
-285.559	731.308	-0.047	0.162
-284.545	22.758	-0.318	-0.336
-283.530	-200.000	-0.027	-0.437
-282.516	58.508	0.127	-0.160
-281.501	-60.592	0.342	-0.187
-280.486	-45.787	0.427	0.272
-279.472	141.455	-0.213	-0.365
-278.457	503.595	0.110	0.330
-277.443	-29.725	0.162	0.119
-276.428	800.000	-0.086	-0.444
-275.413	207.051	-0.248	0.500
-274.399	-105.212	-0.193	0.056
-273.384	-144.105	0.391	0.047
-272.370	53.435	-0.248	0.307
-271.355	800.000	0.045	0.180
-270.340	-112.584	-0.050	0.013
-269.326	-144.794	0.087	-0.010
-268.311	800.000	0.041	0.219
-267.297	67.888	-0.179	-0.237
-266.282	88.824	0.324	-0.465
-265.267	43.594	0.508	-0.599
-264.253	800.000	-0.010	0.040
-263.238	-107.105	-0.073	0.021
-262.224	-124.142	-0.072	0.014
-261.209	258.562	-0.163	-0.363
-260.195	266.536	-0.103	0.233
-259.180	304.175	-0.101	-0.244
-258.165	-88.661	0.453	-0.173
-257.151	206.400	0.118	0.237
-256.136	445.295	0.111	-0.316
-255.122	800.000	0.031	-0.163
-254.107	77.347	-0.346	-0.475
-253.092	800.000	0.129	0.543
-252.078	63.512	0.362	0.469
-251.063	55.208	0.116	0.145
-250.049	-97.278	-0.288	0.096
-249.034	-149.613	-0.295	-0.030
-248.019	-81.973	0.135	-0.057
-247.005	-200.000	-0.019	0.615
-245.990	-103.888	0.269	0.081
-244.976	-77.607	0.385	0.171
-243.961	-67.752	0.482	0.242
-242.946	-78.360	-0.305	0.134
-241.932	-200.000	0.080	-0.550
-240.917	-110.397	0.284	0.075
-239.903	-137.634	-0.284	0.041
-238.888	50.252	-0.120	-0.146
-237.873	-147.083	0.357	-0.039
-236.859	97.101	0.088	0.130
-235.844	-69.689	0.056	0.028
-234.830	-200.000	0.009	0.168
-233.815	-29.471	0.201	-0.148
-232.800	-69.686	0.365	0.179
-231.786	321.384	0.224	0.551
-230.771	-200.000	0.024	-0.188
-229.757	-34.665	-0.176	0.124
-228.742	-136.649	-0.302	-0.044
-227.727	-104.312	0.413	0.122
-226.713	390.559	0.169	-0.454
-225.698	-135.294	-0.157	0.024
-224.684	-154.002	-0.156	0.013
-223.669	260.321	-0.189	0.421
-222.655	-43.154	0.429	0.279
-221.640	-200.000	0.012	0.083
-220.625	800.000	0.082	-0.383
-219.611	800.000	0.025	-0.123
-218.596	-179.462	0.464	-0.013
-217.582	-125.967	0.479	-0.092
-216.567	359.064	-0.091	0.235
-215.552	148.210	0.144	-0.251
-214.538	212.724	0.171	0.348
-213.523	-110.758	0.331	0.087
-212.509	-60.498	-0.448	0.244
-211.494	-200.000	0.015	-0.319
-210.479	350.803	-0.061	-0.157
-209.465	-136.663	0.245	0.036
-208.450	52.895	-0.088	-0.108
-207.436	-47.873	-0.064	0.040
-206.421	-32.767	-0.168	0.120
-205.406	449.041	-0.090	0.258
-204.392	-200.000	0.022	-0.237
-203.377	-81.448	0.322	0.136
-202.363	-70.248	-0.272	-0.132
-201.348	253.651	0.093	0.205
-200.333	545.461	0.078	-0.241
-199.319	711.338	0.085	0.289
-198.304	800.000	0.086	0.326
-197.290	-103.790	0.411	-0.123
-196.275	32.672	0.256	0.284
-195.260	66.113	0.087	0.114
-194.246	-196.325	-0.078	-0.001
-193.231	-22.725	0.253	-0.196
-192.217	800.000	0.050	0.227
-191.202	225.226	-0.142	0.297
-190.187	112.507	0.374	-0.583
-189.173	-10.776	0.087	0.074
-188.158	-47.566	0.416	0.259
-187.144	11.285	-0.086	-0.084
-186.129	92.302	-0.122	-0.177
-185.114	-200.000	-0.006	-0.065
-184.100	-93.672	0.212	-0.075
-183.085	322.052	0.061	-0.149
-182.071	-110.417	0.821	-0.218
-181.056	41.511	0.350	0.407
-180.042	512.689	-0.176	0.531
-179.027	-128.857	-0.339	-0.061
-178.012	-30.642	-0.358	0.260
-176.998	-59.308	0.249	0.137
-175.983	-37.729	-0.414	-0.282
-174.969	-80.617	0.351	0.149
-173.954	-200.000	-0.032	-0.278
-172.939	745.903	0.121	0.422
-171.925	71.401	0.134	0.179
-170.910	374.555	0.176	0.464
-169.896	-53.823	0.193	0.113
-168.881	-130.296	-0.630	0.109
-167.866	46.406	-0.267	-0.318
-166.852	-96.367	0.162	0.055
-165.837	-133.816	-0.714	-0.113
-164.823	800.000	-0.045	0.254
-163.808	-46.898	0.409	0.256
-162.793	-61.021	0.235	-0.127
-161.779	-124.220	-0.332	-0.066
-160.764	-73.077	-0.601	0.282
-159.750	-70.951	-0.412	-0.198
-158.735	37.738	-0.259	0.295
-157.720	-35.664	-0.375	0.261
-156.706	-46.095	-0.431	-0.272
-155.691	-2.274	0.254	-0.229
-154.677	-150.793	-0.450	0.043
-153.662	90.043	0.171	-0.245
-152.647	-160.982	0.325	-0.022
-151.633	-89.836	0.196	0.073
-150.618	-83.469	-0.320	0.131
-149.604	-185.293	0.315	-0.006
-148.589	22.412	0.320	-0.336
-147.574	-60.711	0.362	-0.196
-146.560	-161.286	0.235	0.015
-145.545	-109.696	-0.210	-0.056
-144.531	800.000	0.081	0.370
-143.516	314.038	0.064	-0.155
-142.502	-11.630	0.392	-0.330
-141.487	-200.000	-0.053	0.429
-140.472	187.798	0.043	0.082
-139.458	800.000	0.035	-0.155
-138.443	-200.000	-0.007	-0.313
-137.429	-41.631	0.341	-0.224
-136.414	-200.000	-0.057	-0.360
-135.399	-83.404	-0.338	0.138
-134.385	-146.102	-0.065	-0.007
-133.370	-111.049	0.071	-0.019
-132.356	-200.000	0.040	-0.590
-131.341	-131.995	0.150	0.025
-130.326	24.742	0.568	-0.603
-129.312	-153.680	-0.286	-0.025
-128.297	48.691	0.007	-0.008
-127.283	-145.143	-0.216	0.025
-126.268	-11.540	-0.561	0.472
-125.253	60.227	-0.358	0.454
-124.239	-38.329	0.168	-0.114
-123.224	-1.079	-0.612	-0.555
-122.210	341.631	-0.034	0.087
-121.195	72.884	0.093	-0.125
-120.180	-68.962	0.126	0.062
