DTS Sentinel unit serial number:	SN409020Multiplexer serial number:	ORYXHardware model number:	OX4-SRSoftware version number:	ORYX F/W v3.00 Oryx Data Collector v3.7.2.0data status	okinstallation	HaddamTimeLapsedifferential loss correction	single-endedforward channel	channel 3reverse channel	N/Adate	2011/06/22time	10:26:17forward acquisition time	30.00reverse acquisition time	0.00gamma	498.7831k internal	0.1813k external	0.1813temperature offset calibration	1.0074default loss term (dB/km)	0.3790temperature slope calibration	1.3530multiplexer offset coefficient	1.0000multiplexer slope coefficient	1.0000fibre end	0.00T internal ref (°C)	30.03T ext. ref 1 (°C)	25.85T ext. ref 2 (°C)	0.23length (m)	temperature (°C)	Stokes	anti-Stokes-747.200	431.681	-0.120	-0.335
-746.185	-30.297	-0.092	0.067
-745.171	-80.774	0.242	0.103
-744.156	29.043	0.625	0.680
-743.142	537.290	-0.091	-0.280
-742.127	278.303	0.284	0.652
-741.112	-28.131	0.314	0.233
-740.098	300.487	-0.084	0.199
-739.083	-64.507	0.236	0.123
-738.069	-35.990	0.554	0.384
-737.054	12.716	0.111	-0.110
-736.039	-200.000	-0.016	0.330
-735.025	-92.007	0.476	0.172
-734.010	292.376	-0.032	0.076
-732.996	-123.428	-0.211	0.043
-731.981	-2.063	0.119	-0.107
-730.966	-69.725	-0.284	0.139
-729.952	-200.000	0.010	0.102
-728.937	-38.751	-0.151	-0.102
-727.923	-13.444	-0.181	-0.150
-726.908	-113.504	-0.238	0.059
-725.894	360.831	0.063	-0.163
-724.879	-196.728	0.249	0.002
-723.864	-165.660	-0.365	0.020
-722.850	-90.208	-0.677	-0.251
-721.835	-83.310	0.395	0.162
-720.821	334.153	-0.018	0.046
-719.806	68.732	0.144	0.189
-718.791	-105.954	0.370	-0.106
-717.777	-200.000	-0.100	-0.623
-716.762	180.222	0.282	-0.532
-715.748	-1.681	0.147	-0.132
-714.733	-73.458	-0.356	-0.166
-713.718	17.928	0.067	0.069
-712.704	135.093	0.165	-0.275
-711.689	365.564	0.149	0.385
-710.675	-25.158	0.084	0.064
-709.660	-47.245	-0.145	-0.090
-708.645	-134.687	0.317	-0.049
-707.631	-200.000	0.002	0.234
-706.616	-200.000	-0.012	0.312
-705.602	680.747	0.116	0.389
-704.587	183.618	-0.134	-0.254
-703.572	-200.000	-0.003	0.665
-702.558	-200.000	0.024	0.245
-701.543	-200.000	0.038	0.245
-700.529	-25.845	-0.077	0.058
-699.514	-59.189	-0.567	-0.312
-698.499	602.218	-0.167	-0.535
-697.485	543.789	0.015	-0.047
-696.470	-200.000	0.031	-0.190
-695.456	-67.707	0.269	0.134
-694.441	24.910	0.121	-0.129
-693.426	339.226	-0.287	-0.720
-692.412	66.104	-0.273	-0.355
-691.397	-57.175	-0.621	0.349
-690.383	-86.708	-0.263	0.103
-689.368	-109.215	0.459	-0.124
-688.354	-200.000	-0.047	0.290
-687.339	-200.000	-0.001	-0.248
-686.324	-200.000	-0.003	-0.241
-685.310	-200.000	-0.028	0.291
-684.295	-116.297	-0.548	0.129
-683.281	800.000	-0.150	0.561
-682.266	65.394	-0.272	0.353
-681.251	89.433	-0.275	-0.393
-680.237	-42.150	-0.315	-0.206
-679.222	-59.933	0.190	-0.104
-678.208	-61.898	0.435	-0.232
-677.193	91.752	0.167	0.240
-676.178	-152.709	0.303	-0.027
-675.164	-135.226	0.372	0.057
-674.149	-200.000	0.003	0.270
-673.135	-59.460	0.120	0.066
-672.120	359.692	-0.043	0.111
-671.105	-200.000	0.046	-0.291
-670.091	800.000	0.099	-0.409
-669.076	3.764	0.266	-0.248
-668.062	-30.506	-0.285	0.206
-667.047	-81.189	-0.171	-0.072
-666.032	5.695	0.092	-0.087
-665.018	65.519	0.238	-0.308
-664.003	-200.000	-0.004	-0.142
-662.989	-101.862	-0.119	-0.036
-661.974	321.730	0.053	-0.130
-660.959	-105.728	0.708	-0.203
-659.945	-46.296	-0.182	0.114
-658.930	-85.072	-0.398	-0.159
-657.916	-9.495	-0.044	0.037
-656.901	246.469	-0.088	0.190
-655.886	-187.083	-0.484	-0.008
-654.872	-5.749	-0.371	-0.325
-653.857	89.791	-0.180	-0.258
-652.843	364.621	0.148	0.382
-651.828	83.533	-0.039	-0.055
-650.814	221.683	0.233	-0.481
-649.799	443.556	-0.113	0.318
-648.784	-83.309	0.391	0.160
-647.770	-83.375	-0.195	0.079
-646.755	-200.000	0.130	0.001
-645.741	-55.037	-0.201	0.115
-644.726	17.828	-0.410	0.418
-643.711	321.561	0.158	-0.386
-642.697	-200.000	-0.033	-0.294
-641.682	800.000	-0.045	-0.256
-640.668	-113.189	-0.394	0.099
-639.653	800.000	-0.059	-0.272
-638.638	66.295	0.212	0.275
-637.624	28.661	-0.120	-0.130
-636.609	-183.710	-0.242	0.005
-635.595	779.845	0.147	-0.515
-634.580	800.000	0.064	0.229
-633.565	289.863	0.081	0.188
-632.551	118.276	-0.116	0.183
-631.536	442.965	-0.227	-0.639
-630.522	62.108	0.382	-0.487
-629.507	120.547	0.387	0.615
-628.492	-147.739	0.060	-0.006
-627.478	-200.000	-0.004	-0.110
-626.463	-75.623	-0.088	0.040
-625.449	800.000	0.043	-0.152
-624.434	-95.235	0.153	0.052
-623.419	-119.342	0.198	-0.044
-622.405	199.025	-0.099	-0.194
-621.390	18.690	-0.149	-0.152
-620.376	-21.061	0.126	0.099
-619.361	-33.199	0.446	-0.315
-618.346	121.787	-0.164	0.261
-617.332	-35.358	0.149	-0.103
-616.317	-200.000	0.042	-0.264
-615.303	463.256	0.177	-0.506
-614.288	-200.000	-0.030	-0.186
-613.273	70.574	0.329	0.435
-612.259	-200.000	0.011	0.363
-611.244	-18.400	0.094	-0.075
-610.230	4.712	-0.142	-0.134
-609.215	-86.700	-0.586	-0.228
-608.201	176.869	-0.110	-0.205
-607.186	-200.000	0.051	0.290
-606.171	-12.910	0.449	-0.373
-605.157	-130.988	-0.327	0.055
-604.142	-120.962	-0.113	-0.024
-603.128	188.002	0.216	-0.414
-602.113	409.752	-0.049	0.134
-601.098	-21.969	-0.504	-0.390
-600.084	-200.000	-0.014	0.163
-599.069	-67.819	0.388	-0.193
-598.055	119.975	-0.235	0.373
-597.040	-118.208	0.502	0.113
-596.025	-51.222	-0.193	0.115
-595.011	3.709	-0.366	-0.340
-593.996	800.000	-0.016	-0.074
-592.982	-113.616	-0.046	-0.011
-591.967	-200.000	0.019	-0.356
-590.952	29.782	-0.100	0.109
-589.938	-79.180	-0.258	-0.111
-588.923	-51.650	0.359	-0.213
-587.909	118.495	0.177	-0.278
-586.894	15.693	0.177	0.178
-585.879	-55.867	-0.133	-0.076
-584.865	-140.830	0.260	-0.034
-583.850	-131.169	0.411	0.069
-582.836	-200.000	0.003	0.170
-581.821	-72.458	-0.430	-0.202
-580.806	137.829	-0.198	-0.331
-579.792	-22.344	0.111	0.085
-578.777	-80.645	-0.121	-0.051
-577.763	-58.791	0.142	0.078
-576.748	-200.000	-0.005	0.186
-575.733	40.203	-0.191	-0.219
-574.719	-32.071	-0.277	0.197
-573.704	447.692	0.176	0.496
-572.690	235.613	0.088	0.186
-571.675	800.000	-0.046	0.253
-570.661	484.212	0.073	0.213
-569.646	-46.919	0.155	0.096
-568.631	-189.806	-0.552	0.008
-567.617	286.861	-0.158	0.366
-566.602	-94.540	0.473	0.163
-565.588	-158.182	0.317	-0.023
-564.573	-167.233	-0.446	0.023
-563.558	52.989	-0.042	0.051
-562.544	-83.802	-0.429	0.173
-561.529	215.276	-0.102	0.208
-560.515	-91.055	0.157	-0.057
-559.500	-160.353	-0.184	-0.012
-558.485	243.941	-0.214	0.460
-557.471	-154.865	-0.162	-0.013
-556.456	800.000	0.113	-0.559
-555.442	-58.185	-0.127	0.070
-554.427	-34.632	-0.497	0.345
-553.412	3.344	0.399	0.370
-552.398	-142.448	0.590	0.073
-551.383	-139.911	0.181	0.024
-550.369	-8.909	0.181	-0.154
-549.354	544.847	-0.085	0.260
-548.339	-0.216	-0.110	-0.100
-547.325	-7.182	-0.029	-0.025
-546.310	-39.550	0.435	0.289
-545.296	-200.000	-0.064	-0.526
-544.281	-117.215	0.281	-0.065
-543.266	-59.977	-0.428	0.232
-542.252	79.927	0.161	0.221
-541.237	-39.389	-0.172	0.115
-540.223	8.234	0.050	-0.048
-539.208	-65.062	-0.591	-0.303
-538.193	-98.642	-0.302	0.097
-537.179	448.619	0.036	0.101
-536.164	-88.618	0.324	-0.122
-535.150	-200.000	-0.019	-0.318
-534.135	-124.134	-0.254	0.050
-533.121	-102.383	0.264	0.080
-532.106	-0.531	0.249	-0.225
-531.091	-120.374	-0.346	0.074
-530.077	-28.141	0.548	0.402
-529.062	31.968	-0.202	-0.222
-528.048	-200.000	-0.010	0.102
-527.033	51.279	-0.204	0.247
-526.018	-105.924	-0.451	0.128
-525.004	800.000	-0.023	-0.106
-523.989	-96.480	0.356	-0.119
-522.975	-50.962	0.244	-0.145
-521.960	-15.365	-0.239	0.194
-520.945	-64.420	-0.200	-0.103
-519.931	-48.892	0.291	0.177
-518.916	-143.603	0.474	0.057
-517.902	109.919	-0.162	0.247
-516.887	-200.000	0.013	0.271
-515.872	116.280	-0.177	0.277
-514.858	-54.624	-0.632	-0.362
-513.843	16.561	0.265	-0.266
-512.829	17.423	-0.395	0.399
-511.814	-200.000	-0.028	0.237
-510.799	-68.224	0.031	-0.015
-509.785	-93.058	-0.324	0.114
-508.770	-150.737	0.396	-0.038
-507.756	-118.794	-0.685	-0.152
-506.741	-85.595	0.320	-0.126
-505.726	16.981	0.180	-0.181
-504.712	-7.790	-0.157	0.134
-503.697	148.801	-0.257	0.443
-502.683	-83.148	0.563	0.229
-501.668	-82.757	-0.305	0.125
-500.653	57.418	0.101	0.125
-499.639	-6.413	0.166	0.144
-498.624	728.050	0.068	0.231
-497.610	-13.429	0.279	0.229
-496.595	-46.484	0.554	0.345
-495.581	800.000	-0.105	0.504
-494.566	-90.267	-0.114	0.042
-493.551	-138.116	-0.309	-0.043
-492.537	-59.525	0.378	-0.205
-491.522	-99.150	0.062	-0.020
-490.508	-182.528	0.163	-0.004
-489.493	14.380	-0.448	0.444
-488.478	-122.612	0.488	0.100
-487.464	-113.812	-0.043	0.011
-486.449	-200.000	0.035	-0.255
-485.435	-110.696	0.318	0.083
-484.420	-63.519	0.145	0.075
-483.405	-35.626	0.211	0.145
-482.391	-111.838	-0.113	-0.029
-481.376	34.692	0.081	-0.090
-480.362	-88.465	-0.320	-0.121
-479.347	130.947	-0.201	-0.329
-478.332	800.000	-0.079	-0.310
-477.318	-25.023	0.442	-0.332
-476.303	-34.852	0.243	-0.168
-475.289	1.614	-0.707	-0.646
-474.274	70.948	-0.270	-0.356
-473.259	-156.514	-0.170	0.013
-472.245	-56.638	-0.222	-0.125
-471.230	32.191	0.222	-0.243
-470.216	-75.448	0.162	0.073
-469.201	13.513	-0.145	-0.143
-468.186	9.959	-0.070	-0.067
-467.172	-57.910	0.340	0.188
-466.157	91.059	0.361	0.515
-465.143	76.450	0.195	-0.262
-464.128	-200.000	0.050	0.350
-463.113	482.193	0.059	0.171
-462.099	-71.390	0.185	-0.087
-461.084	5.983	0.500	-0.470
-460.070	-31.899	0.181	-0.128
-459.055	-8.764	0.344	0.293
-458.040	-95.797	-0.520	-0.175
-457.026	-25.336	-0.210	0.158
-456.011	-200.000	0.051	-0.324
-454.997	129.064	-0.347	-0.564
-453.982	119.090	-0.099	0.156
-452.968	402.706	-0.084	-0.226
-451.953	190.063	-0.164	0.313
-450.938	-200.000	0.036	0.217
-449.924	800.000	0.035	-0.135
-448.909	-172.183	0.133	-0.005
-447.895	-200.000	-0.001	-0.554
-446.880	498.488	-0.123	-0.362
-445.865	-83.203	0.176	-0.071
-444.851	457.793	0.064	-0.180
-443.836	-146.417	-0.416	0.046
-442.822	-143.005	-0.626	0.076
-441.807	-145.834	-0.029	0.003
-440.792	-150.287	-0.309	-0.030
-439.778	-45.097	0.292	0.184
-438.763	-0.303	0.112	0.101
-437.749	-200.000	-0.001	-0.323
-436.734	63.291	0.050	0.063
-435.719	-200.000	-0.020	-0.183
-434.705	-107.316	-0.206	0.057
-433.690	-115.441	0.326	-0.077
-432.676	-138.344	0.651	-0.090
-431.661	53.060	-0.195	0.237
-430.646	-147.954	-0.129	0.013
-429.632	800.000	0.106	0.550
-428.617	-45.225	-0.576	0.362
-427.603	-200.000	0.042	-0.303
-426.588	-136.306	0.584	0.085
-425.573	-11.705	0.200	-0.166
-424.559	82.480	-0.146	0.202
-423.544	-150.305	1.094	0.106
-422.530	8.546	0.311	0.297
-421.515	-166.503	0.261	-0.014
-420.500	-200.000	-0.010	-0.436
-419.486	662.147	-0.138	0.454
-418.471	-37.547	0.243	0.164
-417.457	469.897	-0.215	-0.616
-416.442	-107.125	0.338	0.094
-415.428	-124.959	0.261	-0.050
-414.413	-4.017	-0.234	-0.205
-413.398	138.394	0.036	0.060
-412.384	-200.000	-0.082	0.578
-411.369	47.681	0.078	-0.092
-410.355	737.246	0.101	0.344
-409.340	-88.684	0.179	-0.067
-408.325	-56.929	0.224	-0.125
-407.311	28.336	-0.205	0.220
-406.296	-15.490	0.355	-0.287
-405.282	-15.302	0.168	0.136
-404.267	-138.697	0.424	0.058
-403.252	-200.000	-0.008	-0.064
-402.238	203.306	0.053	-0.105
-401.223	10.678	-0.281	-0.271
-400.209	-79.668	-0.171	0.073
-399.194	-41.581	-0.325	0.211
-398.179	-91.048	-0.273	-0.099
-397.165	-49.163	-0.469	-0.283
-396.150	-151.621	0.088	-0.008
-395.136	-105.631	-0.089	0.025
-394.121	-1.642	0.342	-0.305
-393.106	112.819	-0.235	-0.361
-392.092	21.718	0.344	-0.354
-391.077	-76.389	-0.366	-0.162
-390.063	-155.012	0.129	-0.011
-389.048	-79.424	0.107	-0.045
-388.033	169.533	-0.181	0.328
-387.019	-1.748	-0.304	0.270
-386.004	-93.659	0.360	-0.125
-384.990	-14.388	0.530	-0.431
-383.975	-200.000	0.010	0.347
-382.960	-85.800	0.258	-0.101
-381.946	800.000	-0.140	0.662
-380.931	14.097	0.069	-0.067
-379.917	79.250	-0.129	0.175
-378.902	4.476	0.159	-0.148
-377.888	-38.682	0.341	-0.227
-376.873	-71.556	0.654	-0.308
-375.858	-140.452	-0.202	-0.026
-374.844	451.052	0.070	0.197
-373.829	-31.157	0.523	0.372
-372.815	-3.454	-0.181	-0.159
-371.800	800.000	-0.034	0.124
-370.785	78.855	-0.277	-0.375
-369.771	24.938	0.134	0.141
-368.756	-116.595	0.116	-0.027
-367.742	-178.197	-0.482	-0.014
-366.727	432.029	0.171	0.470
-365.712	-105.113	-0.344	0.099
-364.698	-105.978	-0.335	0.095
-363.683	-117.714	-0.397	-0.090
-362.669	-126.501	-0.165	-0.031
-361.654	220.312	-0.177	0.361
-360.639	-185.350	0.479	0.009
-359.625	177.781	0.168	0.310
-358.610	69.459	0.284	-0.370
-357.596	-200.000	-0.026	0.564
-356.581	-65.095	-0.532	0.270
-355.566	-28.618	0.288	-0.209
-354.552	-87.315	0.207	-0.079
-353.537	499.942	0.069	-0.203
-352.523	-200.000	-0.048	-0.543
-351.508	-16.609	-0.498	-0.398
-350.493	41.507	-0.282	0.323
-349.479	75.097	-0.116	0.155
-348.464	-200.000	0.083	-0.602
-347.450	760.376	-0.047	-0.161
-346.435	-157.367	-0.181	-0.014
-345.420	-82.030	-0.260	0.107
-344.406	-65.769	0.070	-0.035
-343.391	-200.000	-0.030	0.203
-342.377	-21.791	-0.051	0.039
-341.362	104.024	-0.217	-0.323
-340.348	40.120	0.231	0.262
-339.333	75.732	-0.151	0.201
-338.318	-200.000	-0.016	0.162
-337.304	-89.823	-0.262	-0.096
-336.289	-110.029	0.233	-0.061
-335.275	-25.507	0.194	-0.144
-334.260	558.105	0.099	0.304
-333.245	25.815	-0.207	0.218
-332.231	479.890	0.087	-0.252
-331.216	-60.375	0.159	0.085
-330.202	-78.196	0.272	-0.118
-329.187	800.000	0.103	-0.499
-328.172	391.625	0.193	-0.507
-327.158	126.855	0.115	0.184
-326.143	-200.000	-0.035	-0.286
-325.129	-59.903	0.476	0.256
-324.114	-200.000	0.005	-0.036
-323.099	300.522	-0.077	-0.179
-322.085	-18.467	0.233	-0.183
-321.070	800.000	0.088	-0.434
-320.056	21.275	-0.348	-0.356
-319.041	-135.015	-0.482	0.073
-318.026	800.000	-0.161	0.739
-317.012	38.340	0.313	-0.352
-315.997	-200.000	0.112	-0.671
-314.983	800.000	0.098	0.547
-313.968	577.831	-0.058	-0.181
-312.953	294.750	-0.211	-0.490
-311.939	-6.355	0.216	-0.186
-310.924	183.072	0.055	-0.102
-309.910	-53.678	0.254	-0.146
-308.895	-200.000	-0.015	0.148
-307.880	-10.950	0.211	0.176
-306.866	310.475	0.039	0.093
-305.851	800.000	0.067	-0.243
-304.837	73.698	0.074	0.097
-303.822	-200.000	0.014	-0.148
-302.807	-14.904	0.128	0.104
-301.793	267.722	0.162	-0.359
-300.778	36.008	0.105	-0.117
-299.764	-21.852	-0.436	0.334
-298.749	733.346	-0.103	0.351
-297.735	-170.636	-0.098	-0.004
-296.720	220.783	0.124	-0.251
-295.705	192.686	-0.069	-0.131
-294.691	-148.500	-0.132	0.013
-293.676	94.864	0.371	0.532
-292.662	-31.462	0.301	-0.213
-291.647	77.831	0.313	-0.421
-290.632	-157.696	-0.212	-0.016
-289.618	-4.905	-0.186	0.162
-288.603	394.377	0.049	-0.128
-287.589	103.800	-0.309	-0.458
-286.574	-32.811	-0.436	0.305
-285.559	-200.000	-0.007	0.060
-284.545	14.544	0.379	0.373
-283.530	-161.528	-0.499	0.032
-282.516	-28.734	0.400	0.289
-281.501	-3.943	-0.253	0.221
-280.486	283.041	-0.121	0.274
-279.472	226.702	-0.294	0.603
-278.457	-161.187	-0.518	0.034
-277.443	135.600	-0.067	-0.110
-276.428	-200.000	0.098	-0.813
-275.413	-200.000	0.023	-0.378
-274.399	-118.216	0.361	-0.080
-273.384	-20.929	0.073	-0.057
-272.370	29.951	0.193	-0.207
-271.355	-163.234	0.402	0.024
-270.340	-115.479	0.315	0.074
-269.326	113.062	0.080	0.122
-268.311	111.847	-0.087	-0.133
-267.297	-143.761	-0.305	0.036
-266.282	70.602	-0.097	0.126
-265.267	40.262	0.116	-0.131
-264.253	800.000	-0.050	0.257
-263.238	-200.000	-0.019	0.349
-262.224	-101.115	0.399	-0.122
-261.209	800.000	-0.144	-0.635
-260.195	-200.000	0.033	-0.310
-259.180	106.140	0.152	-0.227
-258.165	30.199	0.122	0.132
-257.151	150.130	0.168	-0.289
-256.136	71.000	0.141	-0.185
-255.122	419.060	0.106	0.287
-254.107	800.000	-0.035	-0.150
-253.092	-10.015	-0.243	0.203
-252.078	-102.750	-0.369	0.110
-251.063	49.870	-0.302	-0.358
-250.049	89.369	0.197	-0.277
-249.034	46.819	0.178	-0.208
-248.019	-56.279	-0.410	0.229
-247.005	-134.723	-0.577	-0.087
-245.990	165.497	-0.231	-0.412
-244.976	-22.947	0.214	0.162
-243.961	33.003	-0.136	0.148
-242.946	-200.000	0.079	0.450
-241.932	-200.000	0.013	-0.239
-240.917	-82.516	-0.116	-0.047
-239.903	-49.180	-0.477	-0.286
-238.888	-30.259	0.032	-0.023
-237.873	-84.027	-0.153	0.061
-236.859	486.386	0.121	0.350
-235.844	-129.375	-0.413	0.072
-234.830	13.269	0.195	0.190
-233.815	-70.586	-0.223	0.105
-232.800	-47.068	-0.418	-0.256
-231.786	-200.000	0.039	0.516
-230.771	-200.000	-0.007	0.721
-229.757	800.000	0.048	0.237
-228.742	-53.555	0.263	-0.151
-227.727	342.381	-0.091	-0.226
-226.713	-200.000	-0.013	-0.535
-225.698	-200.000	-0.053	-0.416
-224.684	115.041	-0.414	0.636
-223.669	-25.957	-0.466	-0.344
-222.655	-77.050	0.444	-0.194
-221.640	-9.077	0.353	0.297
-220.625	-200.000	0.004	0.938
-219.611	-113.745	0.233	-0.057
-218.596	501.429	0.097	0.283
-217.582	-125.086	-0.285	-0.055
-216.567	5.551	0.325	0.301
-215.552	223.623	-0.082	-0.168
-214.538	-71.622	-0.202	-0.094
-213.523	-10.404	0.046	0.038
-212.509	-135.916	0.234	-0.034
-211.494	-166.642	-0.736	-0.038
-210.479	-200.000	-0.005	-0.226
-209.465	800.000	-0.016	0.072
-208.450	361.673	0.145	-0.366
-207.436	-38.035	-0.267	-0.177
-206.421	-200.000	-0.037	0.567
-205.406	-78.195	0.293	-0.126
-204.392	-137.245	-0.302	0.043
-203.377	-141.671	-0.255	-0.032
-202.363	-129.092	0.188	-0.033
-201.348	-104.105	0.587	0.171
-200.333	101.720	0.055	-0.080
-199.319	-60.516	-0.440	-0.234
-198.304	-94.830	-0.298	0.101
-197.290	-67.789	0.314	-0.154
-196.275	-108.869	-0.460	-0.122
-195.260	-200.000	0.016	-0.261
-194.246	16.051	0.251	0.248
-193.231	-92.638	0.247	0.086
-192.217	-159.569	-0.519	-0.036
-191.202	-200.000	-0.033	-0.312
-190.187	-135.002	-0.199	0.030
-189.173	-48.819	-0.209	0.125
-188.158	-200.000	-0.111	0.621
-187.144	125.080	0.158	0.250
-186.129	-46.249	-0.364	0.224
-185.114	56.185	0.040	0.049
-184.100	-40.053	-0.021	-0.014
-183.085	-128.399	-0.178	0.032
-182.071	-138.706	0.390	0.053
-181.056	-171.537	-0.625	-0.026
-180.042	-200.000	0.013	0.404
-179.027	-15.216	0.392	-0.314
-178.012	800.000	-0.010	0.039
-176.998	30.700	0.192	0.206
-175.983	-50.808	0.242	0.142
-174.969	-101.164	-0.308	0.094
-173.954	-23.246	-0.083	-0.063
-172.939	437.356	0.076	-0.210
-171.925	145.316	-0.281	0.473
-170.910	295.176	0.215	0.496
-169.896	103.539	0.231	0.341
-168.881	5.027	-0.255	-0.235
-167.866	-72.833	-0.275	-0.127
-166.852	141.376	0.157	0.261
-165.837	231.620	-0.022	-0.045
-164.823	-115.764	0.219	-0.051
-163.808	-198.734	0.252	0.002
-162.793	-16.651	0.430	0.341
-161.779	-200.000	0.015	-0.111
-160.764	800.000	-0.055	0.218
-159.750	-135.423	-0.190	-0.028
-158.735	44.136	0.350	0.403
-157.720	-58.888	0.235	0.127
-156.706	105.530	-0.154	-0.229
-155.691	-55.983	-0.534	-0.298
-154.677	324.260	-0.052	0.126
-153.662	727.057	0.083	-0.280
-152.647	-200.000	0.044	-0.331
-151.633	-55.174	-0.144	0.081
-150.618	-143.888	0.023	-0.003
-149.604	-71.646	0.340	-0.158
-148.589	-14.633	0.253	-0.204
-147.574	-200.000	0.064	0.645
-146.560	-200.000	-0.039	0.286
-145.545	-170.215	0.395	0.017
-144.531	269.916	-0.070	0.155
-143.516	74.700	-0.204	-0.270
-142.502	-40.923	0.373	-0.241
-141.487	-200.000	0.040	-0.484
-140.472	192.051	0.069	-0.130
-139.458	-149.055	-0.418	0.042
-138.443	62.548	-0.041	0.051
-137.429	-37.280	0.032	-0.022
-136.414	-179.968	0.600	0.016
-135.399	115.836	0.161	-0.247
-134.385	300.053	-0.036	0.083
-133.370	770.575	0.077	0.266
-132.356	-200.000	0.394	0.001
-131.341	146.846	0.105	0.178
-130.326	-200.000	-0.022	-0.180
-129.312	75.388	0.091	0.120
-128.297	-118.007	0.395	-0.088
-127.283	-140.039	-0.285	-0.037
-126.268	-71.210	-0.179	0.084
-125.253	-200.000	-0.009	0.251
-124.239	-146.957	0.325	0.035
-123.224	-99.555	0.176	0.055
-122.210	29.499	-0.303	0.323
-121.195	-125.186	0.137	-0.026
