DTS Sentinel unit serial number:	SN409020Multiplexer serial number:	ORYXHardware model number:	OX4-SRSoftware version number:	ORYX F/W v3.00 Oryx Data Collector v3.7.2.0data status	okinstallation	HaddamTimeLapsedifferential loss correction	single-endedforward channel	channel 3reverse channel	N/Adate	2011/06/21time	21:01:17forward acquisition time	30.00reverse acquisition time	0.00gamma	498.7831k internal	0.1767k external	0.1767temperature offset calibration	1.0074default loss term (dB/km)	0.3790temperature slope calibration	1.3530multiplexer offset coefficient	1.0000multiplexer slope coefficient	1.0000fibre end	0.00T internal ref (°C)	27.84T ext. ref 1 (°C)	20.67T ext. ref 2 (°C)	0.03length (m)	temperature (°C)	Stokes	anti-Stokes-747.200	-100.844	0.344	-0.111
-746.185	-200.000	0.093	0.605
-745.171	-91.899	-0.544	0.202
-744.156	-200.000	-0.086	0.613
-743.142	432.345	-0.124	-0.357
-742.127	59.798	-0.217	0.282
-741.112	-150.953	0.321	0.031
-740.098	-77.950	-0.081	0.036
-739.083	-150.338	0.383	0.038
-738.069	-93.756	0.086	0.031
-737.054	215.149	0.161	-0.337
-736.039	199.261	0.116	0.235
-735.025	108.346	0.244	-0.384
-734.010	109.804	-0.150	-0.237
-732.996	800.000	0.122	-0.457
-731.981	-171.508	-0.250	0.011
-730.966	128.984	0.133	0.223
-729.952	-200.000	0.027	0.372
-728.937	-82.415	0.068	-0.029
-727.923	-135.316	-0.411	-0.064
-726.908	-200.000	0.008	0.145
-725.894	-142.023	0.089	0.012
-724.879	-61.945	0.289	0.158
-723.864	-65.027	0.400	-0.212
-722.850	11.887	-0.202	0.204
-721.835	173.546	-0.271	-0.516
-720.821	800.000	-0.002	0.010
-719.806	-200.000	0.015	0.219
-718.791	800.000	0.101	-0.581
-717.777	3.495	0.313	-0.300
-716.762	-51.081	-0.387	-0.238
-715.748	-78.890	-0.611	-0.273
-714.733	115.975	0.074	-0.120
-713.718	-72.908	-0.201	-0.097
-712.704	-200.000	-0.003	-0.118
-711.689	-69.156	-0.375	-0.189
-710.675	-112.479	0.489	-0.127
-709.660	127.485	0.233	-0.390
-708.645	231.207	0.234	-0.506
-707.631	56.216	0.072	0.092
-706.616	-94.519	-0.048	-0.017
-705.602	379.579	-0.051	-0.137
-704.587	425.842	-0.089	-0.253
-703.572	-200.000	0.028	-0.906
-702.558	-69.530	0.221	-0.111
-701.543	61.701	0.320	-0.419
-700.529	-114.011	0.539	0.136
-699.514	275.204	0.140	-0.328
-698.499	-106.319	0.637	0.186
-697.485	-102.575	-0.371	0.116
-696.470	-91.631	-0.369	0.137
-695.456	-146.739	-0.361	0.041
-694.441	440.534	0.209	-0.603
-693.426	-91.579	-0.654	-0.243
-692.412	-99.454	0.157	-0.052
-691.397	65.776	-0.225	0.299
-690.383	-128.525	0.326	0.060
-689.368	1.110	0.187	0.176
-688.354	739.045	0.040	0.141
-687.339	50.034	-0.216	-0.268
-686.324	-2.492	0.204	-0.188
-685.310	54.159	-0.267	-0.337
-684.295	134.615	-0.115	0.197
-683.281	800.000	-0.023	0.111
-682.266	-153.414	-0.161	-0.014
-681.251	12.106	0.395	-0.399
-680.237	-14.684	-0.482	-0.406
-679.222	-10.304	-0.263	-0.229
-678.208	-84.217	-0.500	-0.207
-677.193	-200.000	-0.029	-0.321
-676.178	365.071	0.119	-0.315
-675.164	-147.815	0.302	0.033
-674.149	74.066	0.165	0.228
-673.135	122.109	0.011	0.018
-672.120	800.000	0.062	-0.298
-671.105	25.234	-0.072	-0.078
-670.091	122.660	-0.374	-0.615
-669.076	-49.963	-0.511	-0.317
-668.062	-105.061	-0.469	0.140
-667.047	-200.000	-0.044	-0.281
-666.032	800.000	-0.083	-0.474
-665.018	800.000	-0.063	-0.292
-664.003	-168.716	0.078	0.004
-662.989	-52.125	0.770	-0.468
-661.974	-44.916	-0.231	0.151
-660.959	-55.982	0.221	-0.129
-659.945	-98.864	0.192	0.064
-658.930	-200.000	-0.006	-0.566
-657.916	-154.079	0.082	-0.007
-656.901	-18.506	-0.433	0.354
-655.886	-78.961	-0.261	0.116
-654.872	800.000	-0.122	0.510
-653.857	-200.000	0.015	-0.105
-652.843	88.112	0.301	-0.439
-651.828	126.846	0.165	0.275
-650.814	-65.222	0.184	0.097
-649.799	15.245	0.170	-0.174
-648.784	558.779	0.149	0.475
-647.770	-200.000	-0.008	-0.164
-646.755	-148.346	0.312	-0.033
-645.741	-9.963	0.139	-0.121
-644.726	-121.458	0.302	0.065
-643.711	-54.706	0.190	-0.112
-642.697	479.169	-0.039	0.118
-641.682	-14.367	0.505	0.426
-640.668	-79.164	0.329	-0.146
-639.653	231.762	0.123	-0.266
-638.638	259.399	0.194	-0.440
-637.624	-197.158	0.043	0.000
-636.609	-51.616	0.385	-0.235
-635.595	-24.711	0.536	-0.417
-634.580	-200.000	-0.059	-0.587
-633.565	55.024	0.185	0.235
-632.551	37.574	0.089	0.103
-631.536	44.576	0.269	0.324
-630.522	-200.000	0.011	0.144
-629.507	-93.930	0.515	-0.184
-628.492	800.000	0.091	-0.346
-627.478	-92.146	-0.200	-0.074
-626.463	-49.766	-0.361	0.224
-625.449	241.145	-0.066	-0.145
-624.434	318.398	-0.115	-0.286
-623.419	-200.000	0.012	-0.278
-622.405	164.509	0.055	0.103
-621.390	-81.110	0.271	0.117
-620.376	-91.414	0.200	-0.074
-619.361	-97.993	-0.737	0.247
-618.346	520.468	-0.029	-0.089
-617.332	-200.000	0.017	0.244
-616.317	-89.668	-0.241	-0.092
-615.303	239.316	0.194	-0.424
-614.288	800.000	0.018	-0.084
-613.273	526.948	0.048	0.148
-612.259	-115.116	-0.082	-0.020
-611.244	-200.000	0.062	-0.536
-610.230	164.278	-0.202	-0.374
-609.215	90.526	0.322	-0.472
-608.201	-67.807	0.186	-0.095
-607.186	-124.898	-0.353	0.071
-606.171	-200.000	-0.025	-0.205
-605.157	-200.000	0.002	-0.035
-604.142	405.629	-0.079	-0.218
-603.128	331.509	-0.088	-0.222
-602.113	142.447	-0.139	0.242
-601.098	-153.840	0.409	-0.036
-600.084	103.700	0.085	0.131
-599.069	-81.964	0.081	0.034
-598.055	-178.288	0.406	0.012
-597.040	-200.000	0.060	-0.614
-596.025	727.929	0.069	-0.243
-595.011	-132.203	-0.312	0.052
-593.996	800.000	-0.089	0.373
-592.982	-51.159	-0.186	0.114
-591.967	-139.614	-0.274	-0.038
-590.952	266.012	0.088	0.202
-589.938	-179.592	0.154	0.004
-588.923	-119.761	0.254	-0.057
-587.909	-152.519	0.148	0.014
-586.894	65.020	-0.127	-0.167
-585.879	-200.000	-0.063	-0.420
-584.865	-58.796	0.184	0.104
-583.850	-200.000	0.003	0.144
-582.836	421.414	-0.135	-0.381
-581.821	-161.552	-0.482	-0.032
-580.806	509.673	0.090	0.274
-579.792	-82.486	-0.110	0.046
-578.777	252.474	-0.229	0.511
-577.763	800.000	0.093	0.367
-576.748	633.193	-0.089	-0.296
-575.733	518.375	0.042	0.130
-574.719	-151.116	-0.460	-0.045
-573.704	522.397	-0.077	-0.236
-572.690	-29.811	-0.062	0.046
-571.675	-54.134	-0.368	0.218
-570.661	20.938	0.273	-0.289
-569.646	-77.777	-0.128	0.058
-568.631	363.369	0.234	0.618
-567.617	-24.010	0.083	0.065
-566.602	32.699	0.136	0.154
-565.588	-111.472	0.181	0.048
-564.573	-52.248	-0.392	0.237
-563.558	800.000	-0.035	-0.185
-562.544	-32.304	-0.051	0.037
-561.529	-68.122	0.162	0.082
-560.515	-122.447	-0.168	0.035
-559.500	6.410	-0.237	0.229
-558.485	26.933	-0.404	0.442
-557.471	30.781	0.128	-0.143
-556.456	65.919	-0.090	-0.120
-555.442	397.763	-0.145	-0.397
-554.427	-107.596	0.370	-0.105
-553.412	-55.909	-0.230	-0.133
-552.398	366.496	0.081	0.214
-551.383	-169.470	-0.094	-0.004
-550.369	-200.000	0.050	0.514
-549.354	103.156	-0.020	-0.030
-548.339	404.436	0.049	-0.137
-547.325	-104.936	0.310	0.092
-546.310	-29.397	-0.196	-0.146
-545.296	800.000	0.085	0.359
-544.281	70.811	-0.139	-0.188
-543.266	461.268	-0.070	0.206
-542.252	-101.573	0.170	0.054
-541.237	99.029	0.061	0.091
-540.223	-69.980	0.125	0.062
-539.208	-200.000	-0.014	-0.373
-538.193	120.867	-0.345	0.561
-537.179	165.070	0.030	0.056
-536.164	800.000	0.084	0.324
-535.150	-93.660	0.268	0.096
-534.135	800.000	0.041	-0.215
-533.121	367.864	-0.070	0.185
-532.106	513.037	-0.102	-0.312
-531.091	-200.000	0.020	0.184
-530.077	592.194	-0.118	-0.384
-529.062	-200.000	-0.032	-0.458
-528.048	90.293	0.049	-0.072
-527.033	-139.626	0.495	-0.068
-526.018	-200.000	-0.053	0.510
-525.004	22.394	-0.236	-0.251
-523.989	-200.000	-0.027	-0.219
-522.975	77.983	-0.185	-0.258
-521.960	-187.207	-0.482	-0.008
-520.945	-142.994	-0.305	0.038
-519.931	-116.009	0.232	-0.056
-518.916	528.289	-0.167	0.517
-517.902	-46.810	-0.269	-0.171
-516.887	-176.777	0.500	-0.016
-515.872	131.833	-0.128	-0.215
-514.858	-154.124	0.493	0.043
-513.843	2.327	-0.209	0.197
-512.829	-25.493	0.208	0.160
-511.814	239.213	-0.066	0.144
-510.799	-51.106	-0.161	-0.098
-509.785	285.700	0.069	-0.162
-508.770	495.963	-0.132	0.397
-507.756	151.472	-0.020	0.035
-506.741	-133.708	0.051	-0.008
-505.726	-12.867	-0.249	0.211
-504.712	17.433	0.053	-0.055
-503.697	-23.130	0.282	0.221
-502.683	398.316	0.098	-0.268
-501.668	339.014	0.065	0.167
-500.653	28.447	0.183	0.202
-499.639	-68.247	0.344	0.174
-498.624	425.748	-0.185	0.521
-497.610	-94.225	-0.530	-0.188
-496.595	800.000	0.045	0.170
-495.581	-74.249	-0.195	-0.092
-494.566	411.877	-0.113	-0.315
-493.551	-91.319	0.454	0.168
-492.537	45.270	0.064	0.077
-491.522	34.602	-0.371	0.423
-490.508	-108.365	0.171	-0.048
-489.493	-93.187	0.082	0.030
-488.478	-105.832	-0.228	0.067
-487.464	150.054	-0.187	-0.331
-486.449	130.166	0.022	0.038
-485.435	-200.000	-0.006	0.719
-484.420	800.000	-0.063	0.289
-483.405	-47.608	0.338	0.213
-482.391	-30.492	-0.335	0.247
-481.376	215.178	-0.091	0.189
-480.362	-85.759	0.146	0.058
-479.347	-117.313	-0.115	-0.027
-478.332	-99.043	-0.073	-0.024
-477.318	-120.847	-0.403	-0.088
-476.303	169.470	0.232	-0.433
-475.289	-98.512	0.171	-0.057
-474.274	-92.351	-0.225	0.082
-473.259	412.031	0.156	0.434
-472.245	-136.089	0.477	0.072
-471.230	448.030	-0.169	0.487
-470.216	663.896	0.055	0.184
-469.201	-21.697	-0.232	-0.184
-468.186	-172.688	-0.501	0.020
-467.172	15.831	-0.186	0.191
-466.157	454.820	-0.008	-0.023
-465.143	7.578	-0.048	0.046
-464.128	-200.000	-0.020	0.256
-463.113	-200.000	0.081	0.529
-462.099	-132.843	0.266	0.044
-461.084	22.460	-0.180	0.192
-460.070	68.636	0.169	0.226
-459.055	-93.307	0.217	0.078
-458.040	-74.460	0.339	-0.158
-457.026	-71.727	-0.157	0.076
-456.011	293.839	-0.115	0.274
-454.997	800.000	-0.131	0.509
-453.982	-142.939	0.053	-0.007
-452.968	180.472	-0.362	-0.694
-451.953	-160.801	-0.344	-0.023
-450.938	101.199	0.212	-0.322
-449.924	4.711	-0.241	-0.230
-448.909	715.373	0.053	-0.185
-447.895	-143.259	0.225	-0.028
-446.880	8.100	-0.203	0.198
-445.865	184.307	0.119	-0.231
-444.851	-87.115	-0.295	-0.116
-443.836	-200.000	-0.038	0.255
-442.822	-95.359	0.281	0.098
-441.807	143.035	0.138	0.239
-440.792	660.702	0.060	0.204
-439.778	-53.126	0.098	-0.059
-438.763	464.904	0.123	-0.359
-437.749	475.036	-0.046	-0.136
-436.734	-123.254	0.411	0.085
-435.719	-77.439	-0.391	0.176
-434.705	-124.701	-0.362	0.072
-433.690	-27.397	-0.238	-0.180
-432.676	800.000	0.100	0.383
-431.661	-14.258	0.171	-0.143
-430.646	89.543	0.135	0.197
-429.632	-69.514	0.374	-0.186
-428.617	207.533	0.129	0.263
-427.603	-177.567	-0.232	-0.007
-426.588	1.954	-0.068	-0.064
-425.573	800.000	0.056	0.273
-424.559	-147.142	-0.150	0.016
-423.544	-68.948	0.152	0.076
-422.530	-200.000	-0.011	-0.173
-421.515	-200.000	-0.030	0.532
-420.500	-39.755	-0.277	0.188
-419.486	-91.665	-0.317	-0.117
-418.471	57.027	0.158	-0.201
-417.457	-51.359	-0.109	-0.066
-416.442	-77.928	-0.112	-0.050
-415.428	88.468	-0.143	0.207
-414.413	-101.430	0.037	0.012
-413.398	-45.025	-0.342	0.221
-412.384	-23.403	0.220	-0.171
-411.369	84.069	0.124	-0.176
-410.355	-200.000	-0.044	0.305
-409.340	800.000	0.047	-0.249
-408.325	550.097	-0.082	0.256
-407.311	383.663	-0.233	0.627
-406.296	-112.197	-0.375	-0.097
-405.282	-32.610	-0.360	-0.260
-404.267	-42.873	0.352	-0.231
-403.252	278.759	-0.015	0.035
-402.238	342.660	0.255	-0.651
-401.223	-84.328	0.376	0.154
-400.209	400.183	-0.119	0.327
-399.194	-165.246	0.271	-0.015
-398.179	-200.000	-0.107	-0.000
-397.165	251.199	0.053	0.118
-396.150	800.000	0.046	-0.195
-395.136	-79.803	-0.232	-0.101
-394.121	-200.000	0.042	-0.444
-393.106	-200.000	0.062	-0.538
-392.092	-142.400	0.111	-0.014
-391.077	4.691	0.528	0.504
-390.063	-73.627	0.326	0.153
-389.048	25.059	0.140	0.151
-388.033	-200.000	0.006	0.294
-387.019	-67.923	-0.203	0.102
-386.004	800.000	0.021	0.084
-384.990	-101.647	-0.439	-0.138
-383.975	-82.410	0.262	-0.110
-382.960	-200.000	0.040	-0.355
-381.946	-45.246	-0.307	-0.198
-380.931	-86.574	-0.152	0.060
-379.917	-98.959	0.277	-0.091
-378.902	-123.103	0.231	0.048
-377.888	-87.925	-0.378	-0.147
-376.873	-61.907	-0.215	-0.116
-375.858	-168.818	-0.366	-0.018
-374.844	-120.676	-0.284	-0.062
-373.829	-160.966	0.336	0.023
-372.815	220.221	-0.147	-0.307
-371.800	-126.966	-0.389	-0.073
-370.785	-75.051	0.350	-0.162
-369.771	-128.291	0.696	-0.127
-368.756	800.000	-0.009	0.047
-367.742	-25.094	-0.284	0.218
-366.727	-101.776	-0.153	0.048
-365.712	-32.406	0.256	-0.185
-364.698	-131.828	0.154	-0.026
-363.683	-134.686	0.229	-0.036
-362.669	48.109	0.130	0.158
-361.654	800.000	0.076	-0.346
-360.639	-200.000	-0.016	0.271
-359.625	-200.000	-0.018	0.110
-358.610	285.762	0.065	-0.152
-357.596	-57.761	0.526	0.297
-356.581	-110.558	-0.330	-0.088
-355.566	-200.000	0.012	0.316
-354.552	-12.603	0.221	0.186
-353.537	-47.084	-0.111	-0.070
-352.523	444.330	0.040	-0.115
-351.508	23.759	0.465	0.497
-350.493	588.160	0.065	0.209
-349.479	-164.767	0.410	0.024
-348.464	-200.000	0.023	-0.148
-347.450	-200.000	-0.015	0.276
-346.435	-68.154	0.040	-0.020
-345.420	-200.000	-0.026	-0.229
-344.406	800.000	0.029	-0.110
-343.391	-7.176	0.085	-0.075
-342.377	-200.000	-0.027	0.224
-341.362	-57.386	0.240	-0.136
-340.348	800.000	0.051	-0.217
-339.333	-6.845	0.298	-0.262
-338.318	104.900	0.243	-0.371
-337.304	176.595	-0.085	0.160
-336.289	-156.163	0.256	0.021
-335.275	-200.000	0.042	-0.519
-334.260	-200.000	0.008	0.124
-333.245	-200.000	0.017	0.285
-332.231	-66.411	-0.218	0.112
-331.216	-94.784	0.101	-0.035
-330.202	-155.267	0.456	0.038
-329.187	-97.287	0.440	-0.148
-328.172	-111.176	0.062	-0.016
-327.158	35.234	-0.254	-0.289
-326.143	735.381	0.044	-0.152
-325.129	-200.000	0.060	-0.386
-324.114	19.660	-0.068	-0.071
-323.099	-56.911	-0.240	-0.137
-322.085	124.847	-0.329	-0.537
-321.070	250.225	-0.097	0.214
-320.056	-119.283	-0.360	-0.081
-319.041	-62.257	-0.255	-0.137
-318.026	800.000	0.091	0.463
-317.012	-86.778	0.227	0.089
-315.997	800.000	-0.014	0.072
-314.983	-8.535	0.521	0.452
-313.968	240.020	-0.091	0.198
-312.953	-101.529	-0.326	0.102
-311.939	-93.037	0.022	-0.008
-310.924	-137.279	-0.168	-0.025
-309.910	-157.983	-0.432	0.032
-308.895	351.190	0.138	0.356
-307.880	800.000	0.056	0.225
-306.866	-29.656	-0.300	0.221
-305.851	800.000	-0.095	-0.341
-304.837	77.469	-0.275	0.379
-303.822	-70.001	-0.177	-0.087
-302.807	-26.055	-0.239	0.182
-301.793	45.216	-0.214	0.255
-300.778	-31.712	-0.098	0.071
-299.764	800.000	0.057	0.247
-298.749	122.753	-0.254	0.413
-297.735	-37.065	-0.282	0.195
-296.720	-200.000	0.000	0.061
-295.705	48.109	0.303	-0.367
-294.691	-82.331	0.075	0.031
-293.676	-55.213	0.330	-0.191
-292.662	506.742	-0.105	-0.317
-291.647	800.000	-0.053	-0.213
-290.632	-50.648	0.257	-0.156
-289.618	-148.545	0.262	-0.027
-288.603	278.278	0.136	-0.315
-287.589	334.860	0.029	-0.072
-286.574	99.637	-0.021	0.032
-285.559	-200.000	0.350	-0.001
-284.545	-84.541	-0.185	-0.075
-283.530	-25.170	0.567	-0.434
-282.516	152.400	-0.117	-0.207
-281.501	39.749	0.203	0.236
-280.486	-165.855	0.094	0.005
-279.472	52.995	-0.104	0.128
-278.457	62.686	-0.396	-0.512
-277.443	21.924	0.272	-0.287
-276.428	800.000	-0.104	0.388
-275.413	-13.559	0.260	-0.217
-274.399	-200.000	0.002	-0.187
-273.384	351.459	0.054	0.140
-272.370	-4.601	-0.231	0.206
-271.355	421.395	-0.127	0.354
-270.340	-87.746	0.534	0.207
-269.326	-200.000	0.036	0.493
-268.311	-43.944	-0.243	-0.157
-267.297	800.000	-0.082	0.409
-266.282	-158.553	-0.446	-0.033
-265.267	-113.481	0.223	-0.056
-264.253	218.054	0.084	-0.173
-263.238	-200.000	0.013	-0.552
-262.224	-111.181	0.328	-0.086
-261.209	-200.000	0.020	0.172
-260.195	-40.965	-0.341	-0.227
-259.180	-2.166	-0.160	-0.145
-258.165	24.380	-0.247	-0.263
-257.151	800.000	0.109	0.527
-256.136	-17.167	0.233	-0.189
-255.122	254.822	0.057	-0.127
-254.107	309.488	-0.086	0.208
-253.092	800.000	0.147	0.562
-252.078	-53.950	0.124	0.073
-251.063	-105.673	0.236	-0.068
-250.049	27.311	0.391	0.424
-249.034	295.135	-0.194	-0.460
-248.019	4.095	0.192	-0.181
-247.005	-172.306	0.036	-0.001
-245.990	-31.675	-0.483	-0.349
-244.976	-51.894	-0.117	0.070
-243.961	52.076	-0.184	0.226
-242.946	-104.449	0.540	0.160
-241.932	-142.267	0.493	-0.062
-240.917	215.139	0.112	0.229
-239.903	342.784	0.107	-0.273
-238.888	-0.915	0.141	-0.129
-237.873	-154.564	0.358	-0.030
-236.859	800.000	-0.076	0.407
-235.844	800.000	0.128	-0.484
-234.830	42.481	-0.133	0.156
-233.815	-200.000	0.040	0.330
-232.800	800.000	0.038	0.193
-231.786	-15.288	-0.573	-0.473
-230.771	-126.988	-0.334	0.063
-229.757	38.397	0.395	-0.455
-228.742	800.000	0.031	-0.165
-227.727	267.028	0.156	0.353
-226.713	108.441	-0.043	-0.066
-225.698	-118.355	-0.239	0.054
-224.684	-160.875	-0.316	-0.021
-223.669	-31.301	0.420	-0.304
-222.655	-43.161	-0.202	0.132
-221.640	-162.868	0.319	-0.020
-220.625	-101.333	-0.565	0.177
-219.611	-167.156	-0.429	0.022
-218.596	347.708	-0.116	0.295
-217.582	182.547	-0.111	0.211
-216.567	231.918	0.159	0.338
-215.552	-200.000	0.043	-0.328
-214.538	-98.255	0.225	0.074
-213.523	46.519	0.157	0.188
-212.509	39.689	-0.170	0.197
-211.494	39.824	0.321	0.372
-210.479	32.489	-0.145	-0.162
-209.465	-82.255	-0.170	0.071
-208.450	200.367	-0.064	-0.127
-207.436	-57.177	0.304	-0.172
-206.421	233.363	0.168	-0.357
-205.406	472.830	0.156	-0.457
-204.392	-200.000	-0.012	0.080
-203.377	-17.299	-0.584	0.474
-202.363	-72.358	-0.191	0.091
-201.348	117.942	-0.096	-0.152
-200.333	-84.654	-0.509	0.206
-199.319	-28.844	-0.410	0.303
-198.304	61.444	-0.252	-0.323
-197.290	-57.043	0.166	-0.094
-196.275	-30.560	-0.425	-0.310
-195.260	166.500	0.236	0.432
-194.246	-11.158	-0.161	-0.137
-193.231	-84.515	-0.462	-0.187
-192.217	-104.712	-0.275	-0.081
-191.202	-21.475	-0.198	0.156
-190.187	800.000	0.037	-0.148
-189.173	47.376	-0.122	-0.146
-188.158	330.031	0.136	-0.339
-187.144	-118.308	-0.294	0.067
-186.129	800.000	0.035	-0.172
-185.114	800.000	0.021	-0.117
-184.100	199.969	0.097	-0.192
-183.085	-98.539	-0.253	-0.083
-182.071	492.354	0.181	-0.536
-181.056	-200.000	-0.032	-0.355
-180.042	-84.120	-0.041	-0.017
-179.027	-200.000	0.020	-0.212
-178.012	27.383	-0.041	-0.044
-176.998	-106.997	-0.588	0.166
-175.983	-86.094	0.329	-0.130
-174.969	-8.265	-0.222	0.192
-173.954	-173.937	0.151	0.006
-172.939	4.390	0.136	-0.129
-171.925	-115.012	-0.890	0.216
-170.910	-200.000	0.025	-0.287
-169.896	-32.660	-0.638	-0.456
-168.881	800.000	-0.073	-0.323
-167.866	-200.000	0.086	-0.622
-166.852	-7.915	0.272	0.236
-165.837	-200.000	-0.038	0.561
-164.823	800.000	0.017	-0.093
-163.808	-127.068	0.297	0.056
-162.793	121.640	0.163	-0.262
-161.779	20.760	-0.191	-0.199
-160.764	259.990	0.124	-0.276
-159.750	800.000	0.071	0.284
-158.735	-52.642	0.357	-0.211
-157.720	-136.505	0.201	0.030
-156.706	-200.000	-0.059	0.398
-155.691	-179.523	0.550	0.015
-154.677	308.666	-0.117	0.281
-153.662	-5.823	-0.225	-0.198
-152.647	-30.244	-0.259	-0.189
-151.633	-128.329	-0.114	0.021
-150.618	-200.000	0.037	0.220
-149.604	-79.025	0.524	0.228
-148.589	12.821	0.227	-0.225
-147.574	151.594	-0.121	0.213
-146.560	-95.034	0.084	-0.029
-145.545	-127.013	-0.484	0.091
-144.531	-92.451	-0.335	-0.121
-143.516	-142.588	-0.619	-0.077
-142.502	-128.997	-0.138	0.025
-141.487	-200.000	-0.010	0.219
-140.472	-96.031	0.104	-0.035
-139.458	-68.833	-0.192	-0.095
-138.443	-61.798	0.202	0.108
-137.429	-96.196	-0.165	-0.056
-136.414	800.000	-0.082	0.462
-135.399	-55.946	0.065	-0.037
-134.385	170.351	0.155	0.286
-133.370	68.955	0.226	0.299
-132.356	-56.014	0.089	-0.051
-131.341	-63.925	0.572	-0.300
-130.326	-40.478	0.301	-0.200
-129.312	800.000	-0.052	-0.285
-128.297	249.947	-0.069	0.150
-127.283	-43.119	-0.297	-0.193
-126.268	-101.115	0.468	0.146
-125.253	-38.241	0.356	0.242
-124.239	-162.407	0.285	-0.018
-123.224	-41.449	0.478	0.315
-122.210	-117.406	-0.361	-0.083
-121.195	-117.862	0.092	0.021
