DTS Sentinel unit serial number:	SN409020Multiplexer serial number:	ORYXHardware model number:	OX4-SRSoftware version number:	ORYX F/W v3.00 Oryx Data Collector v3.7.2.0data status	okinstallation	HaddamTimeLapsedifferential loss correction	single-endedforward channel	channel 3reverse channel	N/Adate	2011/06/22time	04:46:17forward acquisition time	30.00reverse acquisition time	0.00gamma	498.7831k internal	0.1753k external	0.1753temperature offset calibration	1.0074default loss term (dB/km)	0.3790temperature slope calibration	1.3530multiplexer offset coefficient	1.0000multiplexer slope coefficient	1.0000fibre end	0.00T internal ref (°C)	22.75T ext. ref 1 (°C)	17.87T ext. ref 2 (°C)	0.15length (m)	temperature (°C)	Stokes	anti-Stokes-747.200	-152.157	0.680	0.065
-746.185	108.061	0.280	0.444
-745.171	133.425	-0.137	-0.236
-744.156	-200.000	-0.019	0.571
-743.142	693.315	-0.075	-0.263
-742.127	86.194	-0.247	0.361
-741.112	5.998	-0.270	-0.265
-740.098	149.911	-0.401	0.724
-739.083	237.492	0.202	-0.446
-738.069	-72.901	0.373	-0.181
-737.054	-200.000	0.015	0.119
-736.039	-75.792	-0.173	-0.081
-735.025	61.035	0.117	-0.154
-734.010	-88.407	-0.122	0.048
-732.996	-81.351	-0.144	0.063
-731.981	-98.698	-0.348	-0.117
-730.966	154.234	-0.201	0.367
-729.952	-200.000	0.006	0.095
-728.937	46.356	0.273	-0.336
-727.923	-32.828	0.191	-0.140
-726.908	121.513	0.058	-0.096
-725.894	-12.986	0.198	-0.170
-724.879	-126.288	-0.055	0.011
-723.864	-68.385	-0.234	0.120
-722.850	800.000	0.092	0.380
-721.835	439.184	0.178	0.518
-720.821	99.736	-0.237	-0.364
-719.806	-136.466	0.168	0.026
-718.791	85.866	-0.089	-0.131
-717.777	800.000	0.110	-0.426
-716.762	-98.245	0.146	0.049
-715.748	-105.642	-0.263	0.078
-714.733	-10.024	0.170	-0.150
-713.718	-87.237	0.146	-0.059
-712.704	-1.427	-0.191	-0.179
-711.689	-82.342	0.299	0.128
-710.675	-27.752	-0.171	0.132
-709.660	25.780	-0.250	-0.276
-708.645	-74.017	-0.182	-0.087
-707.631	37.442	0.280	0.329
-706.616	774.249	-0.034	0.123
-705.602	-144.283	-0.316	-0.039
-704.587	-67.827	-0.338	-0.175
-703.572	-21.822	0.010	0.008
-702.558	-115.654	0.427	0.105
-701.543	19.330	0.252	-0.268
-700.529	-73.261	0.391	0.189
-699.514	-70.211	-0.158	-0.079
-698.499	-138.078	0.249	-0.036
-697.485	-35.910	0.342	-0.245
-696.470	82.101	0.065	0.093
-695.456	594.832	0.098	0.322
-694.441	-132.482	-0.370	0.063
-693.426	-52.381	-0.214	-0.131
-692.412	-133.056	0.235	-0.039
-691.397	-200.000	-0.002	0.196
-690.383	-200.000	-0.003	0.069
-689.368	-120.577	-0.524	-0.117
-688.354	188.351	0.187	-0.371
-687.339	-64.382	-0.071	-0.038
-686.324	-81.102	0.251	-0.109
-685.310	163.470	-0.069	-0.128
-684.295	800.000	-0.037	0.169
-683.281	45.357	0.219	-0.267
-682.266	-25.986	-0.182	0.141
-681.251	-65.985	0.137	-0.072
-680.237	225.936	-0.045	0.097
-679.222	48.008	0.154	0.191
-678.208	60.192	0.080	0.105
-677.193	-113.781	0.392	-0.100
-676.178	201.556	0.373	0.763
-675.164	43.859	0.060	0.073
-674.149	386.494	-0.134	-0.368
-673.135	-113.083	0.121	-0.031
-672.120	-200.000	-0.015	0.215
-671.105	-55.795	0.244	-0.144
-670.091	-87.815	-0.278	-0.110
-669.076	375.913	-0.100	-0.271
-668.062	-156.032	-0.099	-0.008
-667.047	73.713	-0.298	0.414
-666.032	91.693	0.165	0.246
-665.018	-200.000	-0.023	0.398
-664.003	2.663	-0.210	0.201
-662.989	110.667	-0.158	0.252
-661.974	723.043	0.058	-0.207
-660.959	-174.103	0.267	0.010
-659.945	-14.825	0.315	0.267
-658.930	-147.940	-0.276	-0.030
-657.916	64.385	0.044	0.059
-656.901	-140.621	-0.517	-0.070
-655.886	-94.139	0.165	0.060
-654.872	143.093	-0.235	-0.414
-653.857	-200.000	0.016	-0.843
-652.843	-197.904	-0.502	0.004
-651.828	-29.817	0.118	-0.089
-650.814	203.220	0.098	0.202
-649.799	-141.038	0.674	0.090
-648.784	397.054	0.149	0.413
-647.770	-59.225	-0.251	0.143
-646.755	-25.158	-0.266	0.208
-645.741	99.788	-0.239	-0.367
-644.726	-131.053	0.202	0.035
-643.711	-73.913	0.381	0.182
-642.697	160.571	-0.140	-0.258
-641.682	-70.593	0.165	0.082
-640.668	-127.940	-0.226	0.043
-639.653	-42.344	-0.345	0.232
-638.638	-200.000	-0.025	-0.344
-637.624	800.000	0.142	-0.640
-636.609	800.000	-0.058	-0.271
-635.595	-10.372	0.112	-0.098
-634.580	-30.345	0.307	0.230
-633.565	-200.000	-0.002	-0.078
-632.551	155.443	-0.184	-0.336
-631.536	-153.347	0.142	0.013
-630.522	-200.000	-0.014	0.109
-629.507	800.000	-0.036	-0.195
-628.492	-200.000	0.002	-0.255
-627.478	-189.388	0.245	0.004
-626.463	-200.000	0.041	0.401
-625.449	-83.883	-0.439	-0.184
-624.434	10.389	-0.099	0.100
-623.419	-50.460	0.527	0.328
-622.405	3.718	-0.215	0.207
-621.390	110.865	-0.044	-0.069
-620.376	-133.542	-0.297	0.049
-619.361	-52.762	0.440	-0.267
-618.346	204.256	0.262	-0.539
-617.332	311.926	-0.072	-0.178
-616.317	-99.368	-0.351	-0.116
-615.303	-142.389	-0.193	-0.025
-614.288	-151.733	-0.109	-0.010
-613.273	6.029	0.174	-0.171
-612.259	-77.802	0.313	-0.142
-611.244	800.000	0.029	0.112
-610.230	-97.255	0.196	0.067
-609.215	522.525	-0.015	0.046
-608.201	800.000	-0.079	0.387
-607.186	53.839	0.274	0.347
-606.171	-153.473	-0.116	0.010
-605.157	-200.000	-0.009	0.158
-604.142	800.000	-0.074	0.323
-603.128	71.464	-0.294	0.403
-602.113	103.314	0.180	-0.279
-601.098	-170.961	0.221	0.010
-600.084	-29.017	-0.265	-0.201
-599.069	-74.343	0.220	0.105
-598.055	-200.000	0.009	0.309
-597.040	-63.890	-0.677	-0.364
-596.025	-146.169	-0.403	0.046
-595.011	-1.120	-0.313	-0.292
-593.996	-119.279	0.232	-0.053
-592.982	-70.254	-0.286	0.143
-591.967	129.195	-0.118	-0.200
-590.952	82.296	0.055	-0.079
-589.938	-42.947	-0.330	0.220
-588.923	-145.783	0.045	0.005
-587.909	43.054	-0.120	-0.144
-586.894	28.082	-0.077	-0.086
-585.879	-40.091	0.204	0.140
-584.865	-200.000	0.107	0.680
-583.850	-44.469	0.114	-0.075
-582.836	800.000	-0.099	-0.401
-581.821	437.059	-0.150	-0.434
-580.806	-143.570	-0.129	0.016
-579.792	64.132	0.183	0.243
-578.777	-200.000	-0.020	-0.218
-577.763	-62.588	0.679	0.370
-576.748	-200.000	-0.040	-0.369
-575.733	-200.000	-0.003	-0.841
-574.719	-200.000	-0.004	-0.123
-573.704	191.703	0.249	0.497
-572.690	-158.208	-0.259	0.020
-571.675	800.000	0.106	-0.390
-570.661	86.845	-0.124	-0.180
-569.646	-101.371	-0.439	0.140
-568.631	-173.743	-0.327	-0.013
-567.617	-0.207	-0.338	-0.317
-566.602	-136.725	-0.609	-0.092
-565.588	-47.535	0.103	-0.065
-564.573	-54.019	0.024	-0.014
-563.558	-96.200	-0.519	0.180
-562.544	-131.030	0.453	-0.079
-561.529	-30.059	0.130	0.097
-560.515	19.640	-0.054	0.058
-559.500	-124.064	-0.329	-0.068
-558.485	-125.734	-0.257	-0.051
-557.471	-110.092	0.063	0.017
-556.456	279.262	0.128	-0.301
-555.442	70.946	0.229	0.313
-554.427	-9.308	-0.184	-0.162
-553.412	-84.448	-0.432	-0.179
-552.398	-105.212	0.443	-0.132
-551.383	82.549	0.225	0.323
-550.369	-200.000	-0.056	0.367
-549.354	-83.468	-0.256	0.107
-548.339	800.000	0.052	0.237
-547.325	-89.458	0.338	-0.130
-546.310	800.000	-0.033	0.169
-545.296	-76.281	-0.146	-0.067
-544.281	-62.978	0.267	0.145
-543.266	-75.498	-0.265	-0.123
-542.252	-128.734	0.748	-0.138
-541.237	-107.134	-0.265	-0.076
-540.223	-38.198	-0.228	0.159
-539.208	789.922	-0.115	-0.417
-538.193	-30.577	-0.376	-0.280
-537.179	-68.209	-0.408	0.208
-536.164	-106.924	-0.342	-0.099
-535.150	-82.233	0.524	-0.224
-534.135	-135.342	-0.498	-0.078
-533.121	127.721	-0.207	0.346
-532.106	60.290	0.289	0.377
-531.091	-200.000	0.041	0.489
-530.077	-76.166	-0.432	0.200
-529.062	-200.000	0.003	-0.323
-528.048	131.426	0.064	0.108
-527.033	95.269	0.018	0.028
-526.018	-162.747	-0.175	-0.011
-525.004	-67.430	0.304	-0.157
-523.989	800.000	-0.089	-0.399
-522.975	209.574	-0.221	-0.457
-521.960	64.428	-0.077	-0.102
-520.945	-90.054	-0.143	-0.054
-519.931	-21.260	-0.049	0.040
-518.916	-114.970	0.455	-0.113
-517.902	333.996	0.065	-0.166
-516.887	6.486	-0.282	-0.276
-515.872	-70.070	0.360	-0.179
-514.858	-14.449	-0.029	-0.024
-513.843	800.000	0.079	-0.413
-512.829	-200.000	-0.015	-0.207
-511.814	582.998	0.104	0.339
-510.799	27.827	-0.063	0.069
-509.785	-200.000	0.008	-0.176
-508.770	-128.327	-0.168	0.031
-507.756	367.775	-0.096	0.255
-506.741	210.814	-0.139	0.288
-505.726	-200.000	-0.028	0.243
-504.712	293.741	0.118	0.285
-503.697	-122.194	0.490	0.105
-502.683	-128.488	-0.345	-0.064
-501.668	40.169	-0.147	0.174
-500.653	12.814	0.074	-0.075
-499.639	8.394	0.324	0.320
-498.624	59.232	-0.098	0.127
-497.610	26.569	-0.432	0.475
-496.595	-200.000	-0.024	0.394
-495.581	-151.013	-0.422	0.041
-494.566	45.517	0.057	0.069
-493.551	-82.256	0.236	0.100
-492.537	-31.558	-0.089	-0.065
-491.522	-200.000	-0.006	0.163
-490.508	800.000	0.023	0.115
-489.493	-94.265	-0.151	-0.054
-488.478	-97.354	0.153	0.052
-487.464	-112.873	-0.197	-0.051
-486.449	260.082	0.172	0.393
-485.435	-79.773	-0.512	0.225
-484.420	-146.110	-0.356	0.041
-483.405	-84.161	0.257	-0.106
-482.391	100.291	0.198	-0.303
-481.376	-74.224	0.784	0.371
-480.362	-146.099	-0.435	0.050
-479.347	169.162	-0.169	0.318
-478.332	-147.921	-0.174	-0.019
-477.318	-121.897	0.292	-0.063
-476.303	-72.305	0.288	-0.139
-475.289	-21.705	0.115	0.092
-474.274	-200.000	0.032	-0.244
-473.259	113.751	0.309	0.494
-472.245	-162.708	0.386	-0.024
-471.230	209.234	0.187	-0.386
-470.216	-65.689	0.209	-0.110
-469.201	14.408	0.146	0.149
-468.186	454.421	-0.128	0.374
-467.172	-138.960	-0.360	0.051
-466.157	-39.045	0.181	0.124
-465.143	300.464	0.096	-0.233
-464.128	-120.419	0.160	-0.035
-463.113	119.847	0.053	0.087
-462.099	-145.317	-0.047	-0.006
-461.084	-200.000	0.026	-0.174
-460.070	26.042	-0.146	0.160
-459.055	-200.000	0.048	0.308
-458.040	224.382	-0.046	0.098
-457.026	-32.772	0.205	0.149
-456.011	525.686	0.169	0.526
-454.997	-200.000	-0.020	0.532
-453.982	-70.500	0.325	-0.161
-452.968	0.293	0.089	-0.083
-451.953	-200.000	0.001	-0.149
-450.938	-200.000	-0.013	0.168
-449.924	8.241	-0.121	-0.119
-448.909	800.000	0.029	0.135
-447.895	-98.316	0.307	-0.103
-446.880	-84.868	-0.558	-0.229
-445.865	-116.448	0.317	0.076
-444.851	-176.344	-0.494	-0.017
-443.836	-85.576	-0.241	-0.098
-442.822	-200.000	0.075	-0.594
-441.807	-88.383	-0.563	0.219
-440.792	34.440	-0.332	0.381
-439.778	-122.073	-0.256	0.055
-438.763	-79.425	0.415	-0.183
-437.749	105.713	-0.137	-0.212
-436.734	800.000	-0.101	-0.540
-435.719	11.886	0.185	-0.186
-434.705	-116.797	-0.164	0.039
-433.690	143.978	0.159	-0.278
-432.676	114.144	0.135	-0.216
-431.661	-125.051	0.030	-0.006
-430.646	-36.809	0.285	-0.200
-429.632	34.041	0.199	-0.227
-428.617	-39.635	0.485	-0.332
-427.603	424.432	0.087	-0.248
-426.588	-55.794	-0.314	-0.183
-425.573	-155.606	0.098	-0.008
-424.559	34.362	0.196	0.224
-423.544	800.000	0.081	0.425
-422.530	800.000	0.043	0.239
-421.515	-75.100	-0.241	0.112
-420.500	-151.365	-0.150	-0.014
-419.486	72.335	0.185	0.253
-418.471	129.535	0.062	-0.105
-417.457	-200.000	-0.010	0.514
-416.442	98.230	0.158	-0.239
-415.428	800.000	0.061	-0.290
-414.413	26.138	0.493	-0.539
-413.398	17.528	-0.411	-0.427
-412.384	8.564	0.146	0.144
-411.369	-154.950	0.146	-0.012
-410.355	22.900	0.146	0.156
-409.340	-49.138	0.160	0.100
-408.325	74.768	-0.213	-0.294
-407.311	26.573	-0.218	-0.239
-406.296	-139.910	0.188	0.026
-405.282	-146.865	-0.686	-0.076
-404.267	-70.358	-0.211	-0.104
-403.252	66.540	-0.112	0.149
-402.238	-89.372	0.563	-0.216
-401.223	-200.000	0.003	0.136
-400.209	-63.098	-0.181	0.097
-399.194	66.568	-0.384	0.512
-398.179	-200.000	-0.025	0.447
-397.165	-99.788	-0.152	-0.049
-396.150	-43.721	-0.200	0.132
-395.136	-106.747	0.370	-0.107
-394.121	-200.000	0.006	0.043
-393.106	-74.380	0.414	-0.195
-392.092	-8.883	-0.329	-0.288
-391.077	-200.000	0.687	0.003
-390.063	-89.603	0.686	0.262
-389.048	89.640	-0.197	-0.288
-388.033	800.000	-0.080	0.376
-387.019	377.762	-0.101	-0.272
-386.004	55.072	-0.042	0.053
-384.990	-54.170	-0.301	0.179
-383.975	-119.112	-0.640	0.145
-382.960	72.408	0.177	-0.241
-381.946	353.020	0.108	-0.281
-380.931	-14.999	-0.154	0.129
-379.917	49.013	-0.172	0.212
-378.902	45.166	0.237	-0.286
-377.888	-177.402	0.190	0.006
-376.873	64.237	-0.128	-0.169
-375.858	110.480	-0.050	0.079
-374.844	-15.605	0.094	0.078
-373.829	-145.027	-0.381	0.045
-372.815	495.140	-0.143	0.431
-371.800	-76.249	-0.254	0.117
-370.785	196.537	0.077	-0.154
-369.771	43.518	0.253	-0.302
-368.756	-200.000	0.030	0.235
-367.742	127.375	-0.240	-0.400
-366.727	-114.870	-0.225	-0.056
-365.712	22.000	-0.144	0.153
-364.698	-200.000	-0.041	-0.282
-363.683	-25.241	0.132	-0.102
-362.669	254.858	-0.044	0.099
-361.654	-200.000	0.004	0.182
-360.639	-4.946	-0.159	0.143
-359.625	124.716	-0.163	0.269
-358.610	-124.290	0.553	-0.112
-357.596	-200.000	-0.014	-0.166
-356.581	-200.000	-0.048	-0.346
-355.566	235.842	-0.104	-0.226
-354.552	578.796	-0.083	-0.267
-353.537	343.888	-0.150	0.387
-352.523	-137.559	0.308	-0.045
-351.508	800.000	0.070	0.301
-350.493	-200.000	-0.016	-0.125
-349.479	-200.000	-0.067	-0.468
-348.464	-129.695	0.267	0.048
-347.450	-200.000	0.030	0.343
-346.435	510.398	0.083	0.254
-345.420	800.000	-0.124	0.594
-344.406	34.082	0.468	-0.533
-343.391	18.203	-0.093	0.097
-342.377	-79.688	-0.410	-0.180
-341.362	-91.764	-0.221	0.081
-340.348	-200.000	-0.028	-0.171
-339.333	800.000	-0.093	-0.382
-338.318	-200.000	0.015	-0.224
-337.304	162.573	0.071	-0.131
-336.289	-132.574	0.358	0.059
-335.275	396.626	0.070	-0.192
-334.260	-95.045	0.959	-0.336
-333.245	-101.778	0.568	0.179
-332.231	-13.928	-0.257	-0.217
-331.216	-109.838	0.462	-0.126
-330.202	576.156	-0.133	-0.428
-329.187	-200.000	0.088	-0.687
-328.172	30.599	-0.146	-0.164
-327.158	800.000	-0.127	-0.514
-326.143	-3.782	0.355	0.321
-325.129	-5.236	-0.155	0.139
-324.114	-200.000	-0.018	-0.116
-323.099	92.381	-0.212	0.312
-322.085	132.481	-0.316	0.532
-321.070	145.395	0.167	0.292
-320.056	-200.000	-0.010	0.102
-319.041	-200.000	-0.017	-0.316
-318.026	39.865	-0.132	0.155
-317.012	371.894	-0.157	0.417
-315.997	-200.000	0.035	-0.251
-314.983	-86.205	0.384	-0.154
-313.968	-38.959	-0.188	-0.129
-312.953	53.061	-0.194	-0.242
-311.939	-112.683	0.163	-0.042
-310.924	474.175	0.085	-0.251
-309.910	-19.285	0.259	0.209
-308.895	-33.982	0.280	-0.201
-307.880	800.000	-0.102	-0.525
-306.866	57.447	0.203	-0.259
-305.851	-200.000	0.029	0.229
-304.837	179.095	-0.078	-0.149
-303.822	-138.391	-0.163	0.023
-302.807	-200.000	-0.174	-0.001
-301.793	-65.664	0.061	-0.032
-300.778	-4.991	-0.254	-0.228
-299.764	-200.000	-0.025	0.496
-298.749	-14.874	0.227	0.190
-297.735	-46.933	0.369	0.234
-296.720	102.585	0.147	-0.225
-295.705	-125.333	0.250	-0.049
-294.691	800.000	0.090	-0.368
-293.676	-9.928	-0.359	0.311
-292.662	4.179	-0.036	-0.035
-291.647	-200.000	0.117	-0.705
-290.632	-29.705	-0.305	-0.227
-289.618	-66.160	-0.189	-0.098
-288.603	107.320	-0.235	-0.364
-287.589	50.470	-0.127	0.157
-286.574	-1.481	-0.292	0.268
-285.559	-113.709	-0.634	0.160
-284.545	65.044	-0.076	0.100
-283.530	-20.973	0.097	-0.078
-282.516	-7.591	-0.292	-0.257
-281.501	-142.354	-0.445	0.057
-280.486	-200.000	0.011	0.238
-279.472	-86.223	-0.237	-0.095
-278.457	800.000	0.100	0.491
-277.443	79.171	0.116	0.162
-276.428	54.001	-0.143	0.180
-275.413	110.431	-0.141	0.221
-274.399	-142.104	-0.159	-0.020
-273.384	-200.000	-0.008	-0.049
-272.370	7.482	0.204	-0.199
-271.355	123.091	0.303	0.495
-270.340	-200.000	0.033	-0.409
-269.326	383.351	0.121	-0.325
-268.311	299.422	0.039	-0.093
-267.297	160.952	-0.171	-0.312
-266.282	391.976	0.176	0.479
-265.267	-64.437	-0.182	0.096
-264.253	-111.673	0.188	0.049
-263.238	184.079	0.170	0.328
-262.224	-98.774	-0.329	-0.108
-261.209	-133.680	0.257	-0.041
-260.195	2.716	0.385	-0.363
-259.180	-87.471	0.495	-0.194
-258.165	42.253	-0.015	0.018
-257.151	-200.000	0.002	0.445
-256.136	-145.229	0.155	-0.018
-255.122	-23.801	0.231	0.180
-254.107	-108.928	-0.275	0.076
-253.092	126.275	-0.170	0.281
-252.078	-79.184	0.267	-0.117
-251.063	196.633	0.089	0.176
-250.049	-132.883	-0.452	0.074
-249.034	195.106	-0.079	0.156
-248.019	-200.000	-0.077	0.671
-247.005	83.804	0.219	-0.311
-245.990	18.000	-0.191	0.198
-244.976	-149.031	0.092	0.009
-243.961	404.509	-0.184	0.506
-242.946	10.979	0.111	-0.110
-241.932	-31.589	-0.246	0.179
-240.917	-111.400	-0.386	0.102
-239.903	26.103	0.368	0.400
-238.888	-56.445	0.451	0.260
-237.873	27.293	0.025	0.027
-236.859	-200.000	0.722	0.004
-235.844	-80.920	0.183	0.079
-234.830	-175.568	-0.183	0.006
-233.815	64.764	0.056	-0.073
-232.800	62.700	0.209	-0.273
-231.786	40.129	-0.440	0.515
-230.771	-2.144	0.263	0.240
-229.757	65.685	0.322	-0.425
-228.742	-32.774	-0.153	-0.111
-227.727	-105.178	0.136	-0.040
-226.713	-26.475	0.229	0.175
-225.698	18.372	-0.423	-0.440
-224.684	-67.572	0.266	-0.135
-223.669	-8.424	0.271	0.237
-222.655	-30.061	-0.064	0.047
-221.640	53.737	-0.370	-0.463
-220.625	-200.000	0.010	-0.194
-219.611	-47.788	0.072	-0.045
-218.596	-200.000	-0.104	0.657
-217.582	-71.795	0.246	-0.119
-216.567	-6.405	-0.450	0.399
-215.552	-82.072	-0.051	0.021
-214.538	-138.205	0.380	0.054
-213.523	-54.272	0.265	0.156
-212.509	406.731	-0.079	0.217
-211.494	-94.080	-0.364	-0.129
-210.479	-176.502	0.318	0.010
-209.465	-130.330	0.274	0.048
-208.450	-105.984	-0.403	0.117
-207.436	-8.873	-0.128	-0.111
-206.421	237.609	-0.118	-0.255
-205.406	-158.895	0.507	-0.037
-204.392	-200.000	-0.010	-0.070
-203.377	-34.604	-0.144	-0.102
-202.363	50.666	-0.206	-0.253
-201.348	-167.711	-0.167	-0.008
-200.333	-31.616	0.296	0.215
-199.319	-200.000	0.079	-0.631
-198.304	-49.984	-0.512	-0.315
-197.290	45.182	0.297	-0.356
-196.275	-18.056	0.120	-0.097
-195.260	111.523	-0.118	-0.186
-194.246	-98.541	-0.379	-0.125
-193.231	-200.000	-0.042	-0.273
-192.217	-17.401	-0.285	-0.233
-191.202	-200.000	-0.001	-0.193
-190.187	-97.878	-0.271	0.090
-189.173	-47.297	0.169	0.106
-188.158	-133.539	-0.150	0.024
-187.144	-28.392	-0.110	0.082
-186.129	-200.000	-0.014	-0.128
-185.114	60.785	-0.124	-0.160
-184.100	-179.130	-0.101	-0.003
-183.085	-160.385	0.205	0.014
-182.071	159.167	0.074	-0.134
-181.056	303.202	-0.193	0.466
-180.042	-119.135	-0.330	0.074
-179.027	760.064	-0.056	0.199
-178.012	-200.000	-0.037	-0.257
-176.998	521.798	0.070	0.213
-175.983	-107.917	0.244	0.068
-174.969	-109.717	0.376	-0.102
-173.954	-155.468	0.507	0.042
-172.939	-200.000	0.004	0.516
-171.925	121.178	0.183	0.296
-170.910	9.272	-0.087	-0.085
-169.896	-25.816	-0.239	0.182
-168.881	-40.638	0.645	0.433
-167.866	-41.379	0.246	0.164
-166.852	635.191	-0.070	-0.231
-165.837	-200.000	0.017	0.370
-164.823	64.429	-0.097	0.127
-163.808	-129.207	0.218	-0.039
-162.793	-200.000	-0.008	-0.344
-161.779	384.444	-0.191	-0.514
-160.764	-94.646	-0.209	0.073
-159.750	-88.158	0.569	-0.220
-158.735	185.096	-0.162	0.313
-157.720	439.415	-0.076	0.216
-156.706	800.000	-0.084	0.390
-155.691	568.278	0.099	0.313
-154.677	761.055	-0.117	0.414
-153.662	-200.000	-0.020	0.279
-152.647	-128.149	0.290	0.053
-151.633	239.540	0.031	-0.067
-150.618	800.000	0.089	0.424
-149.604	-181.104	0.483	-0.012
-148.589	-147.831	-0.262	-0.028
-147.574	726.359	-0.062	-0.215
-146.560	-93.683	-0.223	0.079
-145.545	392.705	0.221	-0.598
-144.531	-8.594	-0.190	-0.165
-143.516	463.777	-0.041	-0.118
-142.502	28.218	-0.141	0.154
-141.487	-164.103	0.135	0.008
-140.472	-200.000	-0.080	0.615
-139.458	-140.365	0.098	-0.013
-138.443	-200.000	-0.021	-0.316
-137.429	-135.054	0.222	0.034
-136.414	315.805	-0.145	0.355
-135.399	149.495	-0.308	-0.543
-134.385	-200.000	-0.029	-0.286
-133.370	39.705	-0.061	0.071
-132.356	251.788	-0.138	-0.305
-131.341	91.832	-0.103	0.151
-130.326	-200.000	-0.008	0.066
-129.312	66.458	0.306	-0.404
-128.297	233.875	0.123	0.263
-127.283	184.954	0.234	0.451
-126.268	800.000	-0.026	-0.128
-125.253	-111.802	0.544	0.141
-124.239	800.000	0.210	-0.825
-123.224	-27.974	-0.543	0.406
-122.210	201.651	-0.266	-0.532
