DTS Sentinel unit serial number:	SN409020Multiplexer serial number:	ORYXHardware model number:	OX4-SRSoftware version number:	ORYX F/W v3.00 Oryx Data Collector v3.7.2.0data status	okinstallation	HaddamTimeLapsedifferential loss correction	single-endedforward channel	channel 3reverse channel	N/Adate	2011/06/21time	16:01:17forward acquisition time	30.00reverse acquisition time	0.00gamma	498.7831k internal	0.1797k external	0.1797temperature offset calibration	1.0074default loss term (dB/km)	0.3790temperature slope calibration	1.3530multiplexer offset coefficient	1.0000multiplexer slope coefficient	1.0000fibre end	0.00T internal ref (°C)	35.31T ext. ref 1 (°C)	26.57T ext. ref 2 (°C)	0.22length (m)	temperature (°C)	Stokes	anti-Stokes-747.200	259.879	-0.164	-0.369
-746.185	335.243	-0.108	0.273
-745.171	-140.821	0.322	-0.043
-744.156	-55.109	0.236	-0.137
-743.142	78.044	0.296	-0.409
-742.127	117.239	0.249	0.397
-741.112	-17.589	0.136	0.110
-740.098	-200.000	-0.106	0.767
-739.083	-114.037	-0.493	-0.123
-738.069	559.513	-0.097	0.304
-737.054	340.292	0.186	-0.471
-736.039	107.770	-0.076	0.117
-735.025	259.042	0.075	0.167
-734.010	-72.639	-0.372	0.177
-732.996	-159.407	0.070	-0.005
-731.981	-167.010	-0.259	-0.013
-730.966	217.888	-0.108	-0.223
-729.952	-7.800	-0.082	-0.071
-728.937	-77.150	-0.447	0.201
-727.923	-96.259	-0.335	-0.114
-726.908	-140.181	-0.275	0.037
-725.894	-200.000	-0.023	-0.196
-724.879	-50.636	-0.520	-0.316
-723.864	-10.076	-0.340	-0.292
-722.850	-115.027	0.150	-0.036
-721.835	-200.000	0.046	0.270
-720.821	50.592	-0.152	-0.186
-719.806	-149.133	0.380	0.039
-718.791	-48.683	0.572	0.355
-717.777	-200.000	0.073	-0.434
-716.762	-98.409	-0.253	0.083
-715.748	800.000	-0.065	0.245
-714.733	129.700	0.082	0.135
-713.718	-200.000	-0.001	0.213
-712.704	106.426	0.214	0.329
-711.689	263.776	0.089	0.200
-710.675	-95.702	0.280	0.096
-709.660	259.568	0.240	-0.539
-708.645	-132.019	-0.169	0.028
-707.631	-49.899	-0.254	0.155
-706.616	-99.243	-0.270	0.088
-705.602	-189.548	-0.509	0.007
-704.587	163.137	0.174	0.317
-703.572	-137.946	0.283	-0.040
-702.558	-200.000	-0.004	0.112
-701.543	-60.134	0.182	-0.100
-700.529	-200.000	0.060	-0.778
-699.514	31.152	-0.106	-0.117
-698.499	318.039	0.029	0.071
-697.485	138.550	0.197	-0.335
-696.470	800.000	0.104	-0.548
-695.456	-81.708	0.078	-0.033
-694.441	22.711	-0.337	0.356
-693.426	-149.634	-0.223	0.022
-692.412	403.571	-0.147	-0.401
-691.397	-67.955	0.197	-0.099
-690.383	82.294	0.130	-0.183
-689.368	-107.918	-0.150	0.042
-688.354	25.489	-0.242	-0.260
-687.339	800.000	-0.043	-0.171
-686.324	-59.091	-0.186	0.103
-685.310	98.859	0.196	0.293
-684.295	-94.032	-0.331	-0.117
-683.281	30.478	-0.246	0.271
-682.266	-113.450	-0.487	0.122
-681.251	-156.780	0.192	-0.015
-680.237	800.000	0.021	-0.094
-679.222	-84.326	0.520	-0.211
-678.208	40.009	0.039	0.045
-677.193	-79.790	-0.454	0.196
-676.178	-59.915	0.360	-0.198
-675.164	-98.725	-0.291	0.095
-674.149	313.907	0.060	0.147
-673.135	553.643	0.106	0.332
-672.120	49.686	0.118	-0.144
-671.105	47.087	0.230	-0.276
-670.091	-131.620	0.551	0.093
-669.076	-124.234	-0.198	0.040
-668.062	14.826	-0.133	0.135
-667.047	178.059	-0.126	0.239
-666.032	211.580	0.041	-0.085
-665.018	656.003	-0.095	-0.317
-664.003	-200.000	-0.072	-0.500
-662.989	-99.343	-0.189	0.061
-661.974	800.000	-0.180	-0.692
-660.959	-200.000	-0.016	0.206
-659.945	-94.129	-0.370	-0.130
-658.930	357.809	0.050	0.129
-657.916	408.007	0.098	-0.270
-656.901	691.768	-0.070	-0.239
-655.886	-158.751	-0.634	-0.046
-654.872	-84.217	-0.258	0.105
-653.857	-54.393	-0.532	0.310
-652.843	-29.545	-0.463	0.341
-651.828	252.633	-0.119	0.263
-650.814	-72.609	0.533	-0.253
-649.799	168.429	0.024	0.045
-648.784	176.409	0.098	-0.183
-647.770	112.498	0.215	-0.336
-646.755	-107.564	-0.269	0.075
-645.741	-167.071	0.211	-0.011
-644.726	-159.256	0.217	0.016
-643.711	-64.767	-0.194	-0.101
-642.697	-200.000	0.045	-0.259
-641.682	616.521	-0.074	-0.242
-640.668	-13.212	0.086	0.072
-639.653	-200.000	-0.029	-0.322
-638.638	-200.000	-0.072	-0.625
-637.624	344.411	0.078	-0.199
-636.609	-144.023	0.382	-0.046
-635.595	800.000	0.083	0.362
-634.580	-7.225	0.075	0.065
-633.565	-10.836	-0.168	0.143
-632.551	-128.306	-0.537	0.098
-631.536	-26.507	-0.138	0.104
-630.522	800.000	-0.032	0.159
-629.507	-16.123	-0.138	0.113
-628.492	-13.910	0.291	-0.242
-627.478	32.860	-0.096	0.107
-626.463	-126.784	-0.206	0.039
-625.449	-87.009	-0.137	-0.054
-624.434	-22.443	-0.487	0.379
-623.419	192.721	-0.310	0.606
-622.405	-200.000	0.020	0.436
-621.390	181.195	0.138	-0.262
-620.376	42.251	0.389	0.456
-619.361	800.000	-0.069	0.333
-618.346	-200.000	0.045	-0.417
-617.332	54.854	-0.258	-0.322
-616.317	-112.230	-0.334	0.086
-615.303	800.000	-0.061	-0.274
-614.288	35.324	-0.141	0.159
-613.273	-58.152	-0.365	0.204
-612.259	540.315	-0.335	1.032
-611.244	94.251	-0.134	0.197
-610.230	800.000	-0.093	0.402
-609.215	49.117	-0.214	0.259
-608.201	-38.682	-0.193	-0.131
-607.186	590.351	-0.126	0.402
-606.171	230.112	-0.083	-0.176
-605.157	-98.266	-0.449	-0.147
-604.142	-32.753	0.163	-0.116
-603.128	109.068	0.056	-0.086
-602.113	-89.192	0.259	0.098
-601.098	-6.619	0.505	0.442
-600.084	-47.760	0.458	-0.285
-599.069	800.000	0.055	-0.242
-598.055	800.000	-0.089	-0.326
-597.040	-41.492	0.305	0.202
-596.025	421.293	0.100	-0.277
-595.011	-179.850	-0.575	0.016
-593.996	267.832	0.218	-0.494
-592.982	-200.000	-0.500	0.002
-591.967	133.428	-0.169	0.282
-590.952	-200.000	0.048	-0.485
-589.938	-200.000	0.004	-0.163
-588.923	-170.382	0.158	0.007
-587.909	-88.900	-0.332	-0.126
-586.894	-200.000	0.001	0.106
-585.879	358.522	0.061	-0.157
-584.865	249.682	-0.025	0.054
-583.850	-95.754	-0.222	0.076
-582.836	-139.879	0.169	0.023
-581.821	-80.315	0.194	0.083
-580.806	350.771	-0.215	0.549
-579.792	-67.096	0.488	0.246
-578.777	-89.078	0.229	0.087
-577.763	-161.652	-0.182	-0.012
-576.748	-132.053	-0.398	-0.066
-575.733	800.000	0.056	0.260
-574.719	-53.182	-0.200	-0.118
-573.704	633.050	0.007	0.022
-572.690	-102.333	-0.278	-0.085
-571.675	-86.475	0.368	-0.144
-570.661	12.670	0.224	-0.223
-569.646	458.583	0.095	-0.272
-568.631	-69.419	0.362	0.178
-567.617	-4.242	0.685	-0.609
-566.602	-37.676	-0.387	0.264
-565.588	-20.302	-0.243	0.192
-564.573	-200.000	0.029	-0.250
-563.558	-200.000	-0.006	-0.393
-562.544	800.000	0.040	-0.201
-561.529	-104.648	-0.334	0.098
-560.515	-108.650	-0.330	0.090
-559.500	111.721	-0.245	-0.381
-558.485	335.031	0.028	-0.070
-557.471	800.000	0.079	-0.294
-556.456	-54.599	-0.139	-0.081
-555.442	91.976	-0.182	0.264
-554.427	-200.000	0.054	-0.323
-553.412	800.000	-0.051	0.221
-552.398	-200.000	-0.031	0.273
-551.383	-13.532	0.146	-0.121
-550.369	-200.000	0.017	0.336
-549.354	-183.796	-0.160	-0.003
-548.339	-8.319	0.248	0.214
-547.325	-143.955	0.381	-0.046
-546.310	622.108	-0.082	-0.266
-545.296	105.106	0.361	-0.548
-544.281	589.838	0.160	-0.510
-543.266	67.643	-0.058	0.076
-542.252	13.054	0.190	-0.189
-541.237	-186.730	-0.375	0.007
-540.223	-138.293	-0.293	0.041
-539.208	52.697	0.078	-0.095
-538.193	-64.101	0.273	0.142
-537.179	-155.142	0.391	-0.032
-536.164	56.389	-0.285	-0.356
-535.150	217.732	-0.123	0.252
-534.135	-200.000	0.023	0.273
-533.121	-101.208	-0.664	-0.207
-532.106	-46.182	0.060	0.038
-531.091	309.134	0.188	-0.454
-530.077	-200.000	0.052	-0.396
-529.062	-142.187	-0.530	0.067
-528.048	-68.774	-0.075	-0.037
-527.033	-2.679	0.378	0.339
-526.018	-57.847	0.293	-0.164
-525.004	-6.394	-0.274	-0.240
-523.989	-99.671	-0.053	-0.017
-522.975	148.770	0.205	-0.357
-521.960	70.455	-0.035	-0.046
-520.945	-200.000	0.056	0.481
-519.931	-61.912	-0.040	-0.021
-518.916	-32.909	-0.401	-0.285
-517.902	-71.427	0.270	0.129
-516.887	-141.425	-0.506	-0.065
-515.872	-15.027	0.301	-0.247
-514.858	-153.882	-0.189	0.016
-513.843	-200.000	-0.028	-0.850
-512.829	-123.916	-0.616	0.124
-511.814	205.521	0.194	0.388
-510.799	71.517	-0.254	-0.339
-509.785	-54.876	0.532	-0.307
-508.770	-66.980	-0.476	0.240
-507.756	-152.419	-0.279	-0.025
-506.741	294.986	0.171	-0.404
-505.726	-15.072	-0.041	0.034
-504.712	-3.990	-0.237	0.211
-503.697	-93.325	0.324	0.115
-502.683	83.397	-0.251	0.351
-501.668	20.873	-0.293	0.305
-500.653	69.782	0.366	0.484
-499.639	-200.000	0.054	0.415
-498.624	241.857	-0.195	-0.419
-497.610	-98.345	-0.147	-0.048
-496.595	-137.127	0.181	0.026
-495.581	-177.357	0.130	0.004
-494.566	385.814	-0.083	-0.220
-493.551	-65.725	0.156	-0.080
-492.537	800.000	0.054	0.249
-491.522	-49.764	0.402	-0.244
-490.508	-84.329	0.570	-0.230
-489.493	79.492	-0.149	0.205
-488.478	38.430	-0.182	-0.208
-487.464	-47.898	-0.358	-0.221
-486.449	-0.677	-0.032	0.029
-485.435	130.965	-0.211	-0.348
-484.420	49.151	0.060	0.073
-483.405	443.388	0.037	-0.103
-482.391	-6.826	0.189	0.164
-481.376	-200.000	0.039	0.230
-480.362	-116.564	-0.305	0.071
-479.347	-200.000	-0.033	-0.227
-478.332	-174.295	0.272	0.010
-477.318	548.820	-0.121	-0.372
-476.303	-87.104	0.641	-0.249
-475.289	-43.378	0.198	0.128
-474.274	800.000	0.115	0.505
-473.259	129.680	-0.139	0.229
-472.245	-25.171	-0.235	0.178
-471.230	-52.602	-0.101	0.060
-470.216	-200.000	-0.057	0.358
-469.201	-57.675	-0.316	0.177
-468.186	800.000	0.018	0.097
-467.172	-2.318	0.254	0.228
-466.157	71.119	-0.218	0.290
-465.143	-84.466	-0.323	-0.130
-464.128	197.615	-0.310	0.609
-463.113	214.678	0.278	0.566
-462.099	285.111	-0.055	0.127
-461.084	-147.590	-0.596	-0.063
-460.070	-144.722	0.288	-0.034
-459.055	40.786	0.171	0.197
-458.040	800.000	0.043	0.175
-457.026	-119.644	0.230	-0.050
-456.011	-21.841	0.135	-0.105
-454.997	6.787	0.419	-0.399
-453.982	677.000	-0.079	-0.264
-452.968	92.508	0.196	-0.283
-451.953	-200.000	0.043	-0.368
-450.938	19.675	0.153	0.158
-449.924	-39.522	0.285	-0.191
-448.909	-200.000	-0.022	0.200
-447.895	361.705	-0.238	0.614
-446.880	38.562	-0.381	0.435
-445.865	-123.620	0.036	0.007
-444.851	-8.267	0.242	-0.208
-443.836	-171.063	0.238	-0.010
-442.822	252.002	-0.024	0.053
-441.807	-41.747	0.246	0.161
-440.792	-31.782	0.153	0.109
-439.778	-153.716	-0.180	-0.016
-438.763	-200.000	-0.007	-0.281
-437.749	800.000	0.095	-0.423
-436.734	-200.000	-0.005	0.099
-435.719	6.717	0.476	-0.453
-434.705	290.888	0.157	-0.366
-433.690	106.886	-0.088	0.134
-432.676	413.017	0.053	-0.145
-431.661	-200.000	-0.033	-0.311
-430.646	128.499	0.199	-0.325
-429.632	800.000	0.058	-0.248
-428.617	-64.657	-0.298	0.154
-427.603	106.724	0.202	-0.307
-426.588	76.916	-0.178	-0.241
-425.573	-130.825	0.057	0.010
-424.559	-200.000	0.028	0.190
-423.544	-22.087	-0.089	-0.069
-422.530	-188.237	-0.120	0.002
-421.515	140.274	0.130	0.219
-420.500	-9.319	-0.235	0.200
-419.486	-80.803	0.204	0.086
-418.471	-75.734	-0.347	-0.157
-417.457	-121.913	-0.284	0.059
-416.442	576.637	-0.079	-0.247
-415.428	-200.000	-0.634	0.002
-414.413	800.000	-0.028	0.136
-413.398	151.541	-0.153	0.267
-412.384	-52.410	0.318	0.187
-411.369	66.677	-0.326	0.424
-410.355	50.975	-0.031	-0.038
-409.340	171.622	-0.061	0.113
-408.325	800.000	-0.114	0.437
-407.311	-200.000	-0.051	0.354
-406.296	49.016	0.053	-0.064
-405.282	-52.981	-0.078	0.046
-404.267	139.834	-0.187	0.315
-403.252	52.367	0.092	0.113
-402.238	75.732	0.270	-0.365
-401.223	-101.315	-0.347	0.108
-400.209	602.865	0.030	0.095
-399.194	-200.000	0.010	0.229
-398.179	-140.819	-0.443	-0.058
-397.165	-200.000	0.027	0.592
-396.150	-152.997	0.311	0.028
-395.136	555.002	0.121	0.373
-394.121	-26.555	-0.276	-0.206
-393.106	-86.583	-0.326	0.127
-392.092	118.036	0.126	0.199
-391.077	103.343	0.274	0.412
-390.063	-200.000	0.022	0.473
-389.048	-200.000	-0.025	0.246
-388.033	-101.149	-0.251	0.078
-387.019	-34.910	-0.395	0.275
-386.004	-200.000	-0.027	-0.277
-384.990	44.734	-0.240	-0.282
-383.975	-40.199	-0.287	0.190
-382.960	317.907	0.135	0.328
-381.946	-200.000	-0.012	-0.181
-380.931	-156.674	-0.256	0.020
-379.917	128.240	-0.250	0.408
-378.902	168.239	0.154	-0.280
-377.888	-200.000	-0.009	-0.521
-376.873	68.870	0.046	-0.061
-375.858	58.058	-0.053	-0.067
-374.844	7.344	-0.354	0.337
-373.829	273.138	0.062	0.140
-372.815	265.959	0.162	0.363
-371.800	88.791	-0.135	0.192
-370.785	-8.121	-0.212	-0.182
-369.771	-200.000	0.038	-0.229
-368.756	-99.218	-0.263	0.084
-367.742	-106.024	0.103	-0.029
-366.727	-181.809	0.507	-0.012
-365.712	-8.292	0.411	-0.352
-364.698	-199.031	-0.349	0.002
-363.683	-49.881	-0.032	0.019
-362.669	-107.732	0.262	-0.072
-361.654	-8.595	0.224	-0.191
-360.639	-58.688	0.090	-0.050
-359.625	-111.998	-0.237	-0.061
-358.610	31.161	0.110	-0.120
-357.596	-44.126	0.292	-0.187
-356.581	-14.216	0.527	0.433
-355.566	459.357	-0.131	0.374
-354.552	-143.057	0.139	-0.017
-353.537	-44.410	0.321	0.204
-352.523	-200.000	0.004	0.463
-351.508	180.626	-0.039	-0.072
-350.493	-17.243	0.351	0.282
-349.479	-49.128	0.418	0.254
-348.464	45.444	0.290	-0.341
-347.450	7.533	0.092	0.087
-346.435	-96.091	0.468	-0.158
-345.420	61.702	-0.258	-0.327
-344.406	-200.000	0.047	-0.360
-343.391	-174.665	0.581	0.021
-342.377	-98.397	0.700	-0.227
-341.362	-145.820	0.544	-0.061
-340.348	125.740	-0.263	-0.425
-339.333	-200.000	0.007	-0.160
-338.318	-119.495	0.684	0.150
-337.304	60.213	-0.408	0.515
-336.289	189.642	0.089	-0.171
-335.275	-200.000	0.013	-0.427
-334.260	-91.146	-0.298	0.108
-333.245	-161.223	-0.089	-0.006
-332.231	-200.000	-0.004	-0.230
-331.216	-43.968	0.273	0.174
-330.202	-30.160	0.044	0.032
-329.187	800.000	0.054	-0.300
-328.172	75.047	-0.212	0.285
-327.158	-200.000	0.030	-0.225
-326.143	-107.287	-0.266	0.074
-325.129	-37.604	0.211	-0.143
-324.114	247.387	-0.231	0.498
-323.099	-200.000	-0.036	0.368
-322.085	16.202	0.198	-0.199
-321.070	-137.876	0.230	-0.032
-320.056	180.389	0.072	-0.135
-319.041	-178.334	0.251	0.007
-318.026	168.370	0.078	-0.142
-317.012	-115.354	0.151	-0.036
-315.997	-69.001	0.437	0.214
-314.983	-16.769	-0.418	0.336
-313.968	-116.271	-0.103	0.024
-312.953	81.656	0.179	-0.247
-311.939	-200.000	0.023	-0.324
-310.924	-27.146	-0.423	-0.313
-309.910	-200.000	-0.031	0.202
-308.895	-173.770	-0.104	0.004
-307.880	800.000	0.104	-0.568
-306.866	-5.157	-0.179	-0.157
-305.851	-80.157	-0.320	0.136
-304.837	130.126	0.128	0.209
-303.822	-38.123	0.264	0.178
-302.807	-200.000	-0.016	0.157
-301.793	494.114	-0.140	-0.411
-300.778	242.316	-0.152	-0.325
-299.764	93.336	-0.269	-0.387
-298.749	-200.000	0.005	0.269
-297.735	-200.000	0.020	-0.132
-296.720	-172.960	0.487	-0.019
-295.705	-35.492	0.203	0.140
-294.691	-5.631	0.167	-0.145
-293.676	-200.000	-0.090	0.539
-292.662	610.756	-0.064	-0.203
-291.647	21.164	0.417	-0.430
-290.632	32.358	0.222	-0.244
-289.618	-110.521	0.469	0.123
-288.603	393.425	-0.158	0.421
-287.589	-200.000	-0.021	0.352
-286.574	-135.443	-0.218	0.033
-285.559	116.543	-0.125	0.195
-284.545	800.000	0.078	0.346
-283.530	-30.141	0.512	0.369
-282.516	18.153	0.209	0.212
-281.501	-128.457	0.472	0.084
-280.486	54.971	0.152	0.187
-279.472	-200.000	0.018	0.146
-278.457	18.846	-0.370	-0.377
-277.443	-160.756	0.373	0.025
-276.428	-200.000	-0.081	0.635
-275.413	160.426	0.067	-0.119
-274.399	29.181	-0.266	-0.286
-273.384	-200.000	0.090	0.654
-272.370	-168.330	-0.405	0.020
-271.355	47.014	-0.080	-0.095
-270.340	-82.884	0.425	-0.173
-269.326	227.664	-0.031	-0.064
-268.311	-91.163	0.413	0.149
-267.297	800.000	-0.128	0.598
-266.282	-200.000	-0.010	-0.131
-265.267	113.308	0.123	0.189
-264.253	-81.697	-0.230	0.095
-263.238	-178.891	-0.167	-0.005
-262.224	-200.000	0.038	0.840
-261.209	-177.200	-0.331	0.010
-260.195	-22.628	-0.224	-0.171
-259.180	-58.771	-0.100	-0.055
-258.165	-200.000	-0.032	0.314
-257.151	-5.835	-0.405	0.352
-256.136	-160.487	0.261	-0.018
-255.122	23.903	0.309	0.324
-254.107	680.018	0.052	0.171
-253.092	-88.171	0.225	-0.085
-252.078	-200.000	0.024	0.142
-251.063	66.145	-0.044	0.057
-250.049	-145.142	0.330	-0.038
-249.034	428.993	-0.161	-0.445
-248.019	-108.870	-0.164	0.044
-247.005	800.000	0.032	-0.145
-245.990	666.000	-0.074	0.244
-244.976	-200.000	0.019	0.130
-243.961	-172.265	0.093	0.004
-242.946	-15.772	0.094	-0.076
-241.932	-111.093	-0.183	0.047
-240.917	-181.880	-0.241	-0.006
-239.903	-38.474	0.484	-0.324
-238.888	248.822	0.156	-0.336
-237.873	15.087	0.144	0.143
-236.859	-136.002	0.504	-0.074
-235.844	-68.128	0.126	0.062
-234.830	-200.000	0.024	-0.179
-233.815	-3.532	-0.490	-0.432
-232.800	-3.375	-0.224	-0.197
-231.786	-151.501	-0.123	-0.011
-230.771	-71.686	-0.183	0.087
-229.757	-112.572	-0.364	0.091
-228.742	103.704	0.294	-0.439
-227.727	-131.048	0.537	0.090
-226.713	-140.749	-0.133	-0.017
-225.698	274.943	0.017	-0.039
-224.684	-200.000	0.024	0.179
-223.669	79.673	-0.100	0.137
-222.655	244.378	-0.230	0.493
-221.640	444.699	-0.094	0.262
-220.625	800.000	-0.058	0.242
-219.611	800.000	-0.113	0.557
-218.596	90.773	-0.179	0.254
-217.582	9.622	0.344	-0.330
-216.567	77.006	0.063	0.086
-215.552	19.783	-0.144	-0.147
-214.538	295.930	0.166	-0.388
-213.523	-46.714	0.238	-0.147
-212.509	-124.649	0.376	0.073
-211.494	10.481	0.226	-0.218
-210.479	-24.906	-0.414	-0.311
-209.465	-179.966	-0.581	0.015
-208.450	170.666	-0.237	-0.432
-207.436	164.653	-0.165	0.296
-206.421	-91.019	-0.156	0.056
-205.406	-4.565	-0.545	-0.476
-204.392	-69.830	-0.424	-0.204
-203.377	272.170	-0.027	0.060
-202.363	800.000	0.047	-0.186
-201.348	144.769	-0.317	-0.538
-200.333	289.635	0.231	-0.533
-199.319	-108.930	0.315	0.085
-198.304	-200.000	-0.069	-0.451
-197.290	-109.815	0.250	0.066
-196.275	34.467	-0.153	0.170
-195.260	-87.905	0.501	-0.190
-194.246	800.000	0.111	-0.571
-193.231	-42.660	-0.161	-0.104
-192.217	-171.590	-0.638	-0.026
-191.202	30.634	0.182	0.197
-190.187	406.801	0.014	0.037
-189.173	-76.092	0.207	-0.092
-188.158	25.434	-0.310	0.327
-187.144	-53.736	-0.251	-0.145
-186.129	-2.468	0.159	0.141
-185.114	15.314	0.032	0.031
-184.100	-64.855	-0.286	-0.146
-183.085	-51.121	0.237	0.141
-182.071	-200.000	0.003	0.075
-181.056	23.958	-0.165	-0.172
-180.042	-91.850	0.100	0.036
-179.027	-18.849	0.363	0.286
-178.012	-81.791	0.190	0.078
-176.998	-105.348	-0.137	0.039
-175.983	-200.000	0.019	-0.176
-174.969	570.225	0.073	0.225
-173.954	172.448	0.099	0.180
-172.939	84.806	-0.096	0.134
-171.925	-200.000	-0.014	-0.281
-170.910	237.507	0.080	0.169
-169.896	-150.087	0.024	0.002
-168.881	278.027	-0.106	-0.240
-167.866	375.016	-0.170	-0.440
-166.852	-159.975	0.412	0.028
-165.837	-200.000	-0.061	0.402
-164.823	-89.153	0.340	-0.126
-163.808	186.032	0.222	-0.418
-162.793	-37.097	-0.242	-0.163
-161.779	-96.857	-0.264	-0.087
-160.764	800.000	0.026	0.105
-159.750	-181.136	0.228	0.006
-158.735	-154.647	-0.177	-0.015
-157.720	356.770	-0.072	-0.181
-156.706	203.010	0.121	-0.237
-155.691	47.311	-0.372	-0.439
-154.677	183.373	-0.064	-0.120
-153.662	231.333	-0.222	-0.462
-152.647	-137.974	-0.154	-0.021
-151.633	-119.945	0.368	-0.079
-150.618	-55.654	0.344	-0.194
-149.604	-139.016	0.546	-0.074
-148.589	121.252	-0.105	0.166
-147.574	141.886	0.131	-0.220
-146.560	800.000	-0.033	0.154
-145.545	-200.000	-0.055	0.363
-144.531	213.201	0.075	0.150
-143.516	325.966	-0.093	0.225
-142.502	-73.193	-0.358	-0.165
-141.487	213.741	-0.038	0.077
-140.472	-49.279	-0.252	0.152
-139.458	284.259	-0.146	0.334
-138.443	-200.000	0.037	0.521
-137.429	-51.403	-0.418	-0.246
-136.414	298.822	0.236	0.552
-135.399	-91.297	0.368	-0.133
-134.385	-86.775	0.078	-0.030
-133.370	537.945	-0.154	-0.465
-132.356	-130.182	-0.290	0.050
-131.341	120.446	-0.104	0.163
-130.326	-113.142	-0.120	0.030
-129.312	-190.795	0.558	0.007
-128.297	242.728	-0.144	0.306
-127.283	513.667	0.070	0.208
-126.268	-200.000	0.017	0.502
-125.253	117.308	0.184	0.286
-124.239	-200.000	-0.058	0.351
-123.224	-200.000	0.058	0.341
-122.210	262.201	0.124	-0.272
-121.195	-73.493	-0.116	0.053
