DTS Sentinel unit serial number:	SN409020Multiplexer serial number:	ORYXHardware model number:	OX4-SRSoftware version number:	ORYX F/W v3.00 Oryx Data Collector v3.7.2.0data status	okinstallation	HaddamTimeLapsedifferential loss correction	single-endedforward channel	channel 3reverse channel	N/Adate	2011/06/22time	08:06:17forward acquisition time	30.00reverse acquisition time	0.00gamma	498.7831k internal	0.1768k external	0.1768temperature offset calibration	1.0074default loss term (dB/km)	0.3790temperature slope calibration	1.3530multiplexer offset coefficient	1.0000multiplexer slope coefficient	1.0000fibre end	0.00T internal ref (°C)	24.75T ext. ref 1 (°C)	22.81T ext. ref 2 (°C)	0.16length (m)	temperature (°C)	Stokes	anti-Stokes-747.200	-136.439	-0.150	-0.023
-746.185	127.059	0.067	0.113
-745.171	-147.388	-0.266	0.029
-744.156	-93.025	-0.282	-0.103
-743.142	351.879	0.120	-0.315
-742.127	-200.000	-0.062	-0.659
-741.112	93.950	-0.074	-0.110
-740.098	800.000	-0.043	0.247
-739.083	52.131	-0.502	-0.630
-738.069	208.854	0.138	0.285
-737.054	-117.867	-0.114	-0.027
-736.039	-102.154	-0.300	0.094
-735.025	-15.772	-0.292	0.244
-734.010	-65.637	-0.322	-0.169
-732.996	356.981	-0.116	0.305
-731.981	301.503	-0.188	-0.458
-730.966	-50.219	-0.297	-0.184
-729.952	-200.000	-0.027	-0.789
-728.937	800.000	-0.114	-0.520
-727.923	-47.161	-0.238	-0.152
-726.908	234.147	-0.171	-0.373
-725.894	-200.000	0.024	-0.412
-724.879	-30.994	-0.278	0.206
-723.864	-137.049	-0.777	-0.116
-722.850	800.000	0.116	0.508
-721.835	-173.186	0.243	-0.010
-720.821	-76.482	0.258	0.119
-719.806	-154.749	-0.510	0.044
-718.791	-92.759	0.337	-0.123
-717.777	-49.607	-0.340	0.212
-716.762	72.341	-0.190	-0.260
-715.748	-200.000	0.261	0.000
-714.733	84.967	0.335	0.483
-713.718	800.000	0.082	0.314
-712.704	6.891	-0.308	0.301
-711.689	-25.040	-0.262	-0.204
-710.675	5.710	-0.509	-0.494
-709.660	-101.198	-0.595	-0.190
-708.645	216.606	-0.106	0.222
-707.631	-80.225	-0.204	-0.089
-706.616	-160.350	-0.708	-0.049
-705.602	-119.020	-0.024	-0.006
-704.587	-149.227	0.091	0.009
-703.572	454.870	0.066	-0.193
-702.558	-19.221	0.109	0.089
-701.543	437.020	0.192	0.552
-700.529	-94.794	0.394	0.140
-699.514	-129.406	-0.567	-0.102
-698.499	-200.000	-0.010	0.082
-697.485	141.913	-0.121	0.212
-696.470	69.644	-0.175	-0.237
-695.456	-104.406	-0.382	-0.115
-694.441	-148.142	0.165	0.018
-693.426	-134.367	0.684	0.109
-692.412	59.155	0.414	0.536
-691.397	175.504	-0.070	0.134
-690.383	-44.397	-0.351	-0.230
-689.368	-134.022	0.217	-0.035
-688.354	-150.336	0.512	-0.051
-687.339	760.574	0.045	-0.162
-686.324	800.000	-0.193	0.710
-685.310	-158.642	-0.203	0.015
-684.295	-200.000	0.001	-0.070
-683.281	-9.506	-0.168	-0.147
-682.266	-104.638	-0.160	0.048
-681.251	77.501	-0.301	-0.421
-680.237	-104.609	-0.333	-0.100
-679.222	156.167	-0.179	-0.324
-678.208	-57.689	-0.373	0.213
-677.193	85.562	-0.149	0.215
-676.178	-40.437	-0.326	-0.222
-675.164	-200.000	-0.027	-0.517
-674.149	-200.000	-0.075	-0.692
-673.135	-68.559	0.111	0.056
-672.120	51.068	0.167	-0.208
-671.105	-113.931	-0.402	-0.102
-670.091	83.494	0.239	-0.342
-669.076	-200.000	-0.009	-0.053
-668.062	-39.197	0.342	-0.235
-667.047	-200.000	-0.033	-0.415
-666.032	-200.000	-0.102	-0.752
-665.018	-176.023	-0.051	0.002
-664.003	-69.840	0.256	0.128
-662.989	259.163	-0.115	0.261
-661.974	-132.616	-0.247	-0.041
-660.959	-64.066	-0.284	-0.152
-659.945	-23.289	-0.259	-0.204
-658.930	14.302	-0.141	0.144
-657.916	140.346	0.217	-0.376
-656.901	29.147	0.124	0.138
-655.886	-1.566	0.323	-0.299
-654.872	-77.207	0.286	0.130
-653.857	-17.946	0.219	-0.180
-652.843	800.000	-0.027	0.151
-651.828	-49.538	0.287	0.179
-650.814	467.257	0.119	-0.353
-649.799	-90.276	0.195	-0.074
-648.784	-76.190	-0.446	0.205
-647.770	-4.463	0.088	0.080
-646.755	23.849	0.070	-0.076
-645.741	-100.966	0.195	0.062
-644.726	50.327	-0.135	-0.168
-643.711	8.428	0.264	0.260
-642.697	587.498	0.097	-0.314
-641.682	17.269	0.163	0.169
-640.668	800.000	-0.104	-0.553
-639.653	-136.617	0.526	-0.079
-638.638	207.825	-0.263	-0.539
-637.624	482.713	-0.120	-0.359
-636.609	800.000	0.021	-0.086
-635.595	56.529	-0.128	0.163
-634.580	9.970	0.228	0.227
-633.565	-110.596	0.343	0.092
-632.551	109.264	-0.188	-0.295
-631.536	327.616	0.108	-0.274
-630.522	-200.000	0.021	-0.446
-629.507	-112.786	0.106	-0.027
-628.492	542.385	0.138	-0.434
-627.478	59.671	0.346	-0.448
-626.463	-108.621	0.204	-0.057
-625.449	75.138	0.105	-0.145
-624.434	-98.086	-0.158	0.053
-623.419	-200.000	-0.037	-0.217
-622.405	-151.064	0.343	0.033
-621.390	-126.395	-0.132	0.026
-620.376	-200.000	0.059	-0.426
-619.361	800.000	-0.093	0.487
-618.346	87.680	0.228	0.331
-617.332	-200.000	0.062	-0.371
-616.317	-100.994	-0.452	-0.144
-615.303	574.243	-0.115	-0.370
-614.288	-39.546	0.117	0.080
-613.273	110.593	0.450	-0.710
-612.259	-52.219	0.167	0.101
-611.244	-91.356	-0.242	0.090
-610.230	29.003	-0.157	0.174
-609.215	800.000	0.037	-0.177
-608.201	-97.121	-0.640	0.218
-607.186	-142.738	0.317	-0.040
-606.171	-42.230	-0.396	-0.264
-605.157	-200.000	-0.541	-0.003
-604.142	549.822	-0.060	0.190
-603.128	-107.411	0.328	0.093
-602.113	-156.496	-0.386	-0.031
-601.098	29.010	0.129	0.144
-600.084	800.000	-0.046	-0.227
-599.069	-164.456	0.295	0.017
-598.055	319.174	-0.116	0.289
-597.040	-88.982	-0.140	0.054
-596.025	800.000	-0.078	0.328
-595.011	800.000	-0.089	0.348
-593.996	46.489	0.040	-0.049
-592.982	-101.585	0.116	0.037
-591.967	-164.705	0.075	-0.004
-590.952	-51.152	0.260	0.159
-589.938	-128.839	0.450	0.082
-588.923	-52.024	-0.211	0.128
-587.909	-95.916	0.139	0.048
-586.894	-200.000	0.019	-0.168
-585.879	-200.000	-0.013	-0.206
-584.865	-74.705	0.153	0.072
-583.850	-200.000	-0.029	0.322
-582.836	-65.156	-0.087	0.046
-581.821	-58.639	-0.219	-0.124
-580.806	35.707	-0.169	0.195
-579.792	-83.389	-0.223	0.093
-578.777	121.680	-0.149	-0.243
-577.763	-103.281	-0.150	0.046
-576.748	-200.000	0.015	0.458
-575.733	-200.000	0.015	-0.477
-574.719	-182.625	-0.428	-0.010
-573.704	-200.000	-0.022	0.170
-572.690	85.827	-0.321	-0.462
-571.675	7.158	-0.305	-0.297
-570.661	-67.015	-0.334	0.172
-569.646	-200.000	0.026	0.154
-568.631	-145.017	0.210	0.025
-567.617	-54.559	-0.454	-0.267
-566.602	7.389	-0.168	0.164
-565.588	96.308	0.232	0.348
-564.573	-200.000	-0.078	-0.556
-563.558	-10.907	-0.364	-0.314
-562.544	46.848	0.155	-0.188
-561.529	-152.795	-0.373	-0.034
-560.515	168.609	-0.156	-0.290
-559.500	37.852	0.364	0.423
-558.485	-200.000	-0.040	0.511
-557.471	-81.475	-0.106	-0.045
-556.456	59.427	-0.023	0.030
-555.442	85.617	0.133	-0.191
-554.427	800.000	0.075	-0.329
-553.412	98.167	0.038	-0.057
-552.398	48.509	-0.093	-0.114
-551.383	-200.000	0.010	0.204
-550.369	-200.000	0.004	-0.108
-549.354	-22.493	0.061	0.049
-548.339	126.472	-0.179	0.296
-547.325	-14.227	-0.320	0.269
-546.310	-22.931	0.216	-0.170
-545.296	336.880	-0.302	-0.770
-544.281	800.000	0.072	-0.281
-543.266	183.109	0.070	-0.135
-542.252	77.440	-0.286	0.397
-541.237	96.310	0.145	-0.217
-540.223	-200.000	0.003	0.087
-539.208	-26.839	-0.567	0.432
-538.193	-134.374	-0.406	-0.064
-537.179	-83.919	-0.149	-0.062
-536.164	-200.000	-0.040	0.287
-535.150	23.142	-0.196	0.210
-534.135	7.639	0.040	0.039
-533.121	-200.000	-0.013	-0.137
-532.106	-60.032	0.414	0.230
-531.091	444.138	0.096	0.275
-530.077	-200.000	-0.000	0.096
-529.062	-200.000	-0.082	0.601
-528.048	-3.516	0.553	-0.501
-527.033	45.962	0.426	-0.514
-526.018	-200.000	-0.010	0.188
-525.004	-65.680	0.168	-0.088
-523.989	-58.284	0.287	0.163
-522.975	800.000	0.101	-0.564
-521.960	800.000	-0.173	0.630
-520.945	-65.470	-0.057	-0.030
-519.931	-51.392	-0.089	0.054
-518.916	124.557	-0.125	0.205
-517.902	-39.219	0.447	-0.305
-516.887	1.192	-0.350	0.328
-515.872	381.231	-0.117	-0.315
-514.858	-18.468	-0.358	0.291
-513.843	-200.000	-0.010	-0.170
-512.829	669.027	-0.143	-0.485
-511.814	58.379	-0.131	0.168
-510.799	-200.000	-0.014	-0.292
-509.785	-7.976	-0.104	0.091
-508.770	-143.198	0.187	-0.023
-507.756	-165.317	-0.365	0.021
-506.741	73.511	0.083	-0.113
-505.726	800.000	0.071	0.385
-504.712	-62.566	0.411	0.221
-503.697	-187.901	0.365	-0.006
-502.683	-41.443	-0.183	0.123
-501.668	34.408	0.198	-0.225
-500.653	-73.888	0.342	0.161
-499.639	-133.759	-0.297	0.048
-498.624	176.529	-0.109	0.208
-497.610	-57.572	-0.438	0.249
-496.595	25.846	0.123	0.133
-495.581	-182.492	-0.377	-0.009
-494.566	717.012	-0.122	-0.424
-493.551	-200.000	0.019	-0.403
-492.537	62.307	-0.120	0.156
-491.522	-116.835	0.391	0.093
-490.508	-108.562	0.597	-0.166
-489.493	-62.836	-0.138	-0.074
-488.478	21.649	0.099	-0.105
-487.464	139.124	0.083	0.142
-486.449	162.808	0.110	0.202
-485.435	-74.053	-0.221	0.104
-484.420	160.023	0.157	-0.285
-483.405	221.295	-0.041	0.085
-482.391	-122.112	-0.185	0.039
-481.376	-17.014	-0.187	-0.153
-480.362	184.526	0.255	-0.493
-479.347	586.583	-0.052	-0.168
-478.332	-44.027	0.055	-0.036
-477.318	-56.962	-0.358	-0.205
-476.303	-22.265	0.105	-0.083
-475.289	31.397	0.370	0.414
-474.274	-178.755	0.155	-0.005
-473.259	-61.961	-0.167	0.090
-472.245	-200.000	-0.021	0.140
-471.230	241.103	0.136	0.296
-470.216	-34.556	0.384	0.273
-469.201	-126.237	0.197	-0.038
-468.186	56.594	0.362	0.458
-467.172	-29.126	-0.168	0.125
-466.157	-137.831	-0.517	-0.075
-465.143	230.470	-0.160	0.342
-464.128	-21.677	0.204	0.162
-463.113	719.747	0.143	0.499
-462.099	92.602	0.109	0.160
-461.084	-9.324	0.175	0.152
-460.070	7.169	-0.339	0.329
-459.055	800.000	0.033	0.182
-458.040	800.000	0.177	0.902
-457.026	149.086	-0.087	0.154
-456.011	11.240	-0.109	-0.109
-454.997	-89.679	-0.248	-0.094
-453.982	-8.366	0.563	-0.492
-452.968	-128.886	-0.348	-0.063
-451.953	-70.940	-0.134	-0.065
-450.938	463.940	0.146	-0.427
-449.924	83.533	0.326	0.463
-448.909	137.623	0.173	0.296
-447.895	-84.088	0.380	-0.156
-446.880	222.221	-0.077	-0.163
-445.865	-200.000	0.012	-0.084
-444.851	-59.802	0.499	0.277
-443.836	-24.083	0.099	-0.077
-442.822	800.000	0.085	0.377
-441.807	-87.175	0.200	-0.079
-440.792	-200.000	-0.013	-0.111
-439.778	-125.891	0.189	-0.037
-438.763	-200.000	-0.029	0.344
-437.749	-200.000	0.028	-0.229
-436.734	6.168	-0.436	-0.420
-435.719	-41.315	0.175	0.117
-434.705	-91.022	0.099	0.037
-433.690	-50.742	-0.361	0.220
-432.676	-200.000	-0.067	0.431
-431.661	299.217	0.116	0.279
-430.646	-151.709	0.454	-0.043
-429.632	800.000	-0.001	0.005
-428.617	800.000	-0.128	-0.499
-427.603	-200.000	-0.011	-0.172
-426.588	-200.000	0.009	-0.075
-425.573	32.114	-0.155	0.174
-424.559	-54.924	-0.243	0.142
-423.544	-115.974	-0.224	0.054
-422.530	702.031	-0.091	-0.312
-421.515	481.901	-0.103	0.305
-420.500	-200.000	0.001	-0.060
-419.486	-200.000	-0.027	0.282
-418.471	-134.526	0.287	0.045
-417.457	-200.000	0.025	-0.182
-416.442	156.640	0.255	-0.459
-415.428	-42.123	-0.314	-0.208
-414.413	-200.000	0.043	-0.296
-413.398	52.572	0.154	-0.192
-412.384	800.000	-0.069	0.303
-411.369	-10.957	-0.163	0.140
-410.355	-181.837	-0.272	0.007
-409.340	161.216	-0.151	-0.275
-408.325	-5.928	0.096	0.086
-407.311	117.587	0.267	-0.428
-406.296	-181.661	0.082	0.002
-405.282	800.000	-0.039	0.184
-404.267	164.275	0.154	-0.282
-403.252	-149.522	0.254	-0.026
-402.238	76.035	0.186	0.255
-401.223	-135.086	0.328	0.051
-400.209	-91.930	0.267	-0.098
-399.194	800.000	-0.104	0.527
-398.179	-64.421	-0.318	0.167
-397.165	-200.000	0.010	0.084
-396.150	800.000	0.024	0.090
-395.136	-123.035	-0.197	-0.041
-394.121	-85.954	-0.296	0.118
-393.106	-50.359	0.427	-0.261
-392.092	548.935	-0.078	0.242
-391.077	-114.435	-0.334	-0.083
-390.063	-63.020	0.134	0.072
-389.048	120.750	-0.073	-0.118
-388.033	-84.267	-0.187	0.076
-387.019	-200.000	-0.026	0.441
-386.004	-66.730	0.221	-0.113
-384.990	800.000	0.153	-0.636
-383.975	-200.000	0.019	0.239
-382.960	-55.183	0.203	-0.118
-381.946	-144.130	-0.300	-0.036
-380.931	112.218	0.234	0.367
-379.917	800.000	0.111	0.454
-378.902	-21.423	0.202	0.160
-377.888	235.333	-0.135	-0.289
-376.873	273.306	0.123	-0.283
-375.858	86.631	-0.107	-0.153
-374.844	-134.497	-0.195	0.031
-373.829	-52.874	0.237	0.141
-372.815	-200.000	0.029	-0.268
-371.800	-167.797	-0.045	-0.002
-370.785	-200.000	0.001	-0.126
-369.771	-47.331	-0.319	-0.201
-368.756	-200.000	0.043	0.249
-367.742	-200.000	0.015	0.094
-366.727	-200.000	-0.122	-0.001
-365.712	122.120	-0.125	-0.202
-364.698	190.532	0.097	0.190
-363.683	-102.492	0.175	0.054
-362.669	-200.000	-0.060	0.476
-361.654	-174.701	0.523	-0.019
-360.639	202.110	-0.099	0.198
-359.625	116.527	-0.228	-0.362
-358.610	608.841	-0.149	0.483
-357.596	-200.000	0.011	-0.192
-356.581	-6.496	-0.294	0.259
-355.566	-200.000	0.016	0.561
-354.552	-114.614	0.421	-0.104
-353.537	800.000	-0.017	0.066
-352.523	-36.537	0.079	0.055
-351.508	-109.750	0.414	-0.112
-350.493	540.154	-0.177	-0.550
-349.479	800.000	0.102	0.369
-348.464	-144.362	0.396	0.047
-347.450	-165.482	0.147	-0.008
-346.435	173.538	0.165	-0.310
-345.420	67.678	-0.026	0.034
-344.406	109.525	-0.081	-0.126
-343.391	-78.934	-0.034	0.015
-342.377	-195.391	-0.607	0.006
-341.362	433.253	-0.152	0.429
-340.348	-163.686	0.251	0.015
-339.333	-71.198	0.274	0.132
-338.318	531.718	-0.051	0.157
-337.304	59.131	0.246	0.314
-336.289	71.880	-0.210	-0.283
-335.275	-101.285	-0.366	-0.115
-334.260	800.000	0.094	0.445
-333.245	-8.390	0.091	0.079
-332.231	49.999	0.212	0.259
-331.216	38.208	-0.147	0.169
-330.202	-114.206	0.464	-0.115
-329.187	-29.057	0.148	0.110
-328.172	81.896	-0.112	0.157
-327.158	279.646	0.131	0.303
-326.143	-155.580	0.380	0.031
-325.129	-142.799	0.271	0.034
-324.114	-126.523	0.140	-0.027
-323.099	488.195	0.067	0.199
-322.085	-162.491	-0.088	0.006
-321.070	-200.000	0.093	-0.816
-320.056	190.714	-0.107	-0.210
-319.041	-200.000	0.024	0.333
-318.026	-200.000	-0.041	-0.265
-317.012	229.882	-0.258	-0.546
-315.997	45.725	0.382	0.456
-314.983	-5.510	0.057	0.050
-313.968	-200.000	-0.024	0.139
-312.953	364.564	-0.144	0.376
-311.939	-129.233	0.151	0.027
-310.924	800.000	0.054	0.197
-309.910	-57.490	0.118	-0.067
-308.895	73.726	0.023	-0.031
-307.880	-10.267	-0.336	0.288
-306.866	-32.826	-0.205	-0.147
-305.851	76.229	-0.259	0.355
-304.837	-81.578	0.424	-0.179
-303.822	-95.282	-0.038	-0.013
-302.807	232.305	-0.024	-0.051
-301.793	51.637	0.253	0.312
-300.778	-108.184	-0.502	0.140
-299.764	199.248	0.249	0.495
-298.749	288.677	0.158	-0.371
-297.735	-79.768	0.246	-0.107
-296.720	-122.072	0.200	0.042
-295.705	71.802	0.202	0.271
-294.691	-0.188	0.207	0.190
-293.676	-200.000	0.021	-0.214
-292.662	-200.000	0.021	-0.170
-291.647	295.450	0.018	-0.042
-290.632	-113.574	-0.311	0.078
-289.618	386.974	0.129	0.347
-288.603	-132.129	-0.273	0.045
-287.589	-110.421	0.445	0.119
-286.574	739.118	0.108	-0.378
-285.559	-43.558	-0.484	0.315
-284.545	-80.657	0.582	-0.249
-283.530	-72.662	0.298	-0.142
-282.516	-162.096	0.172	-0.011
-281.501	167.842	0.183	0.338
-280.486	11.689	-0.301	-0.298
-279.472	800.000	-0.152	-0.548
-278.457	-100.776	-0.492	-0.155
-277.443	226.544	0.223	-0.468
-276.428	800.000	-0.011	-0.053
-275.413	-35.817	0.163	0.114
-274.399	194.718	0.110	0.217
-273.384	107.369	-0.306	0.472
-272.370	800.000	-0.033	0.149
-271.355	-19.185	-0.520	-0.417
-270.340	-200.000	-0.001	-0.173
-269.326	-148.410	0.131	-0.014
-268.311	166.747	-0.106	-0.194
-267.297	231.078	0.132	-0.279
-266.282	-72.292	0.291	-0.139
-265.267	179.347	0.019	0.036
-264.253	86.803	0.165	0.236
-263.238	-59.296	0.475	-0.263
-262.224	-99.069	-0.340	0.110
-261.209	-86.499	-0.346	0.136
-260.195	172.821	-0.176	-0.329
-259.180	301.122	0.203	-0.485
-258.165	32.995	0.122	-0.136
-257.151	66.911	-0.231	-0.304
-256.136	85.757	0.090	0.127
-255.122	4.830	-0.287	0.272
-254.107	187.137	-0.059	-0.114
-253.092	-134.618	0.139	0.022
-252.078	-30.834	0.172	-0.125
-251.063	-11.461	-0.192	0.163
-250.049	644.820	0.060	0.199
-249.034	18.623	0.196	-0.202
-248.019	132.915	-0.289	-0.482
-247.005	-3.853	0.269	-0.241
-245.990	31.881	-0.181	-0.202
-244.976	-200.000	-0.006	-0.336
-243.961	103.212	-0.265	0.402
-242.946	397.064	-0.090	-0.244
-241.932	-31.618	-0.406	0.294
-240.917	345.461	0.073	0.185
-239.903	-195.590	-0.309	0.003
-238.888	325.025	0.051	0.127
-237.873	-98.734	0.423	0.138
-236.859	-29.420	0.310	-0.228
-235.844	-40.317	0.046	-0.031
-234.830	-13.235	0.260	0.217
-233.815	800.000	0.043	0.157
-232.800	-28.005	-0.406	0.302
-231.786	-57.560	-0.461	0.260
-230.771	-186.092	-0.565	-0.010
-229.757	-60.818	-0.389	-0.211
-228.742	800.000	-0.095	-0.442
-227.727	79.430	-0.110	0.153
-226.713	37.962	0.054	0.062
-225.698	180.387	0.313	-0.593
-224.684	-91.263	-0.396	0.145
-223.669	-200.000	-0.016	-0.401
-222.655	-134.236	0.309	0.049
-221.640	800.000	0.064	-0.358
-220.625	-123.311	-0.247	0.050
-219.611	-165.927	-0.251	-0.014
-218.596	-137.080	-0.545	0.079
-217.582	-93.725	-0.481	0.170
-216.567	800.000	-0.101	0.577
-215.552	-71.107	-0.348	0.168
-214.538	77.080	-0.215	0.295
-213.523	260.361	0.040	-0.090
-212.509	45.385	-0.167	-0.199
-211.494	58.125	0.253	0.319
-210.479	-115.812	0.381	-0.091
-209.465	-64.168	0.346	0.181
-208.450	800.000	-0.082	-0.301
-207.436	-121.728	-0.099	-0.021
-206.421	-200.000	-0.033	0.538
-205.406	-48.426	-0.099	-0.061
-204.392	1.595	0.085	-0.079
-203.377	800.000	-0.026	-0.122
-202.363	-190.272	-0.243	-0.003
-201.348	467.855	-0.069	0.201
-200.333	184.144	-0.173	-0.330
-199.319	-39.832	-0.066	-0.044
-198.304	-37.876	-0.533	0.364
-197.290	167.808	0.256	0.469
-196.275	56.012	-0.050	-0.062
-195.260	-200.000	0.017	0.310
-194.246	-200.000	-0.054	0.401
-193.231	-146.462	-0.095	0.011
-192.217	-105.419	0.284	0.083
-191.202	335.528	-0.087	-0.218
-190.187	80.691	0.198	-0.275
-189.173	274.472	-0.148	-0.338
-188.158	141.425	-0.267	-0.456
-187.144	-79.440	0.608	-0.263
-186.129	-200.000	0.003	0.244
-185.114	-200.000	-0.027	-0.472
-184.100	139.044	0.184	0.312
-183.085	-126.920	-0.586	0.110
-182.071	-112.802	0.239	-0.061
-181.056	370.951	0.018	-0.046
-180.042	-200.000	0.103	-0.620
-179.027	-200.000	0.075	0.544
-178.012	800.000	0.041	0.207
-176.998	223.280	0.189	0.393
-175.983	-56.271	0.232	0.132
-174.969	279.644	0.183	-0.423
-173.954	115.903	0.050	-0.078
-172.939	448.205	-0.208	0.593
-171.925	-103.104	0.051	0.016
-170.910	-12.670	-0.097	-0.081
-169.896	-158.852	-0.163	-0.012
-168.881	-90.586	0.240	-0.089
-167.866	800.000	-0.067	-0.367
-166.852	304.514	-0.124	-0.296
-165.837	-77.520	-0.226	-0.100
-164.823	-200.000	-0.005	0.501
-163.808	-200.000	0.023	0.179
-162.793	92.747	-0.101	-0.147
-161.779	-95.115	-0.177	-0.061
-160.764	-47.743	-0.116	0.072
-159.750	-92.071	0.223	-0.081
-158.735	-200.000	0.010	-0.398
-157.720	-78.081	0.725	-0.319
-156.706	-56.393	0.519	-0.295
-155.691	565.722	-0.275	-0.861
-154.677	-200.000	-0.008	-0.248
-153.662	-200.000	-0.031	0.449
-152.647	800.000	-0.169	-0.619
-151.633	-42.883	-0.503	0.328
-150.618	50.443	0.394	0.479
-149.604	33.930	-0.431	-0.483
-148.589	-200.000	0.027	-0.327
-147.574	-139.550	0.491	0.067
-146.560	-44.635	0.366	0.234
-145.545	-114.188	0.300	0.074
-144.531	-119.884	-0.143	-0.031
-143.516	105.084	-0.026	-0.039
-142.502	-50.088	0.109	0.066
-141.487	188.081	0.254	0.488
-140.472	-66.326	0.183	0.093
-139.458	63.400	-0.261	-0.337
-138.443	-76.727	0.209	0.094
-137.429	247.936	-0.087	0.190
-136.414	-10.201	0.271	0.231
-135.399	40.174	0.106	-0.122
-134.385	-70.779	0.132	0.064
-133.370	285.504	-0.217	0.505
-132.356	49.092	-0.139	0.168
-131.341	800.000	0.075	0.305
-130.326	84.595	0.078	0.110
-129.312	152.521	0.197	-0.347
-128.297	280.146	-0.173	0.400
-127.283	96.051	0.154	-0.226
-126.268	-200.000	0.009	0.557
-125.253	81.477	-0.132	-0.183
-124.239	-200.000	0.035	0.279
-123.224	-22.825	0.090	0.070
-122.210	256.093	-0.165	-0.365
-121.195	-146.845	0.383	0.042
