DTS Sentinel unit serial number:	SN409020Multiplexer serial number:	ORYXHardware model number:	OX4-SRSoftware version number:	ORYX F/W v3.00 Oryx Data Collector v3.7.2.0data status	okinstallation	HaddamTimeLapsedifferential loss correction	single-endedforward channel	channel 3reverse channel	N/Adate	2011/06/22time	10:56:01forward acquisition time	30.00reverse acquisition time	0.00gamma	498.7831k internal	0.1773k external	0.1773temperature offset calibration	1.0074default loss term (dB/km)	0.3790temperature slope calibration	1.3530multiplexer offset coefficient	1.0000multiplexer slope coefficient	1.0000fibre end	0.00T internal ref (°C)	29.87T ext. ref 1 (°C)	24.77T ext. ref 2 (°C)	-0.10length (m)	temperature (°C)	Stokes	anti-Stokes-747.200	-8.693	-0.267	0.235
-746.185	-200.000	-0.092	0.534
-745.171	435.616	0.026	0.074
-744.156	183.766	-0.134	0.261
-743.142	-83.449	0.176	-0.074
-742.127	-129.347	0.443	0.080
-741.112	-116.505	0.772	-0.185
-740.098	-6.000	0.155	0.139
-739.083	-200.000	0.048	0.403
-738.069	68.561	-0.139	0.187
-737.054	-96.650	0.144	0.049
-736.039	4.838	-0.403	0.388
-735.025	107.288	0.347	0.542
-734.010	4.190	0.160	-0.154
-732.996	-151.877	0.293	0.028
-731.981	-200.000	0.016	0.228
-730.966	-200.000	0.017	-0.243
-729.952	-119.152	-0.229	-0.052
-728.937	-136.950	-0.354	-0.053
-727.923	-74.027	-0.191	0.090
-726.908	292.842	-0.090	0.215
-725.894	-124.536	-0.245	-0.050
-724.879	82.330	-0.163	-0.233
-723.864	-92.276	-0.276	-0.101
-722.850	-131.641	-0.418	-0.071
-721.835	-50.998	-0.356	0.218
-720.821	800.000	-0.098	-0.437
-719.806	800.000	0.159	0.760
-718.791	-200.000	0.039	0.796
-717.777	24.119	0.197	-0.213
-716.762	-39.818	-0.238	0.163
-715.748	-117.226	0.634	0.150
-714.733	-200.000	0.038	-0.326
-713.718	-9.524	0.305	-0.267
-712.704	22.052	0.155	-0.165
-711.689	-143.507	0.193	-0.024
-710.675	133.292	0.208	-0.353
-709.660	223.055	0.124	-0.262
-708.645	90.245	0.252	0.369
-707.631	74.628	-0.229	-0.316
-706.616	-5.853	-0.181	-0.162
-705.602	-176.620	0.471	0.016
-704.587	-59.351	-0.266	0.150
-703.572	477.012	-0.020	0.060
-702.558	188.274	0.097	0.191
-701.543	84.965	-0.074	0.107
-700.529	800.000	-0.161	-0.845
-699.514	437.953	0.139	-0.399
-698.499	188.441	-0.052	-0.103
-697.485	176.994	0.180	-0.345
-696.470	-67.594	0.464	0.237
-695.456	-163.705	0.525	0.032
-694.441	-81.643	-0.243	-0.104
-693.426	-87.137	-0.285	0.113
-692.412	-154.195	-0.544	-0.048
-691.397	-69.272	0.116	0.058
-690.383	800.000	0.041	0.184
-689.368	-19.076	-0.096	-0.078
-688.354	-109.462	-0.293	-0.081
-687.339	223.006	0.130	-0.275
-686.324	-169.612	0.097	0.005
-685.310	7.662	-0.385	-0.377
-684.295	336.835	-0.100	-0.254
-683.281	-13.097	0.252	0.214
-682.266	67.631	0.165	0.221
-681.251	606.445	-0.011	-0.038
-680.237	800.000	-0.152	-0.688
-679.222	-4.441	0.138	0.125
-678.208	-146.843	0.502	0.056
-677.193	800.000	0.025	0.122
-676.178	-0.351	-0.196	-0.182
-675.164	-200.000	-0.566	0.003
-674.149	-155.280	-0.366	-0.031
-673.135	-150.764	0.149	-0.015
-672.120	-11.287	0.394	0.339
-671.105	800.000	0.061	0.314
-670.091	634.946	-0.077	0.257
-669.076	-91.004	-0.429	0.160
-668.062	-100.090	0.163	-0.053
-667.047	-200.000	-0.017	0.147
-666.032	-90.639	-0.768	0.289
-665.018	326.147	-0.145	0.366
-664.003	6.462	-0.482	0.468
-662.989	413.860	-0.084	-0.236
-661.974	63.070	0.094	0.123
-660.959	800.000	-0.063	-0.291
-659.945	-109.951	-0.274	0.075
-658.930	800.000	0.065	0.331
-657.916	58.409	0.222	0.285
-656.901	-37.259	0.065	0.046
-655.886	94.152	-0.386	-0.573
-654.872	122.388	-0.069	0.114
-653.857	12.350	-0.133	0.134
-652.843	546.251	0.022	-0.068
-651.828	-16.891	0.454	0.375
-650.814	-82.715	0.171	-0.072
-649.799	16.947	0.134	0.139
-648.784	-127.809	-0.092	0.017
-647.770	800.000	0.135	-0.611
-646.755	597.141	-0.061	-0.198
-645.741	-58.429	-0.160	-0.091
-644.726	-57.154	-0.240	0.138
-643.711	-45.126	0.204	0.132
-642.697	800.000	-0.057	-0.280
-641.682	-30.200	-0.317	0.235
-640.668	396.537	0.056	0.155
-639.653	-178.924	0.315	0.009
-638.638	95.350	0.229	0.341
-637.624	-89.212	0.697	-0.267
-636.609	-132.664	0.280	0.046
-635.595	148.485	0.214	0.378
-634.580	-200.000	-0.001	0.236
-633.565	-9.915	-0.200	0.174
-632.551	-33.981	-0.305	0.219
-631.536	66.700	0.110	-0.146
-630.522	14.528	0.149	-0.152
-629.507	86.839	0.125	-0.180
-628.492	800.000	-0.064	-0.285
-627.478	-143.573	0.420	0.052
-626.463	57.117	-0.174	-0.222
-625.449	41.320	-0.045	0.053
-624.434	440.040	-0.088	0.252
-623.419	32.400	0.131	-0.148
-622.405	27.239	0.286	-0.313
-621.390	-200.000	-0.042	-0.266
-620.376	-5.976	0.237	-0.211
-619.361	-200.000	0.038	-0.563
-618.346	196.817	-0.045	0.090
-617.332	53.943	-0.266	0.334
-616.317	-158.593	0.170	0.013
-615.303	-2.814	0.213	0.194
-614.288	-95.848	-0.722	-0.250
-613.273	0.829	0.261	-0.243
-612.259	-43.039	0.154	-0.102
-611.244	-200.000	-0.020	-0.543
-610.230	-111.618	0.062	-0.016
-609.215	47.670	-0.161	-0.196
-608.201	-109.468	-0.100	-0.027
-607.186	587.137	0.091	0.294
-606.171	-200.000	-0.014	0.321
-605.157	58.094	-0.208	-0.265
-604.142	156.516	0.293	0.529
-603.128	-200.000	0.032	-0.417
-602.113	-74.096	0.242	0.114
-601.098	15.729	-0.146	0.149
-600.084	-200.000	0.051	-0.461
-599.069	-114.898	-0.205	0.050
-598.055	800.000	-0.132	-0.521
-597.040	-32.400	-0.092	-0.067
-596.025	-126.511	0.348	0.067
-595.011	95.027	-0.044	0.066
-593.996	413.942	-0.094	-0.262
-592.982	111.248	0.097	0.153
-591.967	694.259	-0.093	-0.321
-590.952	-61.071	-0.197	0.108
-589.938	-113.408	-0.394	0.100
-588.923	-56.056	0.193	-0.112
-587.909	-62.066	-0.141	-0.077
-586.894	-139.915	0.207	-0.028
-585.879	89.952	-0.186	0.271
-584.865	113.180	0.022	-0.034
-583.850	147.937	-0.216	-0.380
-582.836	-33.344	0.121	-0.087
-581.821	-94.288	-0.779	-0.276
-580.806	-168.295	-0.191	0.009
-579.792	105.885	-0.157	0.242
-578.777	251.934	-0.143	-0.318
-577.763	40.079	-0.380	-0.445
-576.748	294.506	-0.074	-0.176
-575.733	302.277	-0.145	-0.351
-574.719	-95.974	0.117	-0.040
-573.704	-64.337	-0.362	-0.191
-572.690	-176.836	-0.470	-0.015
-571.675	81.011	-0.120	-0.169
-570.661	721.666	-0.142	-0.496
-569.646	-181.978	0.596	-0.014
-568.631	-52.537	-0.487	0.292
-567.617	-140.922	0.306	-0.040
-566.602	542.608	-0.136	-0.423
-565.588	-74.095	0.469	-0.220
-564.573	-24.021	-0.317	0.246
-563.558	-116.507	0.184	0.044
-562.544	-99.420	-0.498	-0.162
-561.529	-200.000	-0.023	-0.393
-560.515	84.524	0.294	0.419
-559.500	-200.000	0.009	-0.236
-558.485	192.809	0.163	0.321
-557.471	220.045	0.113	-0.237
-556.456	544.399	0.088	-0.275
-555.442	-49.196	-0.270	-0.168
-554.427	-88.305	0.131	-0.051
-553.412	230.248	0.125	-0.266
-552.398	-91.531	0.430	-0.159
-551.383	-167.764	0.378	0.019
-550.369	177.801	-0.042	-0.079
-549.354	102.027	0.323	-0.492
-548.339	-83.131	0.374	0.156
-547.325	-95.072	0.152	0.053
-546.310	-2.995	-0.646	-0.586
-545.296	359.531	0.031	-0.081
-544.281	-78.512	0.266	-0.118
-543.266	163.965	-0.267	0.490
-542.252	-80.356	0.246	0.106
-541.237	532.356	0.109	0.337
-540.223	-29.456	-0.208	-0.155
-539.208	-123.562	0.363	0.074
-538.193	-200.000	0.009	0.324
-537.179	64.284	-0.287	0.376
-536.164	-91.216	-0.452	-0.168
-535.150	41.287	0.097	-0.114
-534.135	-55.970	-0.123	0.071
-533.121	800.000	-0.027	0.154
-532.106	-30.185	0.416	-0.307
-531.091	67.888	-0.229	0.305
-530.077	-6.495	0.109	0.096
-529.062	70.237	-0.218	0.293
-528.048	674.982	0.084	-0.287
-527.033	-83.886	0.494	0.204
-526.018	223.406	-0.133	0.279
-525.004	800.000	0.025	-0.110
-523.989	-197.552	0.493	0.004
-522.975	17.923	-0.021	0.022
-521.960	157.260	-0.082	-0.147
-520.945	89.657	0.068	-0.098
-519.931	800.000	0.083	0.378
-518.916	71.125	0.275	-0.372
-517.902	-200.000	0.018	0.292
-516.887	-169.928	0.420	-0.019
-515.872	78.044	0.056	0.078
-514.858	-140.534	0.258	-0.035
-513.843	-90.003	0.274	0.103
-512.829	800.000	-0.061	0.274
-511.814	-179.825	-0.382	-0.010
-510.799	-177.806	0.460	-0.014
-509.785	-111.031	-0.196	0.052
-508.770	-200.000	-0.104	-0.775
-507.756	311.925	-0.006	0.016
-506.741	-159.267	0.497	0.036
-505.726	29.175	-0.108	-0.119
-504.712	31.782	-0.241	-0.270
-503.697	-83.283	0.577	-0.240
-502.683	31.921	0.296	0.332
-501.668	106.638	-0.056	0.086
-500.653	800.000	0.014	0.065
-499.639	-131.793	0.182	-0.031
-498.624	-55.170	0.106	-0.062
-497.610	230.970	0.177	-0.378
-496.595	-133.814	-0.432	-0.069
-495.581	74.871	0.305	0.417
-494.566	269.777	-0.138	-0.316
-493.551	38.957	-0.105	0.122
-492.537	-123.718	0.387	-0.079
-491.522	31.807	0.139	-0.155
-490.508	-165.182	0.389	-0.022
-489.493	-34.501	-0.073	0.052
-488.478	-86.792	-0.270	0.106
-487.464	-123.344	-0.253	0.052
-486.449	289.209	0.099	0.234
-485.435	-121.717	-0.273	-0.058
-484.420	800.000	-0.041	0.194
-483.405	347.201	0.136	-0.349
-482.391	-200.000	-0.007	-0.114
-481.376	-104.075	0.501	0.150
-480.362	-155.713	0.120	-0.010
-479.347	-30.342	0.258	0.190
-478.332	-200.000	0.023	-0.301
-477.318	-61.759	-0.034	-0.018
-476.303	-200.000	-0.016	0.313
-475.289	-47.534	0.338	-0.213
-474.274	-125.669	0.185	0.036
-473.259	800.000	0.043	-0.233
-472.245	-200.000	0.003	0.109
-471.230	-200.000	-0.014	0.147
-470.216	800.000	-0.048	-0.238
-469.201	69.635	0.288	-0.386
-468.186	-200.000	0.021	-0.270
-467.172	-24.885	-0.201	0.154
-466.157	62.896	0.177	-0.230
-465.143	50.833	-0.169	-0.208
-464.128	800.000	0.038	0.198
-463.113	-76.006	-0.646	-0.295
-462.099	-21.054	0.329	0.261
-461.084	52.147	-0.168	-0.207
-460.070	-123.082	-0.577	-0.119
-459.055	-95.255	-0.368	0.128
-458.040	-110.129	0.600	0.161
-457.026	-35.826	0.294	-0.206
-456.011	39.116	-0.232	0.269
-454.997	-200.000	0.001	0.430
-453.982	155.387	-0.099	0.177
-452.968	-147.354	0.519	-0.056
-451.953	-200.000	-0.011	-0.406
-450.938	800.000	0.029	-0.112
-449.924	-196.324	0.563	-0.005
-448.909	800.000	0.042	0.208
-447.895	-95.981	0.172	0.059
-446.880	-197.079	-0.234	-0.002
-445.865	132.516	0.103	0.173
-444.851	-58.630	0.202	0.113
-443.836	-179.137	-0.427	-0.012
-442.822	-0.670	0.308	0.283
-441.807	800.000	0.044	0.205
-440.792	411.435	0.068	-0.189
-439.778	12.949	-0.323	-0.324
-438.763	-173.064	-0.624	-0.024
-437.749	800.000	-0.141	-0.640
-436.734	-44.093	-0.108	0.070
-435.719	800.000	0.096	-0.410
-434.705	800.000	0.052	-0.217
-433.690	33.956	0.344	-0.388
-432.676	397.759	0.056	-0.153
-431.661	136.636	0.066	0.112
-430.646	16.963	-0.060	-0.062
-429.632	-200.000	0.025	-0.283
-428.617	528.166	0.133	-0.408
-427.603	-63.965	-0.393	-0.207
-426.588	1.091	-0.161	-0.149
-425.573	800.000	0.054	-0.232
-424.559	-125.847	-0.201	-0.039
-423.544	-200.000	0.022	-0.612
-422.530	-161.756	0.080	-0.005
-421.515	200.543	-0.239	0.478
-420.500	302.287	-0.175	0.420
-419.486	156.760	-0.049	-0.089
-418.471	58.789	-0.139	-0.177
-417.457	3.332	0.265	0.250
-416.442	235.850	-0.183	0.393
-415.428	-84.609	-0.235	-0.096
-414.413	-200.000	0.012	0.425
-413.398	61.479	-0.141	-0.181
-412.384	45.431	0.321	-0.384
-411.369	-25.355	-0.070	-0.053
-410.355	-137.108	-0.396	-0.058
-409.340	-23.119	-0.113	-0.088
-408.325	306.594	0.218	0.527
-407.311	-126.845	-0.378	-0.072
-406.296	-200.000	0.040	0.247
-405.282	-157.235	-0.311	0.024
-404.267	-74.991	-0.493	-0.228
-403.252	205.262	-0.151	-0.305
-402.238	50.551	-0.182	-0.223
-401.223	-89.110	0.280	0.107
-400.209	-105.221	-0.393	-0.115
-399.194	-145.326	0.293	0.034
-398.179	-46.242	0.343	0.217
-397.165	28.465	0.092	-0.100
-396.150	-62.683	0.159	0.085
-395.136	-4.551	-0.057	-0.051
-394.121	-24.463	-0.220	-0.170
-393.106	-119.215	0.191	0.043
-392.092	-156.348	-0.428	-0.034
-391.077	634.365	-0.096	0.316
-390.063	-47.681	-0.280	0.175
-389.048	137.313	-0.188	0.319
-388.033	23.887	-0.568	-0.606
-387.019	96.981	0.145	-0.215
-386.004	-82.260	-0.301	-0.126
-384.990	-8.681	0.220	-0.191
-383.975	800.000	0.111	0.600
-382.960	355.376	0.174	0.451
-381.946	-153.434	-0.915	-0.081
-380.931	-134.215	-0.503	0.079
-379.917	-74.139	0.154	0.072
-378.902	301.669	-0.089	0.214
-377.888	77.760	-0.276	0.381
-376.873	436.020	0.157	0.443
-375.858	-52.822	0.439	-0.261
-374.844	70.413	0.121	-0.161
-373.829	-95.804	-0.479	0.164
-372.815	800.000	0.121	0.485
-371.800	61.366	0.447	0.575
-370.785	-61.681	0.062	0.034
-369.771	243.237	-0.078	0.169
-368.756	305.792	-0.231	0.558
-367.742	103.182	0.144	-0.219
-366.727	11.717	0.130	-0.129
-365.712	137.313	-0.201	-0.341
-364.698	61.665	-0.093	-0.120
-363.683	-80.660	0.288	0.123
-362.669	-89.305	0.143	-0.054
-361.654	671.863	-0.218	-0.735
-360.639	479.807	0.095	-0.280
-359.625	-46.097	0.301	0.191
-358.610	123.292	-0.274	0.445
-357.596	51.133	-0.370	0.454
-356.581	18.871	-0.145	0.150
-355.566	-200.000	-0.056	0.565
-354.552	620.300	-0.079	-0.259
-353.537	40.979	-0.388	0.452
-352.523	219.523	0.078	-0.162
-351.508	-87.959	0.494	0.191
-350.493	800.000	-0.109	0.529
-349.479	-145.226	0.283	0.033
-348.464	-183.471	0.521	0.011
-347.450	-192.493	0.398	0.005
-346.435	-76.571	0.353	0.159
-345.420	-167.885	-0.401	-0.020
-344.406	-82.382	-0.210	0.088
-343.391	641.327	-0.103	-0.339
-342.377	-63.011	-0.274	0.146
-341.362	-118.828	0.641	0.144
-340.348	-169.941	0.280	0.013
-339.333	-83.151	-0.359	0.148
-338.318	103.675	0.157	-0.239
-337.304	-59.392	0.148	0.082
-336.289	253.226	-0.234	-0.518
-335.275	-200.000	0.039	0.285
-334.260	3.839	0.194	0.183
-333.245	-15.589	-0.277	-0.228
-332.231	-54.584	0.184	-0.107
-331.216	-19.412	0.039	-0.031
-330.202	-81.645	0.129	0.054
-329.187	656.567	-0.122	0.405
-328.172	151.007	-0.495	-0.871
-327.158	-118.718	0.225	0.051
-326.143	-54.586	-0.213	0.124
-325.129	-200.000	0.001	0.358
-324.114	-65.982	-0.129	0.066
-323.099	-79.297	0.314	0.136
-322.085	74.203	0.321	0.435
-321.070	-30.889	-0.183	-0.133
-320.056	-0.718	-0.398	-0.363
-319.041	-120.176	-0.062	0.014
-318.026	-112.027	-0.169	0.044
-317.012	800.000	0.127	0.528
-315.997	-200.000	0.037	0.586
-314.983	800.000	0.057	0.257
-313.968	-70.884	-0.354	-0.171
-312.953	-88.106	0.275	0.106
-311.939	195.406	-0.119	-0.234
-310.924	-142.262	0.404	-0.051
-309.910	-200.000	-0.026	0.214
-308.895	-136.993	-0.094	0.014
-307.880	-200.000	0.008	-0.109
-306.866	75.750	0.043	0.059
-305.851	-73.578	-0.388	-0.182
-304.837	-200.000	-0.001	0.099
-303.822	-64.137	0.193	-0.101
-302.807	-94.723	-0.081	-0.028
-301.793	75.431	-0.183	0.249
-300.778	105.524	0.276	0.422
-299.764	94.564	0.316	0.464
-298.749	-200.000	-0.021	-0.225
-297.735	54.859	0.081	-0.101
-296.720	670.252	-0.075	0.252
-295.705	-40.983	-0.223	0.148
-294.691	800.000	-0.089	0.461
-293.676	-121.257	0.591	-0.126
-292.662	-200.000	-0.031	-0.298
-291.647	25.913	0.112	-0.120
-290.632	-147.427	0.251	0.027
-289.618	-70.834	-0.349	0.169
-288.603	37.820	-0.055	0.063
-287.589	-37.251	-0.294	0.202
-286.574	-55.753	-0.209	-0.120
-285.559	88.514	0.275	0.394
-284.545	-84.157	0.068	-0.028
-283.530	223.392	0.007	0.015
-282.516	-98.464	-0.139	0.046
-281.501	-26.269	0.074	-0.056
-280.486	324.842	0.168	-0.416
-279.472	234.013	-0.299	-0.637
-278.457	-97.366	0.452	-0.151
-277.443	-34.324	-0.135	-0.095
-276.428	-31.527	0.333	-0.241
-275.413	204.512	-0.114	-0.229
-274.399	178.673	-0.087	-0.163
-273.384	85.598	0.125	0.177
-272.370	41.503	0.360	0.420
-271.355	-200.000	0.009	0.393
-270.340	-111.634	-0.188	0.049
-269.326	-57.827	-0.551	-0.309
-268.311	3.174	0.219	-0.205
-267.297	-101.197	-0.396	0.124
-266.282	-62.215	-0.328	-0.175
-265.267	-150.351	0.049	0.005
-264.253	-98.503	-0.410	-0.134
-263.238	800.000	0.045	-0.243
-262.224	-47.669	-0.539	0.336
-261.209	-44.636	0.112	0.072
-260.195	183.991	0.199	0.381
-259.180	-116.416	-0.178	0.042
-258.165	97.750	0.106	-0.157
-257.151	131.043	-0.224	0.371
-256.136	-200.000	0.058	0.538
-255.122	-87.422	0.417	-0.162
-254.107	52.052	-0.094	0.115
-253.092	455.179	-0.054	0.156
-252.078	800.000	-0.103	0.404
-251.063	702.518	0.083	0.283
-250.049	-76.669	0.254	0.114
-249.034	30.482	0.137	0.151
-248.019	-80.266	0.364	0.156
-247.005	157.866	-0.213	0.381
-245.990	-80.398	0.210	0.090
-244.976	16.288	-0.277	0.281
-243.961	-27.972	0.322	0.239
-242.946	-27.024	-0.281	0.211
-241.932	161.573	0.110	0.199
-240.917	-0.460	0.297	-0.271
-239.903	492.082	0.058	-0.172
-238.888	17.755	0.334	0.341
-237.873	800.000	0.086	0.313
-236.859	53.403	0.170	0.210
-235.844	26.492	0.352	0.379
-234.830	-89.761	-0.438	-0.164
-233.815	224.617	0.232	-0.485
-232.800	20.527	-0.173	0.180
-231.786	-92.802	0.146	0.052
-230.771	69.790	-0.118	0.156
-229.757	-93.980	0.202	0.071
-228.742	-200.000	-0.067	0.589
-227.727	44.744	0.366	-0.433
-226.713	800.000	-0.090	0.341
-225.698	-108.784	0.282	-0.077
-224.684	123.493	-0.025	-0.041
-223.669	-54.278	0.318	-0.185
-222.655	5.196	-0.281	0.266
-221.640	-80.208	-0.065	-0.028
-220.625	-51.812	-0.553	0.330
-219.611	-172.934	-0.330	0.013
-218.596	-65.287	-0.379	0.196
-217.582	-11.764	-0.262	-0.220
-216.567	179.537	0.106	-0.200
-215.552	38.667	0.127	-0.146
-214.538	153.869	-0.148	0.261
-213.523	800.000	0.079	-0.310
-212.509	-140.072	0.617	0.083
-211.494	92.364	0.158	-0.229
-210.479	-45.458	0.101	-0.064
-209.465	62.727	0.204	-0.262
-208.450	-136.816	0.264	-0.039
-207.436	-52.006	-0.180	-0.107
-206.421	36.293	0.309	-0.350
-205.406	-196.321	-0.451	-0.004
-204.392	-91.740	-0.500	-0.181
-203.377	-113.563	-0.281	0.070
-202.363	-26.797	-0.154	-0.115
-201.348	109.289	0.304	-0.468
-200.333	-80.012	-0.414	0.177
-199.319	211.401	0.033	0.067
-198.304	476.839	0.083	0.243
-197.290	68.657	0.103	-0.136
-196.275	800.000	-0.048	-0.264
-195.260	152.521	-0.421	0.739
-194.246	5.826	-0.131	0.124
-193.231	-200.000	-0.005	-0.177
-192.217	40.725	0.265	-0.307
-191.202	619.111	-0.074	-0.240
-190.187	81.545	-0.085	0.118
-189.173	-148.932	0.133	0.014
-188.158	721.780	-0.068	0.235
-187.144	-35.925	-0.140	0.097
-186.129	-164.844	-0.500	0.028
-185.114	-200.000	0.028	-0.399
-184.100	-54.755	0.570	0.329
-183.085	800.000	-0.076	-0.354
-182.071	-89.046	-0.082	0.031
-181.056	187.783	-0.169	0.325
-180.042	-186.255	0.151	-0.003
-179.027	-91.332	-0.521	0.190
-178.012	-142.932	0.208	-0.026
-176.998	-141.555	-0.089	-0.011
-175.983	-179.330	0.233	0.006
-174.969	-38.479	0.132	0.090
-173.954	-11.699	-0.293	-0.246
-172.939	419.374	0.139	-0.383
-171.925	214.083	0.254	-0.516
-170.910	-118.832	-0.544	-0.122
-169.896	-33.863	0.608	0.429
-168.881	-81.325	0.021	0.009
-167.866	377.527	0.145	-0.381
-166.852	-200.000	0.046	0.300
-165.837	-111.926	0.578	0.149
-164.823	136.825	-0.249	-0.419
-163.808	-101.850	-0.274	-0.084
-162.793	800.000	-0.040	0.146
-161.779	800.000	0.039	-0.162
-160.764	-39.999	-0.214	-0.143
-159.750	16.186	0.208	-0.210
-158.735	394.886	-0.013	0.036
-157.720	-200.000	-0.004	0.312
-156.706	178.809	-0.107	-0.201
-155.691	-200.000	0.007	0.478
-154.677	-200.000	0.044	0.378
-153.662	778.979	-0.030	0.107
-152.647	18.075	-0.247	0.252
-151.633	-83.528	-0.249	0.102
-150.618	-200.000	0.226	0.001
-149.604	28.086	0.204	0.221
-148.589	800.000	0.110	-0.485
-147.574	91.953	-0.182	0.263
-146.560	64.597	0.131	-0.169
-145.545	800.000	0.075	-0.386
-144.531	14.249	-0.251	0.250
-143.516	-200.000	-0.020	0.402
-142.502	-200.000	0.011	0.298
-141.487	384.260	-0.123	-0.327
-140.472	45.215	0.242	-0.287
-139.458	-46.340	-0.159	0.100
-138.443	-40.626	0.105	0.070
-137.429	-117.448	-0.311	0.072
-136.414	-29.312	-0.329	0.241
-135.399	-200.000	0.017	0.209
-134.385	30.628	-0.092	0.101
-133.370	-200.000	0.024	0.256
-132.356	-107.442	0.311	-0.087
-131.341	94.359	0.215	0.313
-130.326	-77.542	0.203	0.090
-129.312	208.649	0.216	0.434
-128.297	5.602	0.164	-0.155
-127.283	-167.180	-0.130	0.007
-126.268	-27.249	0.031	0.023
-125.253	357.416	0.159	-0.407
-124.239	-86.896	0.328	-0.127
-123.224	-200.000	0.054	0.310
-122.210	-200.000	0.004	-0.145
-121.195	54.814	0.400	-0.495
-120.180	-122.251	-0.295	0.061
-119.166	4.996	0.436	0.410
