DTS Sentinel unit serial number:	SN409020Multiplexer serial number:	ORYXHardware model number:	OX4-SRSoftware version number:	ORYX F/W v3.00 Oryx Data Collector v3.7.2.0data status	okinstallation	HaddamTimeLapsedifferential loss correction	single-endedforward channel	channel 3reverse channel	N/Adate	2011/06/21time	19:01:16forward acquisition time	30.00reverse acquisition time	0.00gamma	498.7831k internal	0.1807k external	0.1807temperature offset calibration	1.0074default loss term (dB/km)	0.3790temperature slope calibration	1.3530multiplexer offset coefficient	1.0000multiplexer slope coefficient	1.0000fibre end	0.00T internal ref (°C)	35.06T ext. ref 1 (°C)	26.79T ext. ref 2 (°C)	0.23length (m)	temperature (°C)	Stokes	anti-Stokes-747.200	365.687	-0.063	0.165
-746.185	330.369	0.080	0.200
-745.171	-112.612	0.247	-0.063
-744.156	162.867	-0.248	0.449
-743.142	-132.770	-0.533	-0.087
-742.127	343.905	0.013	0.032
-741.112	66.138	0.137	0.179
-740.098	118.979	0.153	0.244
-739.083	-52.842	-0.501	0.296
-738.069	800.000	-0.071	0.254
-737.054	-75.329	-0.198	0.090
-736.039	-26.302	-0.035	-0.027
-735.025	-110.242	0.100	0.027
-734.010	35.942	0.148	-0.167
-732.996	-3.435	-0.512	0.458
-731.981	542.772	0.059	0.183
-730.966	-123.657	-0.067	0.014
-729.952	-24.097	0.424	0.325
-728.937	-175.156	-0.197	-0.007
-727.923	-83.263	0.407	0.167
-726.908	-19.522	-0.344	0.274
-725.894	-27.735	-0.289	-0.215
-724.879	-200.000	-0.326	0.002
-723.864	-31.071	0.035	-0.025
-722.850	-65.016	-0.490	0.254
-721.835	-185.900	-0.380	0.007
-720.821	-200.000	-0.073	-0.440
-719.806	-77.849	-0.492	-0.217
-718.791	-200.000	-0.005	0.163
-717.777	235.952	-0.170	0.364
-716.762	-200.000	0.012	0.181
-715.748	34.752	0.410	-0.461
-714.733	-108.314	0.294	-0.081
-713.718	-200.000	-0.005	-0.310
-712.704	122.323	-0.275	-0.442
-711.689	-200.000	0.013	0.428
-710.675	158.434	-0.224	0.401
-709.660	233.758	-0.100	0.211
-708.645	-200.000	0.041	-0.249
-707.631	-124.210	0.604	-0.121
-706.616	-200.000	0.012	-0.208
-705.602	-105.743	-0.219	-0.063
-704.587	-32.761	0.350	0.250
-703.572	65.772	-0.173	-0.226
-702.558	-180.049	-0.191	0.005
-701.543	273.780	-0.200	-0.456
-700.529	-128.498	-0.409	-0.074
-699.514	638.098	-0.105	0.344
-698.499	800.000	-0.047	-0.188
-697.485	-62.205	0.293	-0.156
-696.470	418.883	-0.047	-0.130
-695.456	346.498	0.078	-0.197
-694.441	-11.613	0.132	0.112
-693.426	71.780	-0.034	0.045
-692.412	233.299	0.206	0.436
-691.397	110.288	0.218	0.337
-690.383	-117.068	0.625	0.145
-689.368	82.659	0.148	-0.206
-688.354	-70.884	0.274	0.132
-687.339	-69.828	-0.421	0.205
-686.324	-37.821	-0.191	0.130
-685.310	-132.223	-0.262	-0.043
-684.295	324.735	-0.023	-0.057
-683.281	-136.439	0.085	0.013
-682.266	-78.373	0.142	-0.062
-681.251	148.997	-0.395	0.688
-680.237	-107.423	0.195	-0.055
-679.222	-200.000	0.045	0.312
-678.208	-117.922	-0.226	0.052
-677.193	-141.467	-0.122	-0.016
-676.178	166.606	-0.175	0.320
-675.164	-113.228	-0.145	0.036
-674.149	295.864	-0.194	0.458
-673.135	-133.659	-0.453	-0.072
-672.120	2.383	-0.370	0.343
-671.105	-23.781	-0.143	-0.110
-670.091	-149.825	0.222	0.022
-669.076	-54.767	-0.199	-0.115
-668.062	800.000	-0.073	-0.302
-667.047	305.828	-0.119	-0.284
-666.032	-19.084	-0.384	-0.306
-665.018	-158.644	0.577	-0.042
-664.003	-200.000	-0.033	0.201
-662.989	800.000	0.129	-0.541
-661.974	800.000	-0.030	0.166
-660.959	-76.694	0.375	0.168
-659.945	-116.851	0.293	-0.068
-658.930	-118.200	-0.356	0.081
-657.916	67.591	-0.420	0.550
-656.901	-6.031	0.084	-0.074
-655.886	-200.000	0.004	0.119
-654.872	187.391	0.208	-0.399
-653.857	36.006	-0.042	-0.048
-652.843	-140.827	0.137	-0.018
-651.828	120.820	0.290	0.464
-650.814	-71.875	0.718	-0.342
-649.799	-11.800	-0.402	-0.338
-648.784	-119.286	0.375	-0.083
-647.770	-90.723	-0.186	0.068
-646.755	745.720	0.025	0.085
-645.741	-127.801	-0.281	0.052
-644.726	-200.000	-0.037	0.218
-643.711	-200.000	0.037	0.356
-642.697	-122.511	-0.322	-0.067
-641.682	190.899	-0.245	0.473
-640.668	-200.000	-0.001	-0.366
-639.653	26.431	-0.255	-0.274
-638.638	295.887	-0.084	0.197
-637.624	-49.193	0.660	-0.403
-636.609	-200.000	0.040	0.234
-635.595	-118.347	-0.077	-0.017
-634.580	-69.732	-0.406	0.198
-633.565	295.756	0.156	-0.368
-632.551	-200.000	0.031	0.238
-631.536	-61.039	0.181	0.097
-630.522	246.892	-0.191	0.413
-629.507	613.858	0.104	-0.336
-628.492	-200.000	0.001	0.094
-627.478	800.000	-0.079	-0.312
-626.463	-75.094	-0.241	-0.110
-625.449	800.000	-0.139	-0.526
-624.434	-21.234	-0.400	-0.313
-623.419	280.188	-0.111	-0.254
-622.405	-32.762	0.102	0.072
-621.390	-146.386	-0.371	-0.041
-620.376	-138.710	0.285	0.040
-619.361	526.436	0.063	0.190
-618.346	74.064	0.255	0.342
-617.332	-32.383	-0.241	0.172
-616.317	429.940	-0.119	-0.332
-615.303	-36.215	0.277	0.191
-614.288	800.000	0.065	0.311
-613.273	-60.773	0.265	0.143
-612.259	48.160	0.184	-0.220
-611.244	185.424	0.177	-0.338
-610.230	-104.888	0.388	-0.113
-609.215	-61.430	0.235	-0.126
-608.201	-200.000	-0.001	-0.265
-607.186	306.355	0.138	-0.330
-606.171	61.341	-0.183	-0.233
-605.157	800.000	-0.096	0.491
-604.142	800.000	0.050	-0.254
-603.128	-200.000	-0.000	0.013
-602.113	-51.777	0.178	0.106
-601.098	-200.000	0.027	-0.444
-600.084	800.000	-0.107	-0.453
-599.069	36.585	-0.169	0.191
-598.055	94.047	-0.189	0.275
-597.040	-196.980	-0.285	0.002
-596.025	800.000	0.103	-0.548
-595.011	-24.465	-0.373	-0.283
-593.996	-168.909	-0.244	0.012
-592.982	-200.000	-0.006	0.139
-591.967	255.880	-0.207	-0.456
-590.952	33.285	0.260	-0.288
-589.938	636.016	0.126	-0.411
-588.923	31.202	-0.403	-0.442
-587.909	38.785	0.213	-0.243
-586.894	800.000	0.127	-0.529
-585.879	-200.000	-0.015	0.323
-584.865	800.000	-0.022	-0.093
-583.850	5.592	-0.076	-0.072
-582.836	-48.824	-0.458	-0.280
-581.821	-200.000	-0.005	0.243
-580.806	800.000	-0.054	0.249
-579.792	56.318	-0.078	-0.097
-578.777	-152.646	-0.126	-0.011
-577.763	412.597	-0.109	0.297
-576.748	-88.365	0.588	0.224
-575.733	212.651	-0.148	-0.300
-574.719	-125.473	-0.564	0.109
-573.704	-200.000	-0.038	-0.436
-572.690	252.113	-0.118	-0.258
-571.675	153.338	-0.080	-0.141
-570.661	-81.681	-0.267	0.112
-569.646	800.000	-0.022	0.120
-568.631	141.137	0.119	0.201
-567.617	-49.925	-0.363	-0.219
-566.602	110.864	0.122	0.188
-565.588	24.940	0.190	0.201
-564.573	-22.129	-0.233	0.181
-563.558	-4.738	-0.156	-0.137
-562.544	270.736	0.143	-0.322
-561.529	48.105	0.270	0.322
-560.515	-200.000	-0.016	0.119
-559.500	-88.182	-0.582	-0.222
-558.485	-200.000	0.023	0.200
-557.471	718.048	0.059	0.202
-556.456	-135.134	-0.104	-0.016
-555.442	-51.955	-0.304	0.180
-554.427	-61.372	-0.146	0.078
-553.412	-12.634	0.078	-0.065
-552.398	-69.656	0.019	0.009
-551.383	-89.899	0.226	-0.084
-550.369	-200.000	0.025	-0.355
-549.354	81.661	0.480	-0.664
-548.339	800.000	-0.025	-0.125
-547.325	-161.423	-0.436	-0.028
-546.310	-55.345	0.418	0.239
-545.296	-193.088	0.236	-0.003
-544.281	87.968	-0.147	-0.209
-543.266	-85.211	0.237	0.094
-542.252	-26.790	0.328	0.245
-541.237	197.726	0.179	-0.350
-540.223	-94.875	0.360	0.124
-539.208	-66.837	0.171	0.086
-538.193	-10.719	-0.073	-0.062
-537.179	-129.689	-0.306	0.053
-536.164	-200.000	0.023	-0.464
-535.150	-44.905	-0.141	0.090
-534.135	-72.671	0.428	0.201
-533.121	-43.241	-0.513	0.330
-532.106	-119.696	-0.497	-0.109
-531.091	36.410	-0.153	-0.172
-530.077	-64.980	0.131	-0.067
-529.062	-21.734	0.172	-0.133
-528.048	-73.240	0.337	-0.157
-527.033	153.567	-0.206	0.360
-526.018	-76.603	0.398	-0.177
-525.004	-123.823	-0.486	-0.097
-523.989	103.085	-0.189	0.284
-522.975	-72.335	0.278	0.131
-521.960	293.870	0.125	-0.293
-520.945	-65.124	0.258	-0.132
-519.931	800.000	-0.126	-0.538
-518.916	330.044	0.085	-0.209
-517.902	28.087	0.338	0.364
-516.887	-171.292	0.047	0.002
-515.872	483.044	0.028	0.081
-514.858	-76.071	-0.348	-0.156
-513.843	29.528	-0.136	-0.148
-512.829	-183.433	-0.244	0.005
-511.814	-33.493	-0.096	-0.068
-510.799	-108.231	0.130	0.036
-509.785	-122.449	0.235	-0.048
-508.770	-120.521	-0.446	-0.096
-507.756	-196.406	0.078	0.001
-506.741	-169.644	-0.021	-0.001
-505.726	121.149	-0.147	0.234
-504.712	-81.881	0.307	0.127
-503.697	-94.074	0.161	0.056
-502.683	-122.608	-0.447	0.092
-501.668	-151.699	0.259	-0.024
-500.653	631.471	0.098	0.317
-499.639	9.997	-0.228	0.221
-498.624	65.976	0.102	-0.132
-497.610	-126.521	0.190	0.036
-496.595	-200.000	0.005	-0.357
-495.581	665.035	0.078	-0.260
-494.566	57.181	0.138	-0.172
-493.551	221.814	-0.042	-0.087
-492.537	-52.802	0.153	-0.089
-491.522	-51.148	-0.456	-0.271
-490.508	-50.157	0.206	0.124
-489.493	-200.000	-0.011	0.345
-488.478	-27.807	0.354	0.261
-487.464	-177.095	-0.653	-0.020
-486.449	-146.875	-0.488	0.053
-485.435	129.929	-0.018	0.030
-484.420	-90.583	0.130	-0.048
-483.405	-23.474	0.113	-0.086
-482.391	-8.641	0.385	-0.329
-481.376	85.886	-0.188	-0.264
-480.362	87.090	-0.188	0.265
-479.347	-86.016	0.112	-0.044
-478.332	-7.048	0.103	0.089
-477.318	-200.000	-0.009	-0.090
-476.303	-200.000	-0.027	-0.332
-475.289	151.486	0.308	0.535
-474.274	-156.004	0.585	0.047
-473.259	-129.763	0.742	-0.129
-472.245	-22.755	0.177	0.136
-471.230	-45.108	0.321	-0.202
-470.216	-200.000	-0.009	0.068
-469.201	-177.352	0.363	-0.011
-468.186	-179.315	0.309	-0.009
-467.172	-94.400	0.090	-0.031
-466.157	-8.804	0.316	0.270
-465.143	-79.020	-0.412	0.177
-464.128	-49.870	0.129	0.077
-463.113	83.167	-0.109	0.151
-462.099	-92.198	0.028	0.010
-461.084	-150.001	0.321	-0.031
-460.070	-72.416	0.332	0.156
-459.055	62.148	-0.141	-0.180
-458.040	-104.749	-0.400	-0.116
-457.026	248.837	-0.041	0.088
-456.011	-57.828	-0.208	-0.115
-454.997	800.000	0.043	-0.159
-453.982	-102.453	0.479	0.145
-452.968	-75.034	0.119	0.054
-451.953	270.139	0.101	-0.226
-450.938	800.000	0.066	0.320
-449.924	-78.998	0.330	0.142
-448.909	-62.340	0.614	0.324
-447.895	-5.101	0.062	0.054
-446.880	117.129	0.216	-0.338
-445.865	89.517	0.286	0.407
-444.851	-200.000	-0.046	-0.484
-443.836	439.507	-0.108	0.301
-442.822	-45.058	-0.253	-0.159
-441.807	55.947	-0.275	-0.339
-440.792	-27.694	0.348	0.257
-439.778	-162.216	0.573	-0.036
-438.763	148.343	-0.159	0.273
-437.749	-84.247	0.472	0.189
-436.734	-200.000	-0.008	-0.315
-435.719	-73.061	-0.418	-0.194
-434.705	-200.000	-0.057	0.396
-433.690	-2.363	-0.201	0.179
-432.676	-200.000	0.005	0.366
-431.661	256.578	0.263	0.575
-430.646	-63.898	-0.343	0.178
-429.632	230.994	0.155	-0.324
-428.617	468.712	0.121	0.348
-427.603	-118.682	0.042	0.009
-426.588	-200.000	-0.056	0.359
-425.573	26.130	0.170	0.180
-424.559	-107.363	0.311	0.086
-423.544	254.295	-0.111	0.242
-422.530	14.467	-0.306	0.303
-421.515	-117.108	0.143	-0.033
-420.500	-90.511	0.403	0.147
-419.486	-126.966	-0.503	0.093
-418.471	-124.870	-0.085	0.016
-417.457	25.988	-0.147	0.156
-416.442	-1.782	-0.498	-0.445
-415.428	-200.000	0.003	-0.140
-414.413	135.522	-0.365	-0.605
-413.398	448.786	0.041	-0.116
-412.384	64.466	-0.097	0.125
-411.369	513.690	0.133	-0.397
-410.355	8.665	0.121	-0.116
-409.340	-172.409	0.345	0.014
-408.325	-9.091	-0.103	-0.088
-407.311	-96.501	0.161	0.054
-406.296	5.138	0.177	0.166
-405.282	-163.339	0.493	-0.029
-404.267	61.599	-0.113	-0.143
-403.252	82.773	-0.006	0.008
-402.238	-104.305	0.491	0.144
-401.223	-92.863	0.206	0.073
-400.209	198.109	-0.120	0.234
-399.194	44.551	0.041	-0.048
-398.179	195.147	0.078	0.151
-397.165	-65.250	-0.397	0.202
-396.150	252.094	-0.137	0.296
-395.136	-21.012	0.205	-0.159
-394.121	-149.493	-0.267	0.027
-393.106	-109.842	-0.438	0.116
-392.092	-153.995	0.518	0.044
-391.077	-200.000	-0.040	-0.748
-390.063	18.108	0.316	0.320
-389.048	-87.356	0.748	0.286
-388.033	-16.396	-0.050	0.040
-387.019	-200.000	-0.025	0.377
-386.004	264.137	0.154	0.340
-384.990	-162.262	-0.779	0.049
-383.975	-93.851	-0.443	0.154
-382.960	88.687	-0.266	-0.376
-381.946	63.014	0.054	0.069
-380.931	-200.000	-0.010	-0.077
-379.917	20.320	-0.355	-0.363
-378.902	104.452	0.099	0.148
-377.888	-148.681	-0.498	0.051
-376.873	-10.937	-0.162	0.136
-375.858	-163.829	-0.073	-0.004
-374.844	655.913	-0.086	-0.282
-373.829	-200.000	0.050	-0.526
-372.815	-200.000	0.097	-0.617
-371.800	-85.047	0.256	0.101
-370.785	125.131	0.177	-0.283
-369.771	692.104	-0.085	0.283
-368.756	-146.021	-0.224	-0.025
-367.742	257.024	0.298	-0.651
-366.727	-114.532	-0.376	-0.091
-365.712	-55.949	0.224	0.126
-364.698	-76.110	0.240	0.107
-363.683	-110.752	-0.212	0.055
-362.669	40.481	0.257	-0.293
-361.654	-63.795	0.147	-0.076
-360.639	-98.828	0.370	0.119
-359.625	49.391	0.321	0.383
-358.610	-40.080	0.236	-0.156
-357.596	86.860	-0.263	-0.369
-356.581	-48.127	-0.258	0.158
-355.566	800.000	-0.092	-0.336
-354.552	123.854	0.141	0.224
-353.537	-146.774	-0.498	0.054
-352.523	-20.664	-0.231	-0.179
-351.508	-61.933	-0.509	0.269
-350.493	-123.418	-0.265	-0.053
-349.479	25.486	-0.321	0.338
-348.464	296.834	0.058	0.134
-347.450	800.000	0.093	0.362
-346.435	800.000	-0.068	-0.304
-345.420	-82.195	0.396	0.163
-344.406	364.556	0.070	0.180
-343.391	800.000	-0.095	-0.387
-342.377	-106.892	0.158	-0.044
-341.362	178.124	0.253	0.468
-340.348	-3.961	-0.456	0.400
-339.333	-132.101	-0.370	-0.060
-338.318	369.208	-0.047	0.122
-337.304	-121.356	-0.393	-0.082
-336.289	800.000	-0.060	-0.276
-335.275	133.611	0.248	0.407
-334.260	-159.882	0.111	0.008
-333.245	800.000	-0.060	0.310
-332.231	49.958	-0.255	0.305
-331.216	161.334	-0.152	0.270
-330.202	37.797	0.161	-0.182
-329.187	-200.000	-0.032	-0.270
-328.172	-99.414	0.352	0.112
-327.158	-101.234	0.724	-0.223
-326.143	-28.489	-0.082	-0.060
-325.129	667.525	-0.054	0.177
-324.114	-69.342	-0.556	0.269
-323.099	111.261	-0.166	-0.254
-322.085	173.967	0.189	-0.347
-321.070	-114.648	0.472	-0.113
-320.056	251.180	0.086	-0.185
-319.041	-200.000	0.003	0.298
-318.026	-103.807	-0.238	-0.070
-317.012	-5.208	-0.110	-0.095
-315.997	-46.445	-0.121	-0.075
-314.983	-200.000	0.082	-0.483
-313.968	800.000	0.042	0.204
-312.953	200.296	0.159	0.310
-311.939	-19.310	-0.227	0.178
-310.924	40.794	-0.270	0.308
-309.910	48.757	-0.506	0.600
-308.895	-129.393	-0.208	-0.036
-307.880	-135.153	-0.441	-0.066
-306.866	800.000	-0.080	0.367
-305.851	-36.535	-0.219	0.148
-304.837	-140.247	0.204	0.027
-303.822	-175.972	-0.110	0.004
-302.807	154.343	0.113	0.197
-301.793	382.321	0.094	-0.244
-300.778	-47.479	-0.522	-0.320
-299.764	280.906	-0.172	-0.391
-298.749	-94.478	0.251	0.086
-297.735	-136.170	0.193	-0.028
-296.720	69.748	-0.107	0.139
-295.705	270.440	-0.199	-0.443
-294.691	-29.509	0.028	0.020
-293.676	800.000	-0.104	0.410
-292.662	-142.137	-0.350	-0.043
-291.647	800.000	-0.073	-0.299
-290.632	-119.422	0.526	-0.115
-289.618	-161.500	-0.467	-0.030
-288.603	-200.000	0.002	-0.182
-287.589	-88.815	0.098	-0.037
-286.574	137.676	-0.067	-0.110
-285.559	-31.024	-0.368	0.262
-284.545	-119.065	-0.227	-0.050
-283.530	2.597	0.113	-0.104
-282.516	10.420	0.087	0.084
-281.501	800.000	-0.098	-0.445
-280.486	-117.549	-0.197	-0.045
-279.472	271.691	0.125	-0.279
-278.457	-43.424	0.310	0.197
-277.443	-117.519	-0.237	-0.054
-276.428	54.278	0.118	-0.144
-275.413	-31.490	0.163	-0.116
-274.399	54.816	0.478	-0.583
-273.384	-67.223	-0.144	-0.071
-272.370	31.458	-0.300	0.326
-271.355	80.770	0.254	-0.347
-270.340	12.755	-0.160	-0.156
-269.326	12.226	-0.479	0.465
-268.311	686.168	-0.101	-0.337
-267.297	29.833	0.370	0.398
-266.282	726.537	-0.016	-0.055
-265.267	93.096	0.171	0.244
-264.253	-102.331	0.014	0.004
-263.238	136.812	-0.130	0.215
-262.224	-86.910	0.484	-0.185
-261.209	-95.689	0.079	-0.027
-260.195	567.305	-0.079	0.243
-259.180	-200.000	-0.009	-0.180
-258.165	800.000	-0.057	-0.306
-257.151	12.723	0.380	-0.370
-256.136	20.947	-0.303	-0.310
-255.122	163.428	-0.141	0.251
-254.107	-33.689	0.339	-0.235
-253.092	-175.493	-0.444	-0.015
-252.078	-29.151	-0.232	-0.167
-251.063	732.929	0.141	0.477
-250.049	380.194	-0.157	0.409
-249.034	-200.000	-0.073	-0.470
-248.019	-108.142	-0.542	0.147
-247.005	222.842	0.170	0.347
-245.990	-200.000	0.095	0.592
-244.976	-134.608	0.065	-0.010
-243.961	-19.223	-0.295	0.231
-242.946	-128.963	-0.408	0.071
-241.932	-76.269	0.273	-0.121
-240.917	-102.876	0.306	0.091
-239.903	-200.000	-0.049	0.416
-238.888	-200.000	-0.011	0.522
-237.873	168.248	0.109	0.196
-236.859	-125.608	-0.331	-0.063
-235.844	43.842	0.132	0.153
-234.830	800.000	0.027	0.106
-233.815	-179.823	-0.643	-0.017
-232.800	145.908	0.191	0.324
-231.786	-109.347	0.422	0.112
-230.771	97.481	0.334	-0.484
-229.757	-116.652	-0.444	-0.102
-228.742	-130.877	0.381	-0.064
-227.727	-65.653	0.377	0.190
-226.713	-174.022	0.602	-0.022
-225.698	-96.066	0.447	-0.149
-224.684	177.096	-0.244	0.450
-223.669	166.156	0.177	0.317
-222.655	337.934	0.216	0.533
-221.640	-40.919	-0.040	-0.026
-220.625	-23.598	0.161	0.122
-219.611	666.534	0.131	-0.430
-218.596	-106.409	0.194	0.054
-217.582	-30.708	-0.239	-0.170
-216.567	-194.377	-0.547	-0.005
-215.552	116.522	0.095	-0.147
-214.538	-138.026	-0.194	-0.027
-213.523	92.703	-0.323	0.460
-212.509	-112.380	0.154	0.039
-211.494	-22.101	-0.234	0.179
-210.479	143.796	-0.107	0.179
-209.465	-165.558	0.512	0.028
-208.450	140.150	0.060	0.100
-207.436	-200.000	-0.022	-0.353
-206.421	-106.069	0.275	0.077
-205.406	138.514	0.166	0.276
-204.392	22.132	-0.258	0.265
-203.377	745.401	-0.154	0.524
-202.363	-200.000	0.038	-0.332
-201.348	-114.892	-0.055	0.013
-200.333	-200.000	0.024	0.374
-199.319	-100.707	0.276	-0.085
-198.304	34.614	0.114	0.126
-197.290	-184.625	-0.149	0.003
-196.275	83.226	0.224	-0.308
-195.260	455.545	0.109	-0.306
-194.246	-177.501	-0.206	-0.006
-193.231	-168.359	0.601	-0.029
-192.217	800.000	-0.036	0.136
-191.202	610.890	-0.104	0.329
-190.187	43.189	0.180	0.207
-189.173	55.058	0.333	-0.405
-188.158	233.673	0.088	0.183
-187.144	86.121	0.114	-0.158
-186.129	-8.247	-0.146	0.123
-185.114	254.481	-0.150	0.324
-184.100	-200.000	0.049	0.384
-183.085	-162.721	-0.474	0.029
-182.071	104.839	-0.154	-0.229
-181.056	29.160	-0.284	0.304
-180.042	-9.117	-0.344	-0.290
-179.027	-113.641	-0.196	-0.048
-178.012	-200.000	0.028	-0.295
-176.998	-150.021	-0.151	-0.015
-175.983	-18.142	-0.106	0.083
-174.969	72.284	-0.354	-0.464
-173.954	-133.721	0.401	0.062
-172.939	-111.602	0.577	-0.146
-171.925	-72.795	0.199	-0.092
-170.910	-19.347	0.170	-0.132
-169.896	47.257	-0.475	-0.557
-168.881	658.211	0.056	-0.182
-167.866	-39.061	-0.301	-0.198
-166.852	-28.144	0.251	0.182
-165.837	-103.986	0.353	-0.103
-164.823	-80.341	0.359	-0.150
-163.808	-57.858	0.224	-0.123
-162.793	176.474	-0.167	0.306
-161.779	-200.000	0.031	0.593
-160.764	-146.612	-0.261	0.028
-159.750	-200.000	0.055	-0.314
-158.735	-127.927	0.096	-0.017
-157.720	-200.000	0.021	0.217
-156.706	-96.130	-0.300	-0.100
-155.691	-132.163	0.134	0.022
-154.677	4.286	-0.159	0.147
-153.662	-200.000	0.017	0.112
-152.647	-74.439	-0.104	-0.047
-151.633	-21.688	0.325	0.249
-150.618	-200.000	-0.029	-0.201
-149.604	-7.446	-0.157	0.133
-148.589	-62.841	-0.480	-0.249
-147.574	249.707	0.240	-0.514
-146.560	-112.381	0.248	0.062
-145.545	800.000	-0.041	0.225
-144.531	-31.363	-0.538	-0.380
-143.516	216.757	-0.388	-0.779
-142.502	224.244	0.029	0.059
-141.487	800.000	-0.041	0.170
-140.472	32.359	-0.064	-0.069
-139.458	137.152	0.310	-0.510
-138.443	722.416	0.040	-0.134
-137.429	-200.000	0.541	-0.003
-136.414	364.935	0.084	-0.212
-135.399	800.000	-0.042	-0.167
-134.385	326.145	0.097	-0.234
-133.370	-200.000	-0.022	-0.189
-132.356	3.242	0.078	0.072
-131.341	263.672	0.021	0.046
-130.326	-146.714	0.029	0.003
-129.312	-105.287	-0.148	0.042
-128.297	204.481	-0.252	0.493
-127.283	192.838	0.184	-0.349
-126.268	65.045	-0.229	-0.291
-125.253	-79.090	0.061	0.026
-124.239	-60.279	0.109	-0.058
-123.224	-77.203	-0.174	0.076
-122.210	53.627	-0.106	0.128
