DTS Sentinel unit serial number:	SN409020Multiplexer serial number:	ORYXHardware model number:	OX4-SRSoftware version number:	ORYX F/W v3.00 Oryx Data Collector v3.7.2.0data status	okinstallation	HaddamTimeLapsedifferential loss correction	single-endedforward channel	channel 3reverse channel	N/Adate	2011/06/22time	11:36:01forward acquisition time	30.00reverse acquisition time	0.00gamma	498.7831k internal	0.1754k external	0.1754temperature offset calibration	1.0074default loss term (dB/km)	0.3790temperature slope calibration	1.3530multiplexer offset coefficient	1.0000multiplexer slope coefficient	1.0000fibre end	0.00T internal ref (°C)	28.31T ext. ref 1 (°C)	23.43T ext. ref 2 (°C)	-0.10length (m)	temperature (°C)	Stokes	anti-Stokes-747.200	49.609	-0.040	0.050
-746.185	-37.347	0.188	0.133
-745.171	-200.000	0.007	-0.068
-744.156	-200.000	0.003	0.398
-743.142	800.000	0.071	-0.410
-742.127	-32.275	-0.390	0.288
-741.112	146.950	0.087	-0.156
-740.098	800.000	-0.143	0.663
-739.083	-108.802	0.210	0.059
-738.069	-112.226	0.233	0.062
-737.054	-67.125	0.123	0.064
-736.039	-73.158	0.338	-0.164
-735.025	-15.426	-0.161	-0.136
-734.010	50.066	0.032	0.040
-732.996	34.309	-0.219	-0.254
-731.981	438.468	0.062	-0.181
-730.966	-90.136	-0.377	0.145
-729.952	82.997	-0.085	0.122
-728.937	369.583	0.058	-0.157
-727.923	-118.704	0.239	-0.055
-726.908	-119.066	-0.210	-0.048
-725.894	-99.820	0.438	0.144
-724.879	52.348	0.234	-0.296
-723.864	-200.000	-0.015	-0.185
-722.850	800.000	0.057	-0.240
-721.835	-159.076	-0.401	0.030
-720.821	-60.444	-0.385	0.216
-719.806	-200.000	-0.010	0.362
-718.791	800.000	-0.170	-0.777
-717.777	-107.825	0.235	0.067
-716.762	800.000	0.080	0.460
-715.748	113.905	0.168	-0.271
-714.733	59.873	-0.176	-0.231
-713.718	9.510	-0.259	0.259
-712.704	466.917	-0.106	-0.315
-711.689	-100.386	-0.412	0.135
-710.675	16.680	-0.575	-0.602
-709.660	-200.000	0.046	-0.687
-708.645	1.926	-0.274	0.261
-707.631	-174.092	-0.225	0.009
-706.616	-73.552	-0.128	0.062
-705.602	347.418	-0.171	0.447
-704.587	-195.053	-0.576	-0.006
-703.572	-137.804	0.137	0.020
-702.558	-73.377	0.211	0.102
-701.543	800.000	-0.030	0.165
-700.529	-23.245	-0.096	-0.076
-699.514	-200.000	-0.013	0.189
-698.499	-63.614	0.356	0.193
-697.485	55.418	-0.128	-0.165
-696.470	9.927	-0.284	-0.286
-695.456	-69.489	0.371	0.187
-694.441	-132.915	-0.036	-0.006
-693.426	-99.143	0.382	-0.127
-692.412	-166.972	0.301	0.016
-691.397	229.706	0.029	0.063
-690.383	-45.224	0.247	-0.162
-689.368	18.105	-0.385	-0.406
-688.354	47.437	-0.185	-0.228
-687.339	25.523	-0.209	0.230
-686.324	-75.346	-0.138	0.065
-685.310	146.430	-0.099	-0.177
-684.295	800.000	-0.095	0.362
-683.281	20.299	0.293	-0.313
-682.266	-129.357	-0.141	0.026
-681.251	100.651	-0.143	-0.221
-680.237	101.309	0.209	0.322
-679.222	-22.984	-0.150	0.120
-678.208	-107.262	0.135	-0.039
-677.193	-53.341	-0.194	0.117
-676.178	-11.093	-0.153	0.133
-675.164	-200.000	0.069	0.455
-674.149	-67.022	-0.291	-0.151
-673.135	-21.368	0.282	-0.227
-672.120	-151.141	-0.414	0.041
-671.105	307.186	0.067	-0.166
-670.091	-118.528	-0.422	-0.098
-669.076	800.000	0.054	-0.294
-668.062	-111.742	0.095	0.025
-667.047	-115.013	-0.186	0.046
-666.032	-200.000	-0.011	-0.140
-665.018	-115.684	-0.261	-0.064
-664.003	200.154	0.092	0.188
-662.989	409.660	-0.238	0.671
-661.974	-127.375	0.294	0.056
-660.959	-95.103	0.090	0.032
-659.945	66.957	-0.064	0.087
-658.930	-171.165	-0.202	-0.009
-657.916	134.580	-0.112	0.192
-656.901	-200.000	-0.024	0.382
-655.886	-75.175	0.350	0.165
-654.872	83.926	-0.390	-0.564
-653.857	51.365	-0.318	-0.400
-652.843	-200.000	0.428	-0.001
-651.828	-171.431	0.625	-0.027
-650.814	-185.501	0.133	-0.003
-649.799	-44.696	0.293	-0.193
-648.784	224.758	-0.113	-0.242
-647.770	-200.000	-0.031	-0.198
-646.755	-129.257	0.337	-0.061
-645.741	-4.564	0.434	-0.396
-644.726	-139.693	-0.379	-0.053
-643.711	-200.000	-0.033	-0.326
-642.697	578.947	0.157	-0.510
-641.682	-12.976	0.188	-0.162
-640.668	800.000	0.057	0.241
-639.653	-141.065	0.423	-0.057
-638.638	648.387	0.106	-0.360
-637.624	-81.214	-0.164	0.071
-636.609	51.953	-0.267	0.336
-635.595	-61.717	0.320	-0.176
-634.580	99.865	-0.261	0.400
-633.565	146.718	-0.183	0.326
-632.551	85.485	0.073	-0.107
-631.536	-71.639	-0.180	0.089
-630.522	-145.452	-0.321	-0.038
-629.507	394.575	-0.074	0.204
-628.492	800.000	-0.052	0.260
-627.478	102.031	-0.279	-0.430
-626.463	-79.898	0.376	-0.166
-625.449	-110.818	0.102	0.027
-624.434	268.687	-0.083	-0.193
-623.419	-104.513	-0.445	-0.135
-622.405	-77.457	-0.168	0.077
-621.390	-132.886	-0.173	-0.029
-620.376	57.108	-0.167	0.216
-619.361	-200.000	-0.164	0.000
-618.346	-120.869	-0.540	-0.119
-617.332	40.462	0.338	0.401
-616.317	-96.736	-0.415	-0.143
-615.303	-1.360	0.180	0.168
-614.288	-49.283	-0.419	0.263
-613.273	38.781	-0.231	0.272
-612.259	-134.379	-0.277	0.044
-611.244	-82.322	-0.748	-0.320
-610.230	256.047	0.103	-0.234
-609.215	-13.489	0.481	-0.411
-608.201	-200.000	-0.073	-0.512
-607.186	-106.102	0.224	0.066
-606.171	-46.394	-0.215	-0.139
-605.157	99.098	-0.103	-0.157
-604.142	-31.179	0.130	0.096
-603.128	99.450	-0.064	-0.098
-602.113	-58.719	0.392	0.223
-601.098	30.075	-0.072	-0.081
-600.084	434.721	-0.105	-0.302
-599.069	-86.438	0.373	0.150
-598.055	-200.000	-0.006	-0.289
-597.040	-200.000	0.015	-0.141
-596.025	-200.000	0.076	-0.470
-595.011	-69.195	-0.247	-0.125
-593.996	-54.461	-0.190	0.113
-592.982	-81.955	0.325	-0.140
-591.967	-88.693	-0.322	0.126
-590.952	29.664	-0.265	0.298
-589.938	81.860	-0.163	0.234
-588.923	225.501	0.084	0.180
-587.909	-70.154	0.203	0.101
-586.894	-189.531	0.270	-0.004
-585.879	332.218	0.067	-0.172
-584.865	9.879	-0.137	0.137
-583.850	70.919	-0.080	0.109
-582.836	-92.566	-0.208	0.077
-581.821	-13.220	0.060	-0.052
-580.806	-163.483	0.162	0.010
-579.792	-100.518	0.234	-0.076
-578.777	-21.945	0.362	0.290
-577.763	-42.071	0.341	0.229
-576.748	114.330	-0.221	0.355
-575.733	394.404	0.180	-0.495
-574.719	-104.138	0.212	0.065
-573.704	210.676	-0.253	-0.526
-572.690	-109.457	-0.582	0.161
-571.675	-43.810	0.111	-0.073
-570.661	-200.000	0.008	-0.449
-569.646	-109.936	-0.154	0.042
-568.631	-138.992	-0.242	-0.034
-567.617	-17.090	0.172	0.143
-566.602	-200.000	-0.003	0.050
-565.588	256.671	-0.048	-0.108
-564.573	0.444	0.281	0.264
-563.558	69.189	0.194	-0.264
-562.544	800.000	0.086	0.463
-561.529	-47.909	-0.397	0.253
-560.515	-200.000	0.024	-0.274
-559.500	-104.477	-0.039	0.012
-558.485	31.912	-0.239	-0.271
-557.471	800.000	-0.016	0.084
-556.456	112.913	-0.052	0.083
-555.442	-97.989	-0.460	-0.155
-554.427	72.144	0.141	-0.193
-553.412	-149.461	-0.217	0.022
-552.398	-117.640	-0.484	0.114
-551.383	-200.000	0.014	-0.413
-550.369	-117.229	0.145	0.034
-549.354	610.063	0.207	0.684
-548.339	-191.290	0.445	-0.006
-547.325	-196.194	-0.184	-0.002
-546.310	-164.170	-0.370	-0.022
-545.296	260.437	0.191	-0.436
-544.281	113.573	-0.117	0.188
-543.266	-84.343	0.179	-0.074
-542.252	-102.704	-0.213	-0.066
-541.237	411.142	-0.019	-0.054
-540.223	-142.115	0.410	-0.053
-539.208	-200.000	-0.093	-0.903
-538.193	446.887	-0.078	-0.227
-537.179	18.611	0.091	-0.096
-536.164	259.894	0.190	-0.433
-535.150	-13.048	0.393	0.335
-534.135	-37.581	-0.307	0.215
-533.121	-200.000	0.003	0.144
-532.106	-55.080	0.060	0.035
-531.091	-81.938	0.240	0.103
-530.077	366.487	-0.158	-0.420
-529.062	-200.000	0.004	0.126
-528.048	77.287	-0.305	0.427
-527.033	-142.892	-0.232	0.029
-526.018	-136.505	-0.120	-0.018
-525.004	800.000	0.059	0.242
-523.989	332.563	0.145	-0.369
-522.975	204.829	-0.195	0.398
-521.960	-65.256	-0.297	0.157
-520.945	-69.080	0.148	-0.075
-519.931	45.797	-0.263	0.319
-518.916	84.162	0.175	-0.252
-517.902	640.869	0.050	-0.170
-516.887	-18.613	0.163	-0.133
-515.872	17.866	-0.307	0.321
-514.858	800.000	-0.053	-0.256
-513.843	-117.113	-0.235	-0.056
-512.829	-5.205	-0.348	0.314
-511.814	308.744	-0.101	-0.249
-510.799	-94.738	-0.318	-0.113
-509.785	-73.852	-0.321	0.153
-508.770	-200.000	0.081	-0.521
-507.756	800.000	0.038	-0.212
-506.741	312.931	0.115	0.284
-505.726	-23.353	-0.297	0.234
-504.712	89.428	-0.158	-0.232
-503.697	-129.622	0.112	-0.020
-502.683	-63.725	0.298	0.160
-501.668	40.040	-0.057	0.068
-500.653	-179.144	-0.423	-0.012
-499.639	-200.000	-0.041	0.507
-498.624	-123.588	-0.116	-0.024
-497.610	71.794	0.317	-0.434
-496.595	277.894	0.053	-0.124
-495.581	-127.600	0.384	-0.072
-494.566	-41.721	0.128	0.086
-493.551	86.047	0.416	0.603
-492.537	-127.744	-0.423	-0.080
-491.522	461.235	-0.061	-0.181
-490.508	-19.279	-0.062	0.050
-489.493	8.975	0.452	-0.448
-488.478	342.651	0.031	0.080
-487.464	39.330	-0.186	-0.219
-486.449	-171.857	0.574	0.024
-485.435	435.104	0.137	0.393
-484.420	-43.445	-0.150	-0.099
-483.405	24.291	0.187	-0.203
-482.391	-200.000	-0.016	0.359
-481.376	333.811	-0.133	0.340
-480.362	31.073	-0.130	-0.146
-479.347	-11.786	-0.286	0.246
-478.332	-104.088	-0.810	0.246
-477.318	800.000	-0.043	0.165
-476.303	-1.455	-0.105	-0.097
-475.289	-91.962	-0.324	0.120
-474.274	-110.940	-0.147	-0.039
-473.259	451.572	-0.104	0.304
-472.245	-162.851	-0.272	0.017
-471.230	-200.000	0.008	-0.267
-470.216	-53.727	0.549	0.328
-469.201	119.274	-0.104	0.169
-468.186	-93.166	0.364	0.132
-467.172	58.648	0.079	0.102
-466.157	800.000	-0.070	0.397
-465.143	-117.046	-0.041	0.010
-464.128	-5.871	0.234	-0.210
-463.113	800.000	0.093	-0.459
-462.099	87.499	0.035	-0.051
-461.084	157.809	-0.148	-0.269
-460.070	84.584	-0.162	-0.233
-459.055	230.249	-0.088	0.189
-458.040	-14.639	0.296	-0.249
-457.026	421.331	0.152	-0.431
-456.011	69.653	0.205	-0.277
-454.997	-129.220	-0.427	0.077
-453.982	100.066	0.100	0.152
-452.968	572.647	-0.091	-0.292
-451.953	-200.000	0.032	0.406
-450.938	-75.582	0.173	-0.080
-449.924	-200.000	-0.002	0.258
-448.909	15.471	0.182	0.187
-447.895	800.000	0.074	0.362
-446.880	93.314	-0.078	-0.116
-445.865	-72.635	-0.214	-0.103
-444.851	31.608	0.196	0.221
-443.836	217.215	-0.134	0.281
-442.822	-200.000	0.034	-0.635
-441.807	-62.380	-0.410	0.223
-440.792	-121.787	0.639	0.137
-439.778	192.315	0.083	-0.165
-438.763	-56.609	0.139	0.080
-437.749	-59.483	0.174	-0.097
-436.734	-64.261	-0.166	-0.089
-435.719	800.000	-0.068	-0.276
-434.705	-200.000	0.011	0.109
-433.690	-53.156	-0.686	-0.411
-432.676	7.368	-0.252	0.247
-431.661	-20.081	0.467	0.377
-430.646	-200.000	0.035	0.561
-429.632	-200.000	-0.000	-0.068
-428.617	800.000	0.043	0.247
-427.603	-93.103	0.294	0.107
-426.588	-167.411	-0.307	0.016
-425.573	51.209	-0.339	-0.422
-424.559	47.654	-0.457	0.559
-423.544	-59.140	0.332	0.187
-422.530	-22.053	-0.233	0.185
-421.515	-55.611	-0.195	-0.114
-420.500	200.985	0.083	0.167
-419.486	16.397	0.083	-0.085
-418.471	375.384	-0.066	-0.178
-417.457	800.000	0.095	0.419
-416.442	66.937	-0.289	-0.386
-415.428	-200.000	0.018	0.283
-414.413	-108.914	0.600	0.167
-413.398	-123.069	0.562	-0.117
-412.384	-4.686	-0.264	0.238
-411.369	10.972	0.199	-0.199
-410.355	-62.541	0.528	-0.286
-409.340	-152.012	-0.084	0.008
-408.325	-85.682	-0.474	0.192
-407.311	-10.812	0.188	0.162
-406.296	-60.081	-0.266	0.148
-405.282	-186.158	0.449	-0.008
-404.267	-132.316	-0.140	0.023
-403.252	-95.984	-0.207	0.072
-402.238	206.247	-0.244	-0.499
-401.223	103.109	0.365	-0.560
-400.209	-79.641	0.245	0.107
-399.194	-124.291	-0.454	-0.092
-398.179	-200.000	-0.030	-0.249
-397.165	-200.000	-0.085	-0.569
-396.150	-21.543	-0.102	-0.081
-395.136	-88.440	-0.063	-0.024
-394.121	105.304	0.183	-0.283
-393.106	-200.000	-0.025	-0.216
-392.092	76.278	-0.104	-0.145
-391.077	-200.000	-0.732	0.002
-390.063	517.720	-0.083	-0.255
-389.048	274.030	-0.050	0.116
-388.033	70.524	0.166	0.225
-387.019	-103.303	-0.546	-0.167
-386.004	-115.430	0.509	-0.124
-384.990	32.565	0.198	-0.224
-383.975	-13.002	0.509	-0.433
-382.960	425.711	-0.034	0.096
-381.946	-112.086	0.264	0.069
-380.931	-158.957	0.144	0.011
-379.917	-11.674	0.110	-0.094
-378.902	541.794	0.061	0.193
-377.888	-84.475	-0.526	0.216
-376.873	48.370	0.242	0.296
-375.858	-197.266	-0.234	-0.002
-374.844	643.609	-0.094	-0.315
-373.829	-124.642	0.455	0.091
-372.815	800.000	-0.082	0.387
-371.800	7.888	-0.549	0.538
-370.785	-200.000	0.014	0.131
-369.771	-24.748	-0.219	-0.170
-368.756	153.591	0.250	-0.448
-367.742	-98.714	0.301	-0.100
-366.727	632.262	0.026	0.086
-365.712	-8.721	0.195	0.171
-364.698	-73.078	-0.065	0.031
-363.683	-45.038	-0.135	-0.088
-362.669	43.391	-0.080	0.095
-361.654	800.000	0.078	0.325
-360.639	-200.000	0.080	0.495
-359.625	-62.343	-0.270	-0.146
-358.610	-68.482	-0.087	-0.044
-357.596	41.342	-0.282	-0.333
-356.581	-200.000	-0.009	-0.351
-355.566	12.126	0.483	0.486
-354.552	-48.000	-0.246	0.155
-353.537	-3.518	0.368	-0.334
-352.523	-86.472	-0.317	0.127
-351.508	40.651	0.217	0.256
-350.493	28.974	-0.307	0.340
-349.479	-155.557	-0.241	0.020
-348.464	-60.882	0.106	-0.058
-347.450	14.808	0.370	0.378
-346.435	-130.170	0.140	0.025
-345.420	307.746	-0.107	-0.262
-344.406	-51.149	-0.241	0.147
-343.391	-200.000	-0.034	0.246
-342.377	-147.023	0.264	-0.029
-341.362	0.722	-0.162	-0.151
-340.348	-15.906	-0.406	0.337
-339.333	-35.227	0.186	0.132
-338.318	148.323	0.195	-0.345
-337.304	-20.759	0.153	-0.122
-336.289	-92.483	-0.288	-0.105
-335.275	-129.632	-0.413	0.074
-334.260	436.178	0.031	-0.089
-333.245	249.159	-0.130	-0.288
-332.231	-200.000	-0.004	0.044
-331.216	-144.637	0.687	-0.082
-330.202	-76.369	0.660	-0.302
-329.187	-79.353	0.320	-0.141
-328.172	-140.371	0.655	0.088
-327.158	-54.753	-0.086	-0.050
-326.143	153.959	0.040	0.072
-325.129	-21.395	0.260	-0.207
-324.114	-180.835	0.266	-0.007
-323.099	800.000	-0.055	0.205
-322.085	765.130	-0.105	0.376
-321.070	-72.176	-0.244	0.118
-320.056	-78.614	-0.411	-0.182
-319.041	-200.000	-0.011	0.192
-318.026	141.816	0.069	0.119
-317.012	-37.609	0.481	0.334
-315.997	-94.292	0.446	-0.158
-314.983	-200.000	-0.007	-0.146
-313.968	620.841	0.034	-0.112
-312.953	101.470	-0.321	0.488
-311.939	269.665	0.101	0.233
-310.924	-200.000	-0.038	0.223
-309.910	-74.350	0.198	0.093
-308.895	-93.572	-0.168	-0.060
-307.880	-25.444	-0.229	0.176
-306.866	-39.776	0.262	0.178
-305.851	105.280	-0.186	0.287
-304.837	800.000	-0.068	0.250
-303.822	-55.720	-0.247	0.143
-302.807	108.773	-0.261	0.407
-301.793	-200.000	0.013	-0.120
-300.778	-48.631	-0.264	0.165
-299.764	-200.000	0.027	-0.235
-298.749	59.291	0.138	-0.178
-297.735	-10.251	-0.104	0.090
-296.720	-44.656	0.344	0.223
-295.705	-143.521	0.150	0.018
-294.691	123.954	0.113	0.185
-293.676	800.000	-0.089	-0.352
-292.662	-128.532	0.333	-0.061
-291.647	174.825	0.184	-0.348
-290.632	-74.713	-0.187	-0.087
-289.618	234.479	0.034	-0.072
-288.603	264.415	0.058	-0.131
-287.589	800.000	0.170	0.632
-286.574	102.738	0.216	0.330
-285.559	-177.902	0.296	-0.009
-284.545	-108.930	0.278	0.077
-283.530	-58.837	0.179	-0.100
-282.516	15.795	0.419	-0.429
-281.501	435.070	0.042	-0.120
-280.486	-200.000	-0.006	0.134
-279.472	-82.714	0.306	0.128
-278.457	-20.145	-0.284	0.228
-277.443	-142.726	-0.138	0.017
-276.428	-17.998	-0.100	-0.081
-275.413	-200.000	0.078	0.611
-274.399	-88.412	-0.318	-0.123
-273.384	-62.589	0.407	-0.219
-272.370	31.038	-0.169	-0.189
-271.355	-62.035	0.387	-0.210
-270.340	-71.150	-0.252	0.123
-269.326	44.415	-0.366	-0.438
-268.311	-66.218	0.356	-0.184
-267.297	-109.941	0.491	0.133
-266.282	-150.647	0.306	-0.030
-265.267	800.000	-0.051	0.243
-264.253	-46.085	0.059	-0.038
-263.238	-200.000	-0.029	0.330
-262.224	123.392	-0.043	-0.070
-261.209	108.592	-0.279	-0.435
-260.195	-134.179	-0.555	0.088
-259.180	-77.178	0.173	-0.078
-258.165	-200.000	-0.016	0.119
-257.151	-200.000	0.043	0.347
-256.136	-84.388	0.437	-0.179
-255.122	-178.303	-0.567	0.017
-254.107	-200.000	-0.001	-0.593
-253.092	-159.762	0.228	-0.016
-252.078	434.737	-0.155	-0.440
-251.063	-122.777	0.400	0.083
-250.049	121.172	0.231	-0.375
-249.034	-69.825	0.364	0.180
-248.019	17.978	0.272	0.282
-247.005	-88.282	0.485	0.188
-245.990	143.197	0.193	-0.334
-244.976	-135.372	-0.286	0.044
-243.961	-200.000	-0.012	-0.384
-242.946	92.093	0.128	0.187
-241.932	-9.368	0.195	-0.169
-240.917	-180.184	0.374	0.010
-239.903	160.731	-0.153	0.278
-238.888	-89.900	0.304	-0.115
-237.873	265.712	-0.132	-0.301
-236.859	238.797	0.091	0.198
-235.844	257.267	-0.182	0.408
-234.830	-58.402	-0.563	0.317
-233.815	-79.297	-0.143	0.063
-232.800	-142.831	-0.159	0.020
-231.786	-196.779	0.580	-0.005
-230.771	-32.616	0.278	0.201
-229.757	-123.086	-0.457	-0.095
-228.742	-115.569	0.136	0.033
-227.727	-28.671	-0.304	0.227
-226.713	-17.589	-0.426	0.347
-225.698	546.766	0.038	0.120
-224.684	16.646	-0.037	0.038
-223.669	-200.000	-0.013	0.227
-222.655	-200.000	0.038	-0.259
-221.640	0.279	-0.137	0.127
-220.625	-200.000	-0.062	0.478
-219.611	-102.234	0.138	-0.043
-218.596	-153.107	0.188	-0.017
-217.582	-129.313	-0.224	-0.040
-216.567	-200.000	-0.016	0.464
-215.552	-5.306	0.239	0.213
-214.538	-74.079	0.279	0.131
-213.523	2.024	-0.129	0.120
-212.509	-4.043	-0.462	-0.416
-211.494	78.562	0.386	-0.537
-210.479	566.066	-0.053	0.169
-209.465	-124.724	-0.235	0.047
-208.450	-65.128	0.217	-0.113
-207.436	-113.017	0.082	-0.021
-206.421	-177.398	-0.441	-0.014
-205.406	484.731	-0.031	0.092
-204.392	-123.424	-0.044	-0.009
-203.377	-22.816	-0.324	0.254
-202.363	71.831	0.062	0.084
-201.348	20.359	-0.282	0.296
-200.333	38.915	0.289	0.336
-199.319	-62.745	-0.168	0.090
-198.304	-62.835	0.039	0.021
-197.290	-177.584	-0.310	0.010
-196.275	-59.626	-0.080	-0.044
-195.260	-147.437	0.318	0.035
-194.246	124.931	0.155	-0.253
-193.231	-38.121	0.285	-0.196
-192.217	-177.070	0.289	-0.009
-191.202	-82.365	0.087	-0.036
-190.187	175.956	0.195	-0.368
-189.173	-150.371	0.296	-0.029
-188.158	-66.476	-0.247	0.127
-187.144	-128.960	-0.133	0.024
-186.129	-70.129	0.419	0.206
-185.114	62.720	-0.113	0.147
-184.100	-200.000	0.102	-0.644
-183.085	593.470	-0.102	0.328
-182.071	-2.058	-0.354	-0.323
-181.056	-110.238	-0.052	0.014
-180.042	-0.450	0.112	-0.103
-179.027	46.647	0.210	-0.254
-178.012	-29.397	-0.303	0.225
-176.998	-200.000	0.031	-0.577
-175.983	800.000	0.059	-0.238
-174.969	-25.929	-0.188	-0.143
-173.954	3.980	0.035	-0.033
-172.939	-9.626	0.227	-0.196
-171.925	231.093	-0.144	0.308
-170.910	358.159	-0.177	-0.460
-169.896	-49.968	0.395	-0.242
-168.881	96.126	0.109	-0.161
-167.866	-200.000	-0.007	0.233
-166.852	180.587	-0.110	0.210
-165.837	196.375	-0.153	-0.302
-164.823	-200.000	-0.005	-0.279
-163.808	-109.153	0.110	0.030
-162.793	-190.000	-0.388	-0.006
-161.779	-81.669	-0.217	-0.092
-160.764	25.696	0.410	-0.443
-159.750	-63.447	0.313	0.166
-158.735	267.972	0.186	0.425
-157.720	-144.052	-0.545	0.066
-156.706	-106.046	0.127	-0.037
-155.691	-17.402	0.175	-0.143
-154.677	631.107	0.126	0.414
-153.662	-50.762	-0.425	0.258
-152.647	-85.007	-0.213	-0.086
-151.633	78.444	-0.103	0.143
-150.618	182.691	-0.235	0.450
-149.604	-91.466	0.541	0.199
-148.589	-75.205	-0.170	-0.078
-147.574	-43.487	-0.055	-0.036
-146.560	-63.160	0.108	0.058
-145.545	62.906	-0.072	-0.094
-144.531	-111.025	-0.472	-0.125
-143.516	583.977	0.055	-0.176
-142.502	515.950	0.101	0.308
-141.487	-19.333	-0.176	-0.141
-140.472	109.366	0.205	-0.319
-139.458	-200.000	0.014	-0.216
-138.443	-8.499	-0.445	-0.387
-137.429	78.422	-0.448	0.621
-136.414	-62.544	0.368	-0.197
-135.399	-190.647	-0.547	0.007
-134.385	-100.074	-0.187	-0.060
-133.370	-131.151	-0.215	0.037
-132.356	-156.869	0.603	-0.047
-131.341	-49.257	-0.324	0.200
-130.326	110.608	-0.074	-0.116
-129.312	-200.000	-0.037	-0.292
-128.297	-139.016	0.377	0.052
-127.283	-63.393	-0.110	-0.058
-126.268	-25.151	-0.148	0.113
-125.253	-66.747	0.202	-0.103
-124.239	116.533	0.262	-0.417
-123.224	-29.127	0.287	-0.213
-122.210	191.427	-0.370	-0.723
