DTS Sentinel unit serial number:	SN409020Multiplexer serial number:	ORYXHardware model number:	OX4-SRSoftware version number:	ORYX F/W v3.00 Oryx Data Collector v3.7.2.0data status	okinstallation	HaddamTimeLapsedifferential loss correction	single-endedforward channel	channel 3reverse channel	N/Adate	2011/06/21time	22:51:17forward acquisition time	30.00reverse acquisition time	0.00gamma	498.7831k internal	0.1754k external	0.1754temperature offset calibration	1.0074default loss term (dB/km)	0.3790temperature slope calibration	1.3530multiplexer offset coefficient	1.0000multiplexer slope coefficient	1.0000fibre end	0.00T internal ref (°C)	23.66T ext. ref 1 (°C)	18.48T ext. ref 2 (°C)	0.05length (m)	temperature (°C)	Stokes	anti-Stokes-747.200	-116.003	-0.682	-0.167
-746.185	-9.344	-0.354	0.313
-745.171	523.393	-0.068	0.212
-744.156	665.167	0.078	0.269
-743.142	-4.664	0.143	-0.130
-742.127	-13.931	0.281	0.240
-741.112	-143.871	0.337	-0.042
-740.098	-97.426	-0.092	0.032
-739.083	-8.716	-0.444	-0.395
-738.069	264.388	0.158	0.365
-737.054	191.704	0.021	0.042
-736.039	169.783	-0.119	0.227
-735.025	8.249	0.203	0.202
-734.010	109.524	-0.250	0.397
-732.996	-147.501	0.473	-0.052
-731.981	-161.200	0.640	0.044
-730.966	-113.495	0.389	0.100
-729.952	-89.556	0.511	-0.198
-728.937	17.839	0.093	0.098
-727.923	317.307	-0.072	-0.180
-726.908	-98.055	0.183	0.062
-725.894	148.395	-0.186	-0.334
-724.879	800.000	0.130	0.557
-723.864	54.376	0.060	-0.077
-722.850	0.758	-0.340	-0.322
-721.835	-65.397	-0.272	-0.144
-720.821	-136.906	-0.143	0.022
-719.806	-57.309	-0.243	0.141
-718.791	-163.946	-0.356	-0.022
-717.777	-45.147	0.229	-0.151
-716.762	-196.246	0.622	0.006
-715.748	-197.840	0.473	0.004
-714.733	-200.000	-0.013	-0.383
-713.718	-100.708	-0.167	0.054
-712.704	171.969	0.120	0.228
-711.689	-200.000	0.045	0.588
-710.675	-178.018	-0.284	-0.009
-709.660	800.000	0.031	0.166
-708.645	200.962	0.172	0.352
-707.631	10.535	-0.187	-0.189
-706.616	66.484	-0.058	0.078
-705.602	-200.000	0.014	-0.368
-704.587	-61.674	-0.253	-0.140
-703.572	800.000	-0.083	0.349
-702.558	-93.737	0.339	-0.123
-701.543	613.601	0.042	-0.142
-700.529	13.307	-0.384	0.394
-699.514	14.689	0.207	-0.214
-698.499	800.000	-0.085	-0.377
-697.485	-9.353	0.168	0.148
-696.470	78.118	0.284	-0.401
-695.456	-200.000	-0.465	0.001
-694.441	28.768	0.339	-0.380
-693.426	-200.000	0.007	-0.373
-692.412	-200.000	-0.034	0.516
-691.397	-200.000	-0.015	0.492
-690.383	-124.265	-0.084	0.017
-689.368	-107.564	-0.067	0.019
-688.354	800.000	-0.006	0.031
-687.339	95.320	0.098	0.147
-686.324	-88.692	-0.228	-0.089
-685.310	-200.000	0.046	-0.329
-684.295	137.013	0.295	0.512
-683.281	-14.392	-0.251	-0.213
-682.266	-56.401	0.120	-0.070
-681.251	7.940	0.024	-0.023
-680.237	-200.000	-0.022	0.782
-679.222	644.701	-0.061	0.206
-678.208	-89.423	0.650	-0.252
-677.193	-86.116	0.295	0.120
-676.178	-200.000	-0.006	0.094
-675.164	314.361	0.046	0.114
-674.149	800.000	0.021	0.112
-673.135	800.000	0.045	-0.167
-672.120	51.982	0.039	0.050
-671.105	495.024	0.141	0.429
-670.091	-200.000	-0.016	0.198
-669.076	-88.404	0.086	0.034
-668.062	47.868	-0.123	0.152
-667.047	-200.000	0.037	-0.266
-666.032	-200.000	0.014	-0.360
-665.018	-125.859	0.451	-0.089
-664.003	376.122	0.192	-0.520
-662.989	-124.318	-0.231	0.047
-661.974	800.000	0.027	0.145
-660.959	-17.284	-0.221	0.183
-659.945	204.349	-0.273	0.562
-658.930	-200.000	0.039	0.382
-657.916	368.028	-0.149	-0.400
-656.901	-5.156	0.106	-0.096
-655.886	-35.060	-0.236	0.169
-654.872	357.970	-0.105	-0.279
-653.857	15.151	0.473	-0.490
-652.843	-71.824	-0.497	0.244
-651.828	-142.199	0.407	0.053
-650.814	-85.348	0.080	-0.033
-649.799	94.727	0.266	-0.400
-648.784	-47.248	-0.317	-0.203
-647.770	255.954	0.108	0.245
-646.755	-11.965	-0.160	0.139
-645.741	43.466	-0.291	0.352
-644.726	-33.123	-0.483	-0.353
-643.711	-53.110	-0.103	0.062
-642.697	-200.000	0.010	-0.284
-641.682	-76.920	0.296	-0.136
-640.668	-178.510	0.157	-0.005
-639.653	800.000	0.059	-0.299
-638.638	-200.000	0.030	-0.355
-637.624	198.029	-0.094	0.191
-636.609	-57.228	0.097	-0.056
-635.595	800.000	-0.097	-0.379
-634.580	-98.785	0.379	0.127
-633.565	-1.282	0.484	-0.451
-632.551	-2.570	-0.232	0.214
-631.536	87.226	-0.134	-0.196
-630.522	-136.500	0.284	-0.043
-629.507	146.136	-0.129	0.229
-628.492	-97.713	-0.403	0.137
-627.478	100.666	0.079	-0.122
-626.463	-41.183	0.136	0.093
-625.449	-200.000	0.037	-0.324
-624.434	327.305	-0.231	-0.587
-623.419	-125.520	0.119	0.024
-622.405	-116.069	-0.139	-0.034
-621.390	602.148	0.063	-0.208
-620.376	-159.969	0.097	-0.007
-619.361	-110.538	-0.232	0.063
-618.346	-107.485	0.771	-0.221
-617.332	-48.077	-0.390	-0.248
-616.317	-163.721	-0.071	0.004
-615.303	154.144	0.235	0.426
-614.288	142.940	0.122	0.215
-613.273	-182.185	-0.254	-0.006
-612.259	13.545	-0.171	0.175
-611.244	-120.899	0.354	0.078
-610.230	67.714	0.264	0.357
-609.215	-135.469	0.304	-0.047
-608.201	-87.339	0.348	-0.138
-607.186	246.978	0.235	-0.526
-606.171	800.000	-0.053	0.243
-605.157	-200.000	-0.019	0.140
-604.142	-37.921	0.178	-0.124
-603.128	-200.000	-0.004	-0.054
-602.113	572.207	0.118	0.381
-601.098	139.399	-0.178	0.310
-600.084	-98.565	0.411	0.138
-599.069	174.679	-0.236	0.452
-598.055	-44.396	0.379	0.249
-597.040	58.444	-0.188	-0.244
-596.025	-69.411	-0.490	0.247
-595.011	12.556	-0.232	0.236
-593.996	65.368	0.129	-0.173
-592.982	74.645	-0.134	-0.186
-591.967	143.021	-0.119	-0.209
-590.952	-200.000	-0.079	0.658
-589.938	-109.667	0.466	0.129
-588.923	800.000	-0.047	-0.174
-587.909	800.000	-0.099	0.563
-586.894	-31.616	0.145	-0.107
-585.879	-12.459	0.368	-0.317
-584.865	332.229	-0.135	0.345
-583.850	-21.308	-0.183	0.147
-582.836	-6.140	-0.298	0.268
-581.821	-22.224	0.272	-0.217
-580.806	-111.895	-0.152	-0.040
-579.792	-18.333	0.028	0.023
-578.777	613.660	-0.111	0.368
-577.763	57.624	0.089	0.115
-576.748	560.133	-0.104	0.332
-575.733	-200.000	-0.028	0.403
-574.719	-53.761	-0.065	-0.039
-573.704	-127.534	-0.454	0.086
-572.690	-9.407	-0.681	0.598
-571.675	-124.096	-0.275	-0.056
-570.661	-77.030	-0.182	-0.083
-569.646	-34.010	0.189	0.136
-568.631	-55.839	0.295	0.173
-567.617	-73.469	-0.458	-0.219
-566.602	-100.896	0.059	0.019
-565.588	-57.873	-0.223	-0.128
-564.573	-75.158	-0.141	0.066
-563.558	-104.504	-0.485	-0.147
-562.544	591.962	-0.090	0.296
-561.529	-200.000	0.005	0.109
-560.515	-88.158	-0.292	-0.115
-559.500	31.535	-0.272	0.307
-558.485	-200.000	0.023	0.494
-557.471	182.724	-0.374	0.728
-556.456	-86.376	-0.326	0.131
-555.442	56.862	0.121	-0.155
-554.427	-200.000	-0.035	-0.458
-553.412	-200.000	-0.017	-0.182
-552.398	-55.331	-0.232	-0.136
-551.383	555.142	0.026	0.081
-550.369	-1.127	0.202	-0.187
-549.354	100.566	0.082	-0.125
-548.339	373.023	-0.022	0.059
-547.325	-83.518	-0.372	0.156
-546.310	-7.806	-0.344	-0.305
-545.296	-200.000	-0.036	0.283
-544.281	-45.756	-0.624	0.404
-543.266	-84.697	0.522	-0.215
-542.252	-166.566	0.297	-0.016
-541.237	-55.506	-0.502	0.295
-540.223	800.000	-0.156	0.572
-539.208	-116.801	0.313	0.075
-538.193	77.790	0.065	-0.091
-537.179	478.278	0.143	0.429
-536.164	-76.430	-0.195	-0.090
-535.150	-159.923	-0.368	-0.026
-534.135	-110.838	0.197	-0.053
-533.121	-116.368	-0.060	0.015
-532.106	784.593	0.054	-0.197
-531.091	379.741	-0.109	-0.294
-530.077	-76.084	0.077	0.036
-529.062	6.972	-0.212	0.208
-528.048	-200.000	0.016	-0.242
-527.033	423.669	0.137	-0.389
-526.018	-22.376	-0.260	-0.207
-525.004	126.227	-0.291	0.484
-523.989	1.491	-0.356	-0.336
-522.975	-137.816	-0.765	-0.111
-521.960	141.292	-0.077	-0.134
-520.945	-83.717	-0.500	-0.209
-519.931	-200.000	-0.040	-0.417
-518.916	-126.427	0.256	0.050
-517.902	310.948	-0.115	-0.283
-516.887	-167.445	-0.182	0.009
-515.872	78.174	0.155	-0.217
-514.858	524.152	0.084	0.262
-513.843	-200.000	0.000	-0.125
-512.829	57.104	0.234	-0.301
-511.814	25.854	0.456	0.499
-510.799	-69.798	0.266	0.133
-509.785	311.718	0.135	0.334
-508.770	-86.114	-0.291	0.117
-507.756	-200.000	-0.018	0.140
-506.741	10.707	-0.164	-0.164
-505.726	709.278	0.051	-0.178
-504.712	-180.555	-0.294	0.008
-503.697	-120.348	0.432	0.096
-502.683	-104.256	0.081	-0.024
-501.668	252.963	0.060	-0.135
-500.653	179.653	-0.289	0.558
-499.639	106.788	0.126	0.197
-498.624	581.831	0.034	0.109
-497.610	83.278	0.280	0.401
-496.595	-86.726	-0.541	-0.216
-495.581	-200.000	-0.011	-0.280
-494.566	-59.343	-0.326	-0.184
-493.551	229.377	0.238	-0.511
-492.537	33.273	0.331	-0.377
-491.522	3.619	0.108	-0.104
-490.508	-40.992	-0.264	0.179
-489.493	-178.549	-0.231	0.007
-488.478	125.757	0.079	-0.132
-487.464	99.216	0.140	0.213
-486.449	-72.330	-0.315	0.152
-485.435	23.095	-0.178	0.192
-484.420	40.132	-0.106	-0.125
-483.405	-163.976	0.064	-0.004
-482.391	800.000	-0.031	0.165
-481.376	-72.093	0.218	-0.106
-480.362	-23.796	0.160	0.126
-479.347	-121.852	0.295	0.063
-478.332	-200.000	-0.007	-0.243
-477.318	478.041	0.138	-0.413
-476.303	70.716	0.211	0.287
-475.289	-200.000	0.019	-0.190
-474.274	12.470	-0.390	-0.395
-473.259	-124.601	0.354	0.071
-472.245	163.843	-0.110	-0.204
-471.230	-30.568	0.361	-0.268
-470.216	-60.528	-0.411	-0.228
-469.201	-200.000	-0.008	-0.243
-468.186	85.910	-0.237	0.343
-467.172	-26.078	-0.156	-0.120
-466.157	155.202	0.107	-0.194
-465.143	-99.020	-0.407	-0.135
-464.128	-69.052	-0.402	0.202
-463.113	800.000	-0.100	-0.425
-462.099	-121.133	-0.296	-0.065
-461.084	155.696	0.263	0.476
-460.070	25.908	0.307	-0.336
-459.055	118.842	-0.158	-0.257
-458.040	800.000	0.038	-0.167
-457.026	-11.011	0.210	0.181
-456.011	-172.516	0.159	0.006
-454.997	-141.068	0.422	0.056
-453.982	-104.282	-0.339	0.103
-452.968	119.812	-0.349	0.568
-451.953	800.000	-0.037	-0.139
-450.938	-30.495	0.221	0.164
-449.924	-25.980	-0.067	-0.051
-448.909	-200.000	-0.042	0.344
-447.895	121.673	-0.247	-0.404
-446.880	38.596	-0.168	-0.197
-445.865	-171.966	-0.206	0.009
-444.851	192.363	-0.160	0.317
-443.836	701.497	0.148	0.515
-442.822	800.000	0.115	0.533
-441.807	60.665	0.341	0.443
-440.792	-162.183	0.073	0.005
-439.778	-98.272	0.389	-0.130
-438.763	-35.449	0.474	0.337
-437.749	-8.061	0.449	0.396
-436.734	-133.484	-0.421	0.068
-435.719	-76.205	0.255	0.117
-434.705	18.093	0.067	0.070
-433.690	30.418	0.264	0.296
-432.676	-200.000	0.044	-0.443
-431.661	-115.268	-0.113	0.028
-430.646	114.292	0.430	0.687
-429.632	-9.985	-0.176	-0.153
-428.617	265.300	0.098	0.226
-427.603	-200.000	-0.035	0.394
-426.588	-200.000	-0.012	-0.177
-425.573	800.000	-0.045	-0.209
-424.559	-46.077	-0.518	0.333
-423.544	-101.930	-0.167	-0.052
-422.530	-188.228	0.216	-0.004
-421.515	-169.189	-0.091	0.004
-420.500	800.000	-0.066	0.297
-419.486	-143.263	0.097	0.012
-418.471	-80.419	0.374	-0.163
-417.457	-110.265	0.293	-0.079
-416.442	-132.049	-0.119	0.020
-415.428	149.308	-0.184	-0.326
-414.413	284.219	0.156	0.370
-413.398	-200.000	0.025	0.403
-412.384	46.160	-0.146	0.178
-411.369	-49.278	0.271	-0.169
-410.355	-126.331	0.602	0.117
-409.340	-161.593	0.368	-0.024
-408.325	-40.853	0.334	0.226
-407.311	-79.407	0.309	-0.136
-406.296	-11.155	0.378	-0.325
-405.282	-71.861	0.415	-0.202
-404.267	129.378	-0.194	0.325
-403.252	-56.506	-0.352	0.203
-402.238	54.267	0.071	0.089
-401.223	-59.870	0.395	-0.220
-400.209	-200.000	-0.059	0.516
-399.194	162.618	0.142	0.261
-398.179	613.392	-0.157	0.517
-397.165	800.000	0.109	-0.564
-396.150	315.684	-0.049	-0.121
-395.136	2.686	0.253	0.240
-394.121	-200.000	0.219	0.001
-393.106	-16.261	-0.141	0.117
-392.092	-83.228	-0.265	-0.111
-391.077	45.693	0.083	-0.100
-390.063	-125.484	0.295	0.058
-389.048	-88.078	0.305	0.119
-388.033	16.703	-0.238	-0.246
-387.019	-144.780	-0.492	0.058
-386.004	-131.235	-0.279	-0.048
-384.990	-167.429	0.199	0.010
-383.975	271.341	0.104	-0.241
-382.960	-75.594	-0.485	0.225
-381.946	800.000	0.037	0.146
-380.931	67.827	-0.280	0.375
-379.917	197.553	0.204	0.407
-378.902	710.611	-0.017	-0.058
-377.888	-122.841	0.313	-0.065
-376.873	-200.000	0.030	-0.490
-375.858	-112.996	0.431	-0.111
-374.844	-13.135	0.136	0.116
-373.829	281.637	-0.197	-0.463
-372.815	-200.000	0.065	0.425
-371.800	86.841	0.169	-0.244
-370.785	172.084	0.047	-0.088
-369.771	20.349	0.479	0.505
-368.756	149.333	0.203	0.360
-367.742	-69.259	-0.350	-0.175
-366.727	-200.000	-0.014	0.602
-365.712	77.810	0.058	-0.080
-364.698	334.037	0.254	-0.644
-363.683	-72.067	-0.230	0.111
-362.669	-200.000	0.012	-0.154
-361.654	300.638	0.010	-0.024
-360.639	87.944	0.282	-0.409
-359.625	-200.000	0.033	-0.417
-358.610	-137.486	-0.113	-0.017
-357.596	-42.381	-0.128	0.085
-356.581	-160.786	0.096	-0.007
-355.566	175.347	0.085	0.161
-354.552	-24.885	-0.188	-0.146
-353.537	370.102	0.242	0.644
-352.523	115.668	0.195	-0.312
-351.508	800.000	-0.017	-0.077
-350.493	-200.000	0.020	-0.737
-349.479	115.404	-0.305	-0.487
-348.464	-200.000	0.039	-0.356
-347.450	-88.894	-0.303	-0.117
-346.435	-160.389	-0.148	0.010
-345.420	-200.000	0.024	-0.301
-344.406	800.000	-0.027	-0.137
-343.391	7.858	-0.130	0.127
-342.377	-99.040	0.251	-0.083
-341.362	-137.211	-0.450	0.066
-340.348	-84.371	0.408	-0.168
-339.333	-12.352	-0.142	-0.121
-338.318	800.000	0.067	0.275
-337.304	-200.000	-0.020	0.426
-336.289	70.141	-0.088	-0.119
-335.275	25.054	0.248	-0.269
-334.260	120.780	0.093	-0.151
-333.245	-15.967	0.207	-0.172
-332.231	40.003	-0.213	-0.250
-331.216	138.165	0.099	-0.170
-330.202	-78.217	0.248	-0.110
-329.187	-200.000	0.016	-0.205
-328.172	-148.356	-0.374	-0.040
-327.158	5.541	-0.066	-0.064
-326.143	-182.896	0.074	0.002
-325.129	-188.944	0.366	-0.006
-324.114	-117.269	-0.040	-0.009
-323.099	95.076	0.069	0.102
-322.085	-59.158	0.165	0.092
-321.070	172.595	-0.209	-0.394
-320.056	265.793	0.214	-0.490
-319.041	800.000	0.064	-0.275
-318.026	-132.530	-0.301	-0.050
-317.012	-24.310	-0.336	-0.261
-315.997	-53.596	0.063	0.037
-314.983	794.265	0.109	-0.395
-313.968	-200.000	-0.020	-0.141
-312.953	-6.160	-0.318	-0.283
-311.939	94.069	-0.118	-0.175
-310.924	63.123	-0.323	-0.423
-309.910	-104.600	-0.230	0.069
-308.895	224.267	-0.058	-0.122
-307.880	3.964	0.198	0.189
-306.866	119.612	-0.191	-0.310
-305.851	-200.000	0.011	0.701
-304.837	-200.000	-0.031	-0.218
-303.822	47.466	-0.107	0.130
-302.807	423.197	0.205	-0.576
-301.793	40.986	0.151	0.178
-300.778	451.429	-0.041	-0.119
-299.764	530.531	0.050	-0.154
-298.749	-200.000	0.025	-0.421
-297.735	-105.900	-0.198	0.058
-296.720	800.000	-0.039	0.169
-295.705	251.840	-0.093	0.208
-294.691	-123.074	0.196	-0.041
-293.676	40.907	-0.342	0.402
-292.662	-3.905	-0.085	-0.077
-291.647	800.000	-0.094	-0.366
-290.632	-138.618	0.042	0.006
-289.618	-122.786	-0.291	0.061
-288.603	-200.000	0.006	0.360
-287.589	-119.268	-0.360	-0.081
-286.574	22.913	0.202	0.216
-285.559	-87.909	-0.154	0.060
-284.545	-161.820	0.184	0.012
-283.530	366.864	0.127	-0.336
-282.516	-153.096	-0.508	0.046
-281.501	-200.000	0.377	0.000
-280.486	-188.324	0.106	-0.002
-279.472	-164.397	-0.307	0.018
-278.457	-78.323	-0.384	0.171
-277.443	-200.000	0.019	-0.157
-276.428	123.514	-0.244	-0.399
-275.413	177.249	-0.105	-0.200
-274.399	37.167	0.131	-0.151
-273.384	217.328	-0.076	0.158
-272.370	-131.754	-0.054	-0.009
-271.355	43.101	0.222	-0.264
-270.340	8.264	-0.262	-0.256
-269.326	-25.600	0.117	-0.090
-268.311	16.258	0.157	0.161
-267.297	-5.289	0.413	0.369
-266.282	800.000	-0.027	0.149
-265.267	-56.617	0.142	0.082
-264.253	427.534	0.076	-0.215
-263.238	-47.862	0.086	-0.054
-262.224	88.960	-0.165	0.239
-261.209	-89.301	0.356	0.136
-260.195	-153.120	-0.621	0.056
-259.180	115.846	0.111	-0.177
-258.165	45.763	0.141	-0.169
-257.151	60.477	0.176	-0.227
-256.136	112.278	0.114	0.180
-255.122	-190.572	-0.582	0.008
-254.107	-119.257	0.483	0.109
-253.092	800.000	0.019	-0.081
-252.078	-5.659	0.085	-0.075
-251.063	87.945	-0.221	-0.318
-250.049	-128.692	0.159	0.029
-249.034	-200.000	0.015	-0.303
-248.019	-200.000	0.004	-0.272
-247.005	-200.000	0.004	0.216
-245.990	47.493	0.215	-0.261
-244.976	-116.746	0.565	-0.134
-243.961	81.513	-0.242	-0.341
-242.946	58.543	0.204	0.261
-241.932	33.658	-0.196	-0.221
-240.917	218.127	-0.161	-0.335
-239.903	-200.000	0.038	0.240
-238.888	-200.000	0.011	-0.174
-237.873	-146.983	0.135	0.015
-236.859	198.902	0.181	0.360
-235.844	46.986	-0.124	0.150
-234.830	-176.427	0.337	-0.011
-233.815	216.035	-0.079	-0.164
-232.800	-34.145	-0.161	-0.115
-231.786	-200.000	0.026	0.164
-230.771	544.785	0.019	-0.059
-229.757	800.000	0.086	0.325
-228.742	-1.978	0.168	-0.153
-227.727	-91.167	0.261	0.097
-226.713	30.548	-0.023	-0.026
-225.698	274.742	-0.194	0.449
-224.684	-29.861	-0.130	0.096
-223.669	-31.522	-0.240	0.175
-222.655	-68.262	0.278	0.140
-221.640	112.626	-0.203	-0.320
-220.625	-111.118	0.045	-0.012
-219.611	-125.737	0.553	0.108
-218.596	107.810	-0.188	-0.292
-217.582	-122.906	0.296	0.061
-216.567	-106.931	0.459	0.131
-215.552	94.199	0.155	0.229
-214.538	0.444	-0.162	0.150
-213.523	64.733	0.366	0.480
-212.509	128.287	-0.311	0.515
-211.494	210.236	-0.224	0.458
-210.479	36.411	0.150	-0.172
-209.465	297.842	-0.151	-0.361
-208.450	-81.156	-0.320	-0.137
-207.436	-200.000	0.097	-0.588
-206.421	-200.000	-0.011	0.067
-205.406	-143.135	-0.480	0.059
-204.392	26.299	-0.252	-0.274
-203.377	791.614	-0.113	-0.407
-202.363	-92.907	0.476	0.172
-201.348	800.000	0.039	0.170
-200.333	800.000	-0.037	0.166
-199.319	-151.340	-0.261	0.025
-198.304	-85.005	0.398	0.161
-197.290	-38.987	0.110	0.075
-196.275	-200.000	-0.050	0.398
-195.260	591.992	-0.050	0.162
-194.246	800.000	-0.097	0.459
-193.231	-71.353	0.037	-0.018
-192.217	-119.255	0.556	-0.125
-191.202	-82.160	0.238	-0.100
-190.187	-200.000	0.061	0.456
-189.173	26.256	-0.156	0.169
-188.158	624.897	0.086	-0.284
-187.144	-13.650	0.584	0.490
-186.129	-200.000	0.031	-0.520
-185.114	-107.327	-0.519	-0.147
-184.100	174.949	-0.112	-0.211
-183.085	-200.000	-0.003	-0.237
-182.071	38.537	-0.137	-0.159
-181.056	211.165	-0.113	0.232
-180.042	12.389	-0.141	0.141
-179.027	-200.000	0.006	0.207
-178.012	86.641	-0.164	-0.235
-176.998	800.000	0.079	0.382
-175.983	-91.109	0.871	0.322
-174.969	-200.000	0.024	0.362
-173.954	-200.000	-0.017	-0.174
-172.939	800.000	-0.035	0.159
-171.925	41.563	-0.144	0.169
-170.910	800.000	-0.059	-0.277
-169.896	2.074	-0.114	0.107
-168.881	-11.045	0.261	-0.223
-167.866	387.580	-0.196	-0.528
-166.852	-152.097	-0.185	0.017
-165.837	44.670	-0.195	0.233
-164.823	9.268	0.123	-0.120
-163.808	65.215	-0.255	0.335
-162.793	-200.000	0.000	-0.609
-161.779	-200.000	-0.018	-0.286
-160.764	-88.025	0.219	0.085
-159.750	192.126	-0.073	-0.143
-158.735	800.000	-0.098	-0.466
-157.720	0.858	0.281	0.260
-156.706	-12.238	0.033	0.028
-155.691	-60.253	0.279	-0.153
-154.677	-42.733	0.269	-0.177
-153.662	800.000	0.051	0.214
-152.647	-50.228	-0.350	0.214
-151.633	-113.265	0.167	-0.042
-150.618	92.889	0.194	0.285
-149.604	83.145	0.058	-0.082
-148.589	353.809	0.158	0.408
-147.574	-150.775	-0.202	0.020
-146.560	-99.400	0.119	0.039
-145.545	800.000	0.055	-0.280
-144.531	-118.570	0.199	-0.045
-143.516	-8.732	0.717	-0.622
-142.502	207.340	0.210	-0.425
-141.487	-200.000	-0.027	-0.412
-140.472	-161.671	0.408	0.027
-139.458	178.416	-0.301	0.571
-138.443	-156.750	-0.192	0.015
-137.429	58.582	0.107	0.137
-136.414	800.000	0.094	0.478
-135.399	-149.332	0.385	0.039
-134.385	-200.000	0.003	-0.253
-133.370	-165.227	-0.206	0.012
-132.356	-104.425	0.615	-0.183
-131.341	77.210	-0.182	0.250
-130.326	75.837	0.308	0.422
-129.312	-200.000	-0.039	-0.542
-128.297	86.317	-0.344	-0.492
-127.283	314.458	0.030	0.073
-126.268	-135.166	0.720	0.111
-125.253	-54.393	0.118	0.069
-124.239	-200.000	0.032	0.231
-123.224	117.179	0.213	0.340
-122.210	64.975	0.140	0.183
-121.195	280.482	0.079	0.184
-120.180	-35.661	-0.124	0.087
