DTS Sentinel unit serial number:	SN409020Multiplexer serial number:	ORYXHardware model number:	OX4-SRSoftware version number:	ORYX F/W v3.00 Oryx Data Collector v3.7.2.0data status	okinstallation	HaddamTimeLapsedifferential loss correction	single-endedforward channel	channel 3reverse channel	N/Adate	2011/06/21time	22:26:17forward acquisition time	30.00reverse acquisition time	0.00gamma	498.7831k internal	0.1757k external	0.1757temperature offset calibration	1.0074default loss term (dB/km)	0.3790temperature slope calibration	1.3530multiplexer offset coefficient	1.0000multiplexer slope coefficient	1.0000fibre end	0.00T internal ref (°C)	24.22T ext. ref 1 (°C)	18.78T ext. ref 2 (°C)	0.04length (m)	temperature (°C)	Stokes	anti-Stokes-747.200	315.885	-0.148	-0.372
-746.185	-200.000	0.014	0.319
-745.171	187.218	-0.049	-0.098
-744.156	-18.419	0.097	0.080
-743.142	-200.000	-0.058	0.402
-742.127	-17.176	0.314	0.262
-741.112	-51.599	-0.266	-0.164
-740.098	-156.069	0.198	-0.016
-739.083	800.000	-0.031	-0.149
-738.069	432.241	0.089	0.258
-737.054	437.351	-0.087	-0.252
-736.039	800.000	-0.074	0.402
-735.025	-59.610	-0.108	-0.061
-734.010	-96.865	0.516	-0.178
-732.996	3.070	-0.117	-0.112
-731.981	105.720	-0.091	-0.143
-730.966	800.000	0.126	0.517
-729.952	800.000	-0.016	-0.066
-728.937	554.083	-0.085	-0.273
-727.923	-2.717	-0.159	-0.147
-726.908	-10.139	-0.135	0.119
-725.894	-200.000	-0.011	-0.222
-724.879	800.000	0.031	-0.119
-723.864	-103.282	-0.593	-0.184
-722.850	8.685	-0.312	-0.311
-721.835	-11.472	0.270	-0.235
-720.821	-96.706	0.144	0.050
-719.806	-140.431	-0.352	-0.048
-718.791	-89.353	-0.570	0.221
-717.777	800.000	-0.054	-0.215
-716.762	-72.642	-0.321	-0.156
-715.748	-143.527	-0.275	-0.034
-714.733	-200.000	-0.057	0.453
-713.718	-200.000	-0.016	-0.318
-712.704	106.654	-0.245	0.386
-711.689	4.563	-0.190	-0.185
-710.675	210.725	0.167	-0.349
-709.660	-73.274	-0.498	0.240
-708.645	-3.939	0.123	-0.113
-707.631	-200.000	-0.084	-0.547
-706.616	-148.811	0.112	0.012
-705.602	-94.281	-0.195	-0.070
-704.587	800.000	0.045	0.258
-703.572	-43.595	0.137	-0.091
-702.558	68.477	0.077	0.105
-701.543	107.000	-0.144	0.227
-700.529	-200.000	-0.116	0.678
-699.514	90.012	0.150	0.222
-698.499	-66.864	-0.071	0.037
-697.485	-72.750	0.104	-0.050
-696.470	800.000	-0.064	0.328
-695.456	800.000	-0.043	0.247
-694.441	220.134	-0.226	-0.481
-693.426	-66.596	-0.184	0.096
-692.412	-200.000	0.049	0.401
-691.397	-52.742	0.228	-0.139
-690.383	2.172	0.088	-0.084
-689.368	10.399	0.255	-0.257
-688.354	-141.839	0.392	-0.051
-687.339	-8.549	0.528	0.468
-686.324	-85.256	0.177	0.073
-685.310	-200.000	0.005	0.269
-684.295	-200.000	0.008	-0.292
-683.281	-49.949	0.319	-0.200
-682.266	-92.683	0.167	-0.061
-681.251	-200.000	-0.017	-0.325
-680.237	58.918	0.147	-0.191
-679.222	-107.467	0.401	-0.115
-678.208	-38.870	0.269	0.186
-677.193	-131.921	0.166	0.028
-676.178	-133.612	0.297	0.049
-675.164	44.055	0.233	-0.282
-674.149	-82.426	-0.254	0.108
-673.135	-41.408	-0.175	-0.119
-672.120	-27.198	-0.165	0.127
-671.105	800.000	0.089	0.450
-670.091	127.392	-0.067	-0.113
-669.076	141.644	-0.230	-0.403
-668.062	-142.937	0.552	-0.070
-667.047	49.571	-0.070	-0.088
-666.032	-5.886	-0.425	0.383
-665.018	657.024	0.042	0.145
-664.003	39.438	-0.204	-0.241
-662.989	21.414	0.163	0.175
-661.974	66.704	-0.147	0.198
-660.959	-90.132	0.497	-0.190
-659.945	303.231	-0.064	0.157
-658.930	-87.917	-0.265	-0.105
-657.916	-38.567	0.119	0.083
-656.901	-30.788	0.277	0.206
-655.886	-43.571	0.169	-0.112
-654.872	800.000	0.040	-0.175
-653.857	305.108	-0.157	0.386
-652.843	-200.000	0.011	0.563
-651.828	85.943	0.104	-0.151
-650.814	-16.434	-0.198	0.166
-649.799	-120.546	-0.399	0.089
-648.784	101.931	-0.190	-0.293
-647.770	-200.000	-0.005	0.088
-646.755	163.669	0.151	-0.280
-645.741	-200.000	0.006	-0.257
-644.726	-26.758	0.323	-0.249
-643.711	-67.802	0.353	-0.181
-642.697	-177.455	-0.603	-0.019
-641.682	-112.817	-0.381	0.099
-640.668	-72.023	-0.143	0.070
-639.653	-200.000	-0.018	-0.173
-638.638	-93.973	0.238	0.086
-637.624	-127.943	0.268	0.050
-636.609	14.705	0.065	0.067
-635.595	3.309	0.340	0.326
-634.580	-82.143	0.215	-0.092
-633.565	15.005	0.157	0.162
-632.551	-72.836	-0.076	0.037
-631.536	144.556	0.061	-0.108
-630.522	-99.614	0.766	-0.252
-629.507	-177.180	0.363	-0.012
-628.492	800.000	0.046	-0.244
-627.478	239.756	-0.153	-0.337
-626.463	-161.266	-0.462	-0.031
-625.449	26.909	0.183	-0.202
-624.434	-11.467	-0.466	-0.404
-623.419	-200.000	0.022	-0.375
-622.405	-137.319	-0.144	0.021
-621.390	93.595	-0.187	-0.280
-620.376	-114.873	0.151	0.038
-619.361	-200.000	0.020	-0.277
-618.346	-151.876	-0.240	0.023
-617.332	212.904	0.152	-0.317
-616.317	316.455	0.092	0.230
-615.303	-131.463	0.340	-0.059
-614.288	385.950	-0.097	-0.265
-613.273	-200.000	-0.108	-0.925
-612.259	800.000	-0.145	-0.579
-611.244	418.243	-0.184	-0.520
-610.230	106.370	0.119	-0.186
-609.215	28.250	-0.049	0.055
-608.201	800.000	-0.025	0.125
-607.186	302.447	0.210	-0.513
-606.171	800.000	0.048	0.181
-605.157	-200.000	-0.028	-0.275
-604.142	1.684	0.197	-0.187
-603.128	265.513	0.109	0.251
-602.113	800.000	-0.077	0.392
-601.098	-157.424	-0.139	-0.011
-600.084	452.392	0.057	0.167
-599.069	-69.625	0.699	0.350
-598.055	800.000	-0.018	-0.096
-597.040	-104.248	-0.183	0.056
-596.025	800.000	-0.085	0.467
-595.011	53.028	0.279	-0.352
-593.996	-119.579	-0.357	-0.081
-592.982	476.683	0.155	0.463
-591.967	-129.546	0.575	0.104
-590.952	59.427	0.061	-0.079
-589.938	-100.928	0.235	0.075
-588.923	-200.000	-0.031	0.206
-587.909	-51.492	-0.393	-0.241
-586.894	20.327	0.271	-0.288
-585.879	-115.439	0.282	0.069
-584.865	-93.452	-0.327	0.118
-583.850	36.899	-0.274	0.319
-582.836	92.649	-0.346	0.515
-581.821	276.842	0.077	-0.181
-580.806	-52.050	-0.250	-0.152
-579.792	222.344	-0.095	-0.202
-578.777	-89.404	-0.106	-0.041
-577.763	208.950	0.124	-0.256
-576.748	-138.656	0.224	-0.032
-575.733	800.000	0.075	0.386
-574.719	-200.000	0.016	0.283
-573.704	-119.809	0.101	-0.023
-572.690	800.000	-0.077	0.396
-571.675	-200.000	-0.017	0.338
-570.661	156.103	0.330	0.600
-569.646	-38.103	-0.452	-0.315
-568.631	145.846	-0.100	-0.177
-567.617	235.057	0.014	0.030
-566.602	-81.966	0.364	0.156
-565.588	-71.003	0.527	0.260
-564.573	-131.995	0.169	0.029
-563.558	-72.517	0.474	-0.229
-562.544	-103.097	0.410	-0.127
-561.529	-21.117	0.095	0.076
-560.515	-111.419	0.487	0.130
-559.500	-18.833	-0.310	0.253
-558.485	-49.316	0.360	0.225
-557.471	-97.489	0.733	-0.249
-556.456	29.534	0.182	0.204
-555.442	-31.899	0.561	0.412
-554.427	-108.468	0.248	-0.070
-553.412	-12.972	0.279	0.238
-552.398	-42.364	-0.196	0.131
-551.383	-98.109	-0.193	-0.065
-550.369	-54.146	-0.343	-0.204
-549.354	29.931	0.184	0.206
-548.339	-3.426	0.576	-0.526
-547.325	41.993	-0.166	-0.198
-546.310	-130.998	0.245	-0.042
-545.296	201.171	0.038	-0.078
-544.281	324.976	0.168	-0.424
-543.266	-124.407	0.423	-0.086
-542.252	-149.668	0.380	0.039
-541.237	286.647	-0.188	-0.447
-540.223	73.694	0.291	-0.401
-539.208	596.802	0.037	0.120
-538.193	308.789	-0.155	-0.383
-537.179	88.950	0.054	-0.080
-536.164	140.308	-0.108	0.188
-535.150	291.269	0.142	0.341
-534.135	-153.080	-0.118	-0.011
-533.121	-61.918	-0.236	0.129
-532.106	-127.296	-0.389	-0.074
-531.091	800.000	-0.041	0.195
-530.077	357.207	0.133	0.349
-529.062	-100.750	-0.231	0.074
-528.048	-2.561	-0.395	0.362
-527.033	126.231	-0.079	0.132
-526.018	-99.187	0.357	-0.118
-525.004	672.090	0.141	0.482
-523.989	-134.196	-0.162	-0.026
-522.975	-142.568	0.289	-0.037
-521.960	-200.000	-0.056	-0.364
-520.945	-20.328	0.296	0.239
-519.931	17.211	0.139	0.144
-518.916	48.247	0.101	0.124
-517.902	38.443	0.148	-0.173
-516.887	-188.478	-0.408	0.007
-515.872	-74.353	-0.267	0.126
-514.858	20.440	0.291	0.308
-513.843	-169.882	-0.398	-0.018
-512.829	-38.856	-0.243	-0.167
-511.814	800.000	-0.076	0.393
-510.799	-126.489	-0.359	-0.069
-509.785	-162.849	0.214	-0.014
-508.770	-200.000	0.617	-0.002
-507.756	433.141	-0.064	-0.184
-506.741	588.546	-0.020	-0.066
-505.726	-49.391	0.272	-0.170
-504.712	80.105	-0.106	-0.150
-503.697	-150.459	-0.460	-0.046
-502.683	-117.714	-0.279	0.065
-501.668	102.337	0.150	0.230
-500.653	-173.793	0.476	0.018
-499.639	-181.904	-0.410	-0.010
-498.624	-8.177	-0.366	-0.323
-497.610	-200.000	0.237	-0.001
-496.595	-24.744	0.252	-0.196
-495.581	80.566	-0.108	-0.153
-494.566	-46.070	-0.259	-0.167
-493.551	-87.057	-0.196	0.078
-492.537	98.906	-0.178	0.269
-491.522	6.709	-0.147	0.143
-490.508	-94.232	0.558	-0.199
-489.493	77.555	0.338	0.472
-488.478	234.244	0.165	0.358
-487.464	86.286	0.284	-0.411
-486.449	-141.063	0.466	-0.062
-485.435	-55.350	-0.094	0.055
-484.420	-128.073	-0.283	-0.053
-483.405	-118.432	0.460	0.106
-482.391	-186.760	0.171	0.003
-481.376	-2.231	-0.220	0.202
-480.362	-200.000	0.015	0.166
-479.347	243.589	0.070	0.154
-478.332	8.509	0.024	0.024
-477.318	350.568	-0.201	-0.524
-476.303	106.648	0.155	0.242
-475.289	-124.609	0.096	-0.019
-474.274	-31.652	-0.099	0.073
-473.259	-184.431	-0.149	-0.003
-472.245	-200.000	-0.058	-0.381
-471.230	90.909	-0.248	-0.364
-470.216	278.666	0.139	-0.326
-469.201	-28.259	0.195	0.148
-468.186	800.000	0.072	0.305
-467.172	-119.101	0.398	0.090
-466.157	-20.570	-0.087	0.070
-465.143	-144.934	0.100	0.012
-464.128	-4.438	0.328	-0.297
-463.113	-21.137	-0.298	0.238
-462.099	210.429	-0.261	-0.539
-461.084	145.716	0.133	-0.233
-460.070	505.280	-0.156	0.474
-459.055	210.580	-0.031	-0.065
-458.040	-32.105	-0.201	-0.147
-457.026	154.336	-0.019	-0.034
-456.011	-79.805	-0.411	0.180
-454.997	-52.644	0.478	0.288
-453.982	794.217	0.076	0.275
-452.968	358.665	-0.216	0.569
-451.953	21.671	0.277	0.295
-450.938	-76.894	0.325	0.148
-449.924	-154.787	-0.190	0.016
-448.909	114.100	0.059	0.094
-447.895	-44.450	0.354	-0.231
-446.880	-69.975	0.526	-0.261
-445.865	800.000	0.034	-0.186
-444.851	800.000	0.064	0.241
-443.836	800.000	-0.076	-0.384
-442.822	333.013	0.123	-0.313
-441.807	-95.525	0.154	0.054
-440.792	-35.400	0.038	0.027
-439.778	-200.000	-0.012	-0.191
-438.763	35.697	-0.303	0.348
-437.749	0.319	0.203	-0.190
-436.734	-200.000	-0.238	-0.001
-435.719	800.000	-0.037	-0.144
-434.705	-61.741	-0.145	0.079
-433.690	-48.018	-0.129	-0.081
-432.676	-200.000	-0.026	0.350
-431.661	27.360	0.421	0.463
-430.646	-151.425	-0.072	-0.007
-429.632	-12.229	-0.229	0.196
-428.617	-113.349	-0.173	0.044
-427.603	-79.391	0.269	0.118
-426.588	534.633	-0.100	-0.311
-425.573	-64.333	0.296	-0.157
-424.559	800.000	-0.106	-0.600
-423.544	169.527	0.164	0.307
-422.530	421.565	0.097	0.272
-421.515	800.000	-0.070	-0.297
-420.500	225.391	-0.248	-0.526
-419.486	9.169	0.331	-0.327
-418.471	-200.000	0.020	-0.506
-417.457	153.929	-0.051	0.091
-416.442	-158.207	-0.505	0.038
-415.428	-117.564	0.294	-0.069
-414.413	-28.406	0.149	-0.112
-413.398	140.683	-0.263	0.456
-412.384	344.760	0.321	0.826
-411.369	100.205	-0.063	-0.095
-410.355	-63.386	-0.387	-0.207
-409.340	-120.740	-0.436	0.095
-408.325	-135.145	-0.555	0.086
-407.311	-50.351	-0.241	-0.148
-406.296	140.107	-0.222	-0.384
-405.282	-200.000	-0.028	0.408
-404.267	-51.326	0.127	0.077
-403.252	-98.955	0.822	0.271
-402.238	6.674	0.289	0.281
-401.223	-89.472	-0.012	0.005
-400.209	-44.002	0.074	0.049
-399.194	31.867	0.060	0.068
-398.179	-109.915	-0.161	0.044
-397.165	-33.725	0.322	-0.232
-396.150	800.000	0.049	-0.269
-395.136	133.335	0.221	0.374
-394.121	-33.610	-0.154	0.111
-393.106	281.674	0.036	-0.084
-392.092	-16.309	0.047	0.039
-391.077	269.467	0.029	-0.067
-390.063	-141.739	0.324	0.042
-389.048	-179.944	0.315	-0.009
-388.033	675.445	-0.032	-0.108
-387.019	-200.000	-0.060	0.442
-386.004	34.530	0.106	-0.121
-384.990	300.780	-0.057	0.137
-383.975	33.111	0.199	-0.225
-382.960	-120.330	-0.499	-0.110
-381.946	-24.405	0.366	-0.284
-380.931	-120.991	-0.472	0.103
-379.917	140.211	0.319	-0.551
-378.902	800.000	0.025	-0.142
-377.888	-78.089	-0.266	0.119
-376.873	-3.750	-0.281	-0.254
-375.858	-200.000	0.010	0.138
-374.844	-73.796	0.112	0.053
-373.829	34.410	0.387	0.441
-372.815	-13.363	-0.410	0.346
-371.800	221.964	0.110	0.233
-370.785	-55.195	0.382	0.223
-369.771	-125.904	-0.337	0.066
-368.756	-55.288	-0.203	-0.118
-367.742	248.478	-0.072	0.159
-366.727	-190.764	0.478	-0.006
-365.712	206.506	0.242	-0.494
-364.698	536.800	-0.038	0.118
-363.683	-125.602	-0.160	0.031
-362.669	-51.621	0.223	-0.135
-361.654	79.184	0.043	0.060
-360.639	151.742	-0.093	0.166
-359.625	352.407	0.082	0.213
-358.610	-87.449	0.189	0.074
-357.596	-200.000	0.010	0.070
-356.581	54.696	0.221	0.278
-355.566	-200.000	-0.004	0.341
-354.552	-35.814	0.327	0.230
-353.537	188.036	-0.243	-0.475
-352.523	-200.000	0.005	-0.276
-351.508	800.000	0.030	0.163
-350.493	141.750	0.190	-0.329
-349.479	800.000	0.064	-0.334
-348.464	-2.634	0.191	-0.174
-347.450	91.091	0.163	0.239
-346.435	218.269	0.129	-0.269
-345.420	773.355	0.056	-0.201
-344.406	-71.848	-0.427	0.206
-343.391	-117.958	-0.291	-0.067
-342.377	10.214	-0.240	0.238
-341.362	-124.558	-0.208	-0.042
-340.348	-200.000	0.024	0.190
-339.333	-46.626	0.187	0.119
-338.318	-112.340	-0.228	-0.059
-337.304	50.789	-0.263	0.324
-336.289	755.541	-0.106	0.376
-335.275	-122.402	-0.520	0.110
-334.260	-126.081	-0.659	-0.128
-333.245	-102.618	0.338	-0.104
-332.231	-161.960	0.233	0.015
-331.216	112.868	0.309	-0.488
-330.202	800.000	-0.055	0.304
-329.187	21.022	0.171	-0.180
-328.172	42.813	-0.388	0.461
-327.158	220.514	0.101	0.212
-326.143	-106.853	0.164	0.047
-325.129	-103.834	-0.252	0.076
-324.114	-200.000	0.005	0.270
-323.099	-165.455	0.511	0.029
-322.085	217.029	-0.229	-0.477
-321.070	64.159	-0.109	-0.143
-320.056	800.000	-0.062	0.225
-319.041	124.561	0.135	-0.221
-318.026	-71.459	-0.524	-0.254
-317.012	-69.285	0.164	-0.082
-315.997	522.334	0.061	0.187
-314.983	240.325	0.167	0.364
-313.968	127.758	-0.045	-0.075
-312.953	-95.415	-0.278	0.097
-311.939	-1.385	-0.039	0.036
-310.924	-178.500	-0.384	-0.011
-309.910	85.161	-0.143	0.205
-308.895	-10.199	-0.484	-0.418
-307.880	352.794	-0.096	-0.248
-306.866	-200.000	-0.007	0.206
-305.851	-200.000	-0.041	0.289
-304.837	136.718	-0.016	0.027
-303.822	-79.746	0.192	-0.084
-302.807	423.413	0.046	0.128
-301.793	800.000	0.058	0.258
-300.778	290.182	0.065	0.154
-299.764	34.606	-0.280	-0.318
-298.749	144.278	-0.055	0.095
-297.735	-173.267	0.071	0.003
-296.720	-200.000	0.079	0.623
-295.705	-145.385	0.664	-0.077
-294.691	24.095	0.491	-0.527
-293.676	-200.000	0.002	-0.161
-292.662	800.000	-0.013	-0.055
-291.647	-34.666	-0.283	-0.201
-290.632	-43.156	-0.498	-0.327
-289.618	-14.097	0.094	-0.079
-288.603	143.386	0.028	0.049
-287.589	-200.000	-0.038	-0.353
-286.574	-178.282	-0.567	-0.017
-285.559	94.131	-0.258	-0.381
-284.545	-79.948	0.485	0.211
-283.530	-155.127	0.212	-0.018
-282.516	254.512	-0.121	-0.270
-281.501	47.377	-0.196	-0.237
-280.486	-94.363	-0.448	-0.158
-279.472	-36.488	-0.253	0.177
-278.457	-47.976	-0.155	-0.097
-277.443	-85.993	0.277	-0.111
-276.428	-200.000	0.021	0.285
-275.413	-125.777	-0.442	-0.086
-274.399	-40.762	0.110	-0.074
-273.384	-46.856	0.131	0.083
-272.370	31.658	0.113	0.127
-271.355	114.264	-0.120	-0.190
-270.340	314.841	0.114	-0.281
-269.326	-200.000	0.006	0.152
-268.311	-26.107	-0.116	-0.089
-267.297	800.000	-0.057	-0.258
-266.282	37.465	-0.255	-0.294
-265.267	-107.283	0.162	0.046
-264.253	54.677	-0.129	-0.161
-263.238	-93.313	-0.303	0.108
-262.224	525.385	-0.105	-0.323
-261.209	-184.418	0.390	-0.008
-260.195	461.288	-0.210	0.613
-259.180	-98.760	-0.335	0.110
-258.165	-8.487	0.335	0.292
-257.151	800.000	-0.037	-0.194
-256.136	-171.118	-0.739	-0.032
-255.122	-69.348	-0.482	-0.240
-254.107	-200.000	0.087	0.615
-253.092	-99.869	0.349	0.113
-252.078	-159.228	-0.311	0.022
-251.063	215.877	-0.262	-0.542
-250.049	-125.398	0.083	-0.016
-249.034	258.350	0.136	0.305
-248.019	389.522	0.086	0.232
-247.005	-200.000	-0.027	0.324
-245.990	-126.125	-0.455	-0.088
-244.976	123.678	0.084	0.137
-243.961	388.160	-0.081	-0.218
-242.946	-129.714	-0.196	-0.035
-241.932	104.827	-0.348	0.534
-240.917	180.446	0.029	0.056
-239.903	572.901	-0.072	0.230
-238.888	509.976	-0.179	0.542
-237.873	-200.000	-0.014	0.215
-236.859	-103.223	-0.405	-0.123
-235.844	56.767	-0.294	0.372
-234.830	59.651	-0.157	-0.202
-233.815	-33.218	-0.158	-0.113
-232.800	-146.419	-0.513	0.057
-231.786	-100.861	0.270	-0.085
-230.771	98.393	-0.200	-0.300
-229.757	-137.827	-0.263	0.038
-228.742	-140.964	0.349	-0.046
-227.727	-200.000	0.015	-0.182
-226.713	41.157	0.342	0.401
-225.698	352.541	-0.084	-0.218
-224.684	-53.853	-0.109	0.064
-223.669	-200.000	-0.003	0.195
-222.655	57.595	0.343	0.435
-221.640	800.000	0.083	0.312
-220.625	-51.713	-0.181	-0.109
-219.611	-9.337	-0.899	0.778
-218.596	800.000	-0.055	0.278
-217.582	-21.870	-0.499	0.393
-216.567	-79.064	-0.400	-0.175
-215.552	141.431	-0.221	-0.381
-214.538	6.944	0.068	0.066
-213.523	-22.325	-0.208	0.163
-212.509	-189.973	0.084	-0.001
-211.494	23.924	0.294	-0.315
-210.479	219.170	0.130	-0.271
-209.465	-200.000	-0.037	-0.399
-208.450	-27.862	-0.254	-0.191
-207.436	-24.713	-0.274	-0.211
-206.421	-41.712	0.158	-0.105
-205.406	12.393	0.073	-0.072
-204.392	-168.476	-0.109	-0.005
-203.377	-70.628	0.059	-0.029
-202.363	-53.229	-0.457	-0.271
-201.348	-19.888	0.334	-0.267
-200.333	800.000	0.087	0.313
-199.319	350.689	-0.073	0.189
-198.304	39.212	0.192	-0.223
-197.290	-200.000	0.054	-0.533
-196.275	80.379	-0.074	0.103
-195.260	50.009	0.503	0.615
-194.246	-96.856	0.102	-0.034
-193.231	-68.278	0.201	0.101
-192.217	-56.020	0.337	-0.194
-191.202	-200.000	-0.026	0.549
-190.187	19.646	-0.211	-0.219
-189.173	-118.688	-0.333	0.075
-188.158	800.000	-0.073	-0.359
-187.144	-75.921	-0.202	-0.092
-186.129	-50.235	-0.234	-0.143
-185.114	-158.353	-0.193	0.014
-184.100	116.388	0.174	-0.277
-183.085	800.000	-0.078	0.300
-182.071	800.000	-0.086	0.428
-181.056	282.652	-0.053	-0.124
-180.042	-157.840	-0.223	-0.017
-179.027	-200.000	0.042	-0.282
-178.012	-26.980	-0.140	0.106
-176.998	15.249	0.322	-0.327
-175.983	111.871	-0.203	-0.317
-174.969	-59.028	-0.213	0.119
-173.954	225.414	-0.052	-0.110
-172.939	-42.185	-0.388	0.256
-171.925	132.806	0.049	0.081
-170.910	78.424	0.142	-0.196
-169.896	-107.477	-0.093	0.026
-168.881	-93.145	-0.054	0.019
-167.866	-21.963	-0.172	-0.135
-166.852	-151.362	0.220	0.021
-165.837	205.261	0.050	0.101
-164.823	-155.440	-0.183	-0.015
-163.808	196.764	0.108	0.214
-162.793	-67.530	0.615	0.311
-161.779	470.254	-0.198	-0.578
-160.764	-136.332	0.137	-0.020
-159.750	183.975	0.027	0.052
-158.735	-200.000	0.012	0.166
-157.720	-97.370	-0.401	-0.134
-156.706	481.085	-0.151	0.446
-155.691	-22.805	0.503	0.392
-154.677	-67.595	0.216	-0.109
-153.662	-120.362	-0.367	-0.080
-152.647	-68.410	0.161	-0.080
-151.633	-103.214	0.276	-0.084
-150.618	-151.723	0.219	-0.021
-149.604	248.786	0.115	0.252
-148.589	-115.621	0.314	-0.076
-147.574	800.000	-0.113	0.485
-146.560	-200.000	-0.028	-0.184
-145.545	123.953	-0.204	-0.333
-144.531	800.000	-0.073	-0.291
-143.516	-66.633	-0.266	-0.136
-142.502	-43.805	0.261	-0.169
-141.487	444.639	0.163	0.464
-140.472	374.299	0.011	0.029
-139.458	-144.421	0.080	-0.009
-138.443	800.000	0.104	-0.575
-137.429	616.573	-0.064	0.210
-136.414	800.000	-0.068	-0.345
-135.399	89.675	0.157	0.227
-134.385	-84.941	0.302	0.122
-133.370	-200.000	-0.010	-0.263
-132.356	-73.516	-0.357	-0.168
-131.341	-188.960	0.515	0.008
-130.326	49.213	0.432	-0.526
-129.312	35.528	0.384	0.436
-128.297	191.177	0.105	0.204
-127.283	647.539	-0.092	-0.307
-126.268	-61.718	0.138	-0.074
-125.253	-3.740	-0.446	0.400
-124.239	-169.815	0.184	0.008
-123.224	5.551	0.187	-0.179
-122.210	-133.134	-0.440	-0.071
-121.195	800.000	0.081	-0.296
