DTS Sentinel unit serial number:	SN409020Multiplexer serial number:	ORYXHardware model number:	OX4-SRSoftware version number:	ORYX F/W v3.00 Oryx Data Collector v3.7.2.0data status	okinstallation	HaddamTimeLapsedifferential loss correction	single-endedforward channel	channel 3reverse channel	N/Adate	2011/06/21time	20:31:17forward acquisition time	30.00reverse acquisition time	0.00gamma	498.7831k internal	0.1776k external	0.1776temperature offset calibration	1.0074default loss term (dB/km)	0.3790temperature slope calibration	1.3530multiplexer offset coefficient	1.0000multiplexer slope coefficient	1.0000fibre end	0.00T internal ref (°C)	29.94T ext. ref 1 (°C)	22.13T ext. ref 2 (°C)	0.03length (m)	temperature (°C)	Stokes	anti-Stokes-747.200	-200.000	-0.019	0.177
-746.185	269.275	-0.101	0.234
-745.171	-79.940	0.252	0.110
-744.156	-200.000	0.030	0.219
-743.142	-150.742	0.727	-0.072
-742.127	-64.274	-0.407	0.216
-741.112	800.000	0.096	0.391
-740.098	-200.000	-0.034	0.334
-739.083	175.589	0.186	-0.354
-738.069	34.457	0.153	0.175
-737.054	-116.687	-0.361	-0.086
-736.039	16.008	-0.114	-0.118
-735.025	-50.825	0.455	-0.279
-734.010	800.000	0.089	0.371
-732.996	307.757	-0.093	0.228
-731.981	-200.000	-0.007	-0.058
-730.966	569.504	-0.087	0.278
-729.952	-114.367	-0.261	0.065
-728.937	-93.910	-0.362	0.130
-727.923	-200.000	-0.020	-0.229
-726.908	344.475	-0.169	-0.435
-725.894	-106.151	-0.478	0.140
-724.879	758.159	-0.090	-0.321
-723.864	-101.592	-0.537	-0.170
-722.850	-114.923	-0.305	0.075
-721.835	-140.746	-0.276	-0.037
-720.821	-95.013	-0.246	-0.087
-719.806	-93.323	-0.606	-0.219
-718.791	-155.865	-0.104	0.009
-717.777	25.360	-0.121	-0.132
-716.762	-200.000	-0.006	-0.148
-715.748	-200.000	-0.013	0.154
-714.733	106.133	0.012	0.019
-713.718	121.484	-0.223	0.364
-712.704	692.524	-0.021	-0.074
-711.689	-64.870	-0.031	-0.016
-710.675	-128.327	-0.678	-0.125
-709.660	-14.940	0.218	-0.182
-708.645	-200.000	0.052	-0.320
-707.631	40.398	0.242	-0.285
-706.616	-42.307	-0.248	0.165
-705.602	-110.324	-0.377	-0.102
-704.587	-68.057	-0.296	-0.150
-703.572	-170.452	-0.624	0.028
-702.558	-99.924	0.192	-0.062
-701.543	-141.357	-0.208	-0.027
-700.529	72.411	0.256	-0.350
-699.514	-133.619	-0.302	0.049
-698.499	-114.291	-0.551	0.138
-697.485	-200.000	0.571	0.002
-696.470	0.163	0.316	0.294
-695.456	109.121	-0.103	0.161
-694.441	-200.000	0.000	0.264
-693.426	76.698	0.106	-0.147
-692.412	106.963	-0.159	-0.248
-691.397	-99.164	0.401	0.132
-690.383	-127.761	-0.309	0.058
-689.368	38.620	0.177	0.206
-688.354	-67.428	0.237	0.121
-687.339	76.602	0.118	0.164
-686.324	-200.000	0.023	0.313
-685.310	-145.560	-0.145	-0.017
-684.295	-116.646	-0.395	-0.094
-683.281	337.080	-0.130	0.331
-682.266	-69.874	-0.301	-0.149
-681.251	-153.813	-0.248	-0.022
-680.237	271.386	0.282	0.651
-679.222	-29.179	0.140	0.105
-678.208	-23.870	-0.418	-0.326
-677.193	-141.197	0.287	-0.038
-676.178	-113.703	-0.194	-0.049
-675.164	-118.547	0.439	0.101
-674.149	79.118	-0.133	-0.187
-673.135	374.852	-0.244	-0.654
-672.120	80.541	0.219	-0.308
-671.105	-73.950	-0.426	-0.201
-670.091	315.464	-0.149	-0.369
-669.076	-68.799	0.345	0.174
-668.062	68.360	-0.124	0.166
-667.047	-132.438	-0.253	-0.042
-666.032	-90.435	-0.470	0.177
-665.018	800.000	0.058	-0.333
-664.003	88.260	-0.091	-0.132
-662.989	-200.000	-0.032	0.671
-661.974	163.731	-0.174	0.320
-660.959	31.550	-0.159	-0.179
-659.945	240.446	-0.243	-0.531
-658.930	800.000	-0.134	-0.579
-657.916	105.943	0.141	-0.219
-656.901	-40.974	0.107	-0.072
-655.886	485.465	-0.112	-0.335
-654.872	3.771	-0.226	-0.215
-653.857	159.157	-0.255	-0.464
-652.843	-28.332	-0.159	-0.120
-651.828	-1.923	-0.362	0.332
-650.814	-113.644	-0.235	0.059
-649.799	-134.914	-0.410	-0.064
-648.784	-92.706	-0.455	0.165
-647.770	-111.287	-0.252	-0.067
-646.755	48.078	0.408	-0.498
-645.741	800.000	-0.081	0.308
-644.726	-39.205	-0.260	0.178
-643.711	-23.442	-0.310	0.242
-642.697	47.701	-0.193	0.235
-641.682	263.470	0.306	-0.697
-640.668	-69.176	-0.232	-0.116
-639.653	-67.948	-0.311	-0.157
-638.638	-185.487	0.111	0.002
-637.624	-3.537	-0.386	-0.349
-636.609	26.959	-0.134	-0.147
-635.595	280.703	0.114	-0.266
-634.580	296.729	0.109	0.261
-633.565	762.454	0.052	-0.187
-632.551	-200.000	-0.033	0.431
-631.536	-81.455	-0.255	-0.109
-630.522	297.311	0.139	0.334
-629.507	-200.000	0.029	-0.296
-628.492	154.499	-0.128	-0.229
-627.478	-92.772	-0.369	0.134
-626.463	356.140	0.120	-0.314
-625.449	531.007	-0.073	0.227
-624.434	-41.497	0.302	0.202
-623.419	-136.571	0.302	0.045
-622.405	-41.807	0.288	-0.192
-621.390	41.780	0.031	-0.036
-620.376	-133.163	-0.533	0.087
-619.361	-200.000	-0.044	-0.318
-618.346	-61.746	0.485	-0.264
-617.332	-69.007	-0.248	0.124
-616.317	-105.526	0.740	0.217
-615.303	-78.861	0.200	0.088
-614.288	800.000	-0.072	0.380
-613.273	730.188	-0.056	-0.195
-612.259	-66.004	-0.411	0.213
-611.244	-98.423	-0.279	0.092
-610.230	24.771	0.298	-0.321
-609.215	-200.000	0.041	-0.424
-608.201	-29.405	-0.086	-0.064
-607.186	-12.263	0.061	0.052
-606.171	-79.855	0.251	0.110
-605.157	23.406	-0.191	0.205
-604.142	-98.999	-0.314	-0.103
-603.128	-98.219	-0.200	-0.067
-602.113	246.366	-0.156	-0.344
-601.098	-4.480	-0.308	-0.277
-600.084	506.791	-0.021	-0.064
-599.069	-136.329	0.478	-0.072
-598.055	616.624	0.027	0.088
-597.040	-145.537	0.350	-0.040
-596.025	-46.079	0.250	0.160
-595.011	-51.437	-0.223	-0.135
-593.996	-200.000	-0.019	0.151
-592.982	800.000	-0.019	0.102
-591.967	-135.446	-0.128	-0.020
-590.952	-100.905	-0.111	0.035
-589.938	3.580	-0.116	0.110
-588.923	-22.033	-0.673	-0.531
-587.909	-200.000	-0.076	-0.453
-586.894	-200.000	0.016	0.099
-585.879	-120.578	-0.135	-0.029
-584.865	746.486	-0.180	0.634
-583.850	62.577	-0.237	-0.309
-582.836	-200.000	0.042	-0.472
-581.821	23.308	-0.171	0.183
-580.806	430.230	0.194	-0.550
-579.792	-38.418	0.273	0.187
-578.777	-200.000	-0.043	0.341
-577.763	-200.000	-0.026	0.208
-576.748	-200.000	0.006	0.164
-575.733	203.230	-0.141	0.284
-574.719	10.727	-0.268	0.266
-573.704	-77.012	-0.214	-0.097
-572.690	-48.360	0.192	0.120
-571.675	-38.985	0.211	0.144
-570.661	356.991	-0.144	-0.374
-569.646	-87.391	0.134	-0.052
-568.631	109.573	-0.120	-0.187
-567.617	-157.685	-0.474	0.036
-566.602	-36.271	0.041	0.029
-565.588	-11.867	0.229	-0.195
-564.573	-200.000	-0.034	-0.422
-563.558	270.603	0.029	-0.067
-562.544	-109.040	0.168	-0.046
-561.529	-110.908	0.071	-0.019
-560.515	77.462	-0.112	0.155
-559.500	-200.000	0.007	0.216
-558.485	800.000	0.046	0.187
-557.471	-131.578	-0.150	0.025
-556.456	7.557	0.118	-0.115
-555.442	-107.765	-0.387	-0.109
-554.427	-140.925	0.160	-0.021
-553.412	-200.000	-0.013	-0.312
-552.398	44.468	-0.496	-0.592
-551.383	12.344	-0.371	-0.371
-550.369	665.620	0.068	0.229
-549.354	-134.147	-0.193	0.031
-548.339	327.531	-0.142	-0.356
-547.325	-75.402	-0.328	0.151
-546.310	29.316	-0.102	-0.113
-545.296	16.622	0.485	0.499
-544.281	507.759	0.123	0.374
-543.266	800.000	-0.032	-0.139
-542.252	-113.181	-0.042	-0.011
-541.237	-200.000	-0.018	-0.203
-540.223	-105.621	-0.330	-0.097
-539.208	-59.843	0.098	-0.054
-538.193	-12.420	0.264	0.224
-537.179	-76.709	-0.161	-0.073
-536.164	557.161	-0.029	0.090
-535.150	-108.134	-0.174	0.049
-534.135	800.000	0.104	0.415
-533.121	-97.195	-0.391	-0.132
-532.106	134.997	0.099	0.167
-531.091	800.000	0.103	0.511
-530.077	-21.474	0.106	-0.084
-529.062	-200.000	-0.014	0.209
-528.048	-145.786	0.049	-0.006
-527.033	262.971	-0.101	-0.228
-526.018	-200.000	-0.073	-0.451
-525.004	-200.000	0.002	-0.153
-523.989	-200.000	-0.022	0.181
-522.975	89.155	-0.227	-0.329
-521.960	-112.952	0.370	0.094
-520.945	-125.676	0.329	0.064
-519.931	-124.948	-0.247	0.049
-518.916	-56.921	-0.500	-0.286
-517.902	-162.129	0.183	-0.012
-516.887	87.473	0.329	-0.473
-515.872	-184.125	-0.388	0.008
-514.858	-78.992	-0.187	-0.082
-513.843	180.976	0.161	-0.307
-512.829	-17.470	0.285	-0.233
-511.814	-81.585	-0.464	-0.197
-510.799	-107.128	0.250	0.071
-509.785	33.330	-0.065	-0.073
-508.770	308.673	-0.015	-0.037
-507.756	-200.000	0.023	0.183
-506.741	82.929	-0.212	0.299
-505.726	205.107	0.224	0.452
-504.712	-74.931	0.122	-0.057
-503.697	177.035	-0.191	0.361
-502.683	-58.667	-0.132	0.074
-501.668	-82.057	-0.474	0.200
-500.653	800.000	0.055	-0.317
-499.639	384.420	-0.103	0.275
-498.624	101.376	-0.130	0.197
-497.610	800.000	-0.074	-0.378
-496.595	-96.360	0.495	-0.169
-495.581	17.524	-0.163	0.168
-494.566	-200.000	0.306	-0.002
-493.551	-200.000	-0.061	0.500
-492.537	800.000	-0.067	-0.261
-491.522	800.000	-0.046	-0.181
-490.508	-126.041	-0.240	0.046
-489.493	-200.000	0.012	-0.552
-488.478	-160.093	-0.604	-0.042
-487.464	12.472	0.396	0.395
-486.449	707.301	0.040	-0.137
-485.435	-129.252	-0.259	0.046
-484.420	800.000	0.047	-0.263
-483.405	-100.771	0.171	0.054
-482.391	-104.843	0.802	-0.237
-481.376	-21.854	-0.441	0.347
-480.362	-19.297	-0.096	-0.077
-479.347	-72.886	-0.293	-0.139
-478.332	-95.975	-0.012	-0.004
-477.318	-200.000	-0.021	-0.311
-476.303	-19.463	-0.139	-0.112
-475.289	-105.572	0.121	0.035
-474.274	-172.970	0.141	-0.006
-473.259	29.262	-0.446	0.491
-472.245	800.000	0.070	0.295
-471.230	581.707	-0.071	0.226
-470.216	-200.000	0.062	0.404
-469.201	62.230	0.292	0.377
-468.186	347.865	0.251	0.644
-467.172	-13.749	-0.311	0.260
-466.157	426.729	0.229	0.642
-465.143	-164.081	-0.232	-0.014
-464.128	-200.000	-0.039	0.232
-463.113	-200.000	-0.019	-0.127
-462.099	-47.108	0.267	-0.168
-461.084	218.433	-0.170	0.353
-460.070	20.269	-0.248	0.259
-459.055	686.589	0.140	0.476
-458.040	-115.113	-0.561	-0.137
-457.026	-36.437	0.230	-0.160
-456.011	-88.760	0.279	-0.107
-454.997	129.924	-0.247	0.410
-453.982	768.722	-0.079	0.281
-452.968	800.000	0.094	0.368
-451.953	-36.531	0.184	0.128
-450.938	81.793	-0.124	-0.174
-449.924	-98.296	0.035	-0.012
-448.909	76.063	-0.241	-0.330
-447.895	38.024	0.366	-0.422
-446.880	-111.432	0.359	0.094
-445.865	-132.156	-0.399	0.066
-444.851	-19.086	0.239	-0.192
-443.836	-200.000	0.066	-0.445
-442.822	-53.272	0.399	0.236
-441.807	800.000	-0.147	-0.625
-440.792	379.793	-0.025	0.066
-439.778	379.212	0.157	-0.418
-438.763	-47.278	-0.322	0.202
-437.749	-163.273	-0.612	-0.037
-436.734	-186.714	-0.598	0.011
-435.719	-179.822	-0.590	-0.016
-434.705	-138.148	0.607	0.086
-433.690	-46.613	-0.231	0.146
-432.676	-200.000	-0.011	0.362
-431.661	-200.000	0.032	0.533
-430.646	800.000	-0.061	-0.258
-429.632	29.624	0.127	0.140
-428.617	-34.797	-0.256	0.181
-427.603	-26.217	0.211	0.160
-426.588	800.000	-0.206	0.880
-425.573	5.684	0.504	0.482
-424.559	-44.226	-0.249	-0.161
-423.544	-111.030	-0.153	0.040
-422.530	800.000	0.024	0.113
-421.515	102.433	0.125	-0.189
-420.500	-138.117	0.164	0.023
-419.486	35.778	0.048	-0.055
-418.471	-171.476	-0.164	-0.007
-417.457	-200.000	-0.020	-0.263
-416.442	-200.000	0.021	0.498
-415.428	-104.222	-0.188	-0.056
-414.413	800.000	-0.038	0.199
-413.398	-119.812	-0.293	-0.065
-412.384	59.894	0.186	0.238
-411.369	30.309	-0.129	0.143
-410.355	679.960	-0.038	-0.129
-409.340	-191.651	0.339	-0.004
-408.325	-1.851	0.253	0.230
-407.311	-140.392	-0.395	0.053
-406.296	-75.433	-0.348	0.159
-405.282	276.755	-0.080	-0.185
-404.267	24.872	0.331	-0.354
-403.252	-102.318	0.213	0.066
-402.238	-89.615	0.540	0.204
-401.223	794.747	-0.169	-0.604
-400.209	-74.723	0.441	0.204
-399.194	-181.662	-0.335	-0.008
-398.179	-118.981	-0.394	0.089
-397.165	-140.191	-0.331	0.044
-396.150	189.582	0.157	-0.305
-395.136	188.546	0.067	0.129
-394.121	-76.108	0.147	0.067
-393.106	155.228	-0.173	0.309
-392.092	734.299	0.055	-0.192
-391.077	-200.000	-0.029	0.529
-390.063	-117.873	0.385	-0.088
-389.048	-83.770	0.501	-0.206
-388.033	-132.316	0.605	0.100
-387.019	-10.813	-0.292	-0.249
-386.004	-200.000	0.022	0.378
-384.990	-50.019	-0.257	0.157
-383.975	-146.800	0.102	-0.011
-382.960	175.136	0.162	-0.304
-381.946	27.028	0.158	-0.171
-380.931	-200.000	-0.075	0.467
-379.917	-122.403	0.110	-0.023
-378.902	-200.000	0.054	-0.361
-377.888	-142.027	0.039	0.005
-376.873	-134.946	0.621	0.096
-375.858	-159.034	0.183	-0.013
-374.844	-169.006	0.424	0.020
-373.829	800.000	0.089	-0.368
-372.815	40.719	0.392	0.456
-371.800	-200.000	-0.008	-0.255
-370.785	459.015	0.118	-0.342
-369.771	-64.849	0.114	-0.059
-368.756	-61.077	-0.214	-0.116
-367.742	-136.515	0.392	-0.058
-366.727	-138.318	0.410	-0.058
-365.712	-200.000	-0.041	0.347
-364.698	77.950	-0.322	-0.444
-363.683	111.852	-0.114	0.178
-362.669	373.585	0.094	0.248
-361.654	82.154	0.089	0.125
-360.639	800.000	0.034	0.162
-359.625	-200.000	0.012	-0.343
-358.610	-119.352	0.530	-0.118
-357.596	-200.000	-0.023	0.152
-356.581	-79.066	-0.160	-0.070
-355.566	-35.963	-0.193	0.134
-354.552	305.109	0.139	0.334
-353.537	-83.035	0.387	-0.160
-352.523	-76.571	0.371	0.167
-351.508	-17.510	0.072	-0.058
-350.493	800.000	-0.131	-0.495
-349.479	11.278	-0.241	-0.238
-348.464	256.442	-0.193	-0.429
-347.450	250.863	-0.183	0.402
-346.435	-4.159	0.252	-0.224
-345.420	-140.062	-0.289	0.039
-344.406	96.308	0.084	0.124
-343.391	105.309	0.189	0.288
-342.377	489.278	-0.151	0.447
-341.362	122.736	0.068	-0.111
-340.348	122.406	0.266	0.430
-339.333	-64.770	0.116	0.060
-338.318	-138.589	-0.050	0.007
-337.304	-132.687	0.505	-0.083
-336.289	503.296	0.129	-0.387
-335.275	155.028	-0.033	0.058
-334.260	218.462	-0.087	0.180
-333.245	-120.466	0.238	-0.052
-332.231	419.443	0.125	-0.348
-331.216	81.385	-0.148	0.207
-330.202	-116.162	-0.283	-0.067
-329.187	1.753	-0.276	0.256
-328.172	-200.000	-0.023	-0.749
-327.158	146.231	-0.081	0.140
-326.143	-94.176	-0.632	-0.222
-325.129	-66.278	-0.417	-0.213
-324.114	6.123	0.190	-0.182
-323.099	-151.113	0.451	0.043
-322.085	-135.033	-0.438	0.067
-321.070	157.506	-0.041	0.073
-320.056	140.851	-0.235	0.401
-319.041	55.785	0.189	0.236
-318.026	-139.013	0.259	-0.036
-317.012	-82.779	-0.330	-0.137
-315.997	-106.681	0.310	0.088
-314.983	-54.593	0.242	-0.141
-313.968	800.000	-0.047	-0.193
-312.953	4.775	-0.141	-0.133
-311.939	800.000	0.038	0.164
-310.924	-95.804	0.340	0.116
-309.910	-200.000	-0.085	0.568
-308.895	-78.161	-0.264	0.116
-307.880	174.939	-0.275	0.515
-306.866	179.640	-0.125	-0.237
-305.851	-200.000	-0.058	0.365
-304.837	-98.575	-0.866	-0.283
-303.822	-52.942	0.484	-0.286
-302.807	-35.553	-0.230	-0.160
-301.793	-124.333	-0.199	0.040
-300.778	-200.000	0.071	-0.784
-299.764	-72.461	0.154	-0.073
-298.749	800.000	0.099	-0.410
-297.735	111.097	0.182	-0.282
-296.720	-200.000	-0.046	-0.311
-295.705	-132.452	0.226	-0.037
-294.691	-50.024	-0.302	0.184
-293.676	-69.031	0.017	0.008
-292.662	800.000	0.023	-0.124
-291.647	-78.181	0.261	-0.115
-290.632	-130.544	-0.101	0.017
-289.618	-9.666	0.128	0.109
-288.603	-83.140	0.377	-0.155
-287.589	-57.878	-0.184	0.103
-286.574	766.785	0.075	0.264
-285.559	-73.382	-0.346	0.162
-284.545	-200.000	0.044	-0.367
-283.530	800.000	-0.036	-0.139
-282.516	-144.965	0.278	-0.032
-281.501	-167.127	0.189	0.010
-280.486	-114.762	-0.248	0.060
-279.472	99.984	-0.293	0.437
-278.457	-130.510	0.062	0.011
-277.443	-104.030	0.232	0.069
-276.428	-73.932	-0.134	-0.062
-275.413	-64.114	-0.014	0.007
-274.399	-67.232	0.042	-0.021
-273.384	-146.735	0.404	-0.044
-272.370	800.000	0.025	0.138
-271.355	175.834	0.150	0.281
-270.340	-16.349	0.466	0.379
-269.326	-83.009	-0.467	0.193
-268.311	-27.073	0.054	-0.040
-267.297	-67.660	0.400	-0.201
-266.282	800.000	-0.143	-0.563
-265.267	800.000	0.032	0.151
-264.253	-116.609	0.554	-0.130
-263.238	-119.409	0.339	0.075
-262.224	-82.455	0.042	0.017
-261.209	38.088	-0.283	-0.323
-260.195	72.521	0.074	0.099
-259.180	-200.000	0.021	-0.152
-258.165	-95.008	0.065	-0.023
-257.151	37.744	0.199	-0.228
-256.136	48.701	0.234	0.283
-255.122	-93.683	0.086	0.030
-254.107	-112.094	0.060	-0.015
-253.092	158.401	0.208	-0.371
-252.078	246.768	0.039	-0.085
-251.063	-38.745	-0.290	-0.196
-250.049	-89.868	0.337	0.126
-249.034	-174.414	-0.475	-0.017
-248.019	106.195	-0.131	-0.199
-247.005	712.960	0.067	-0.228
-245.990	-90.828	-0.476	-0.175
-244.976	800.000	-0.068	0.320
-243.961	-123.080	0.495	0.101
-242.946	-146.209	-0.408	0.045
-241.932	800.000	0.141	0.699
-240.917	102.361	-0.220	0.331
-239.903	-1.497	-0.286	-0.259
-238.888	-60.445	-0.837	0.455
-237.873	601.950	0.114	0.366
-236.859	133.981	-0.199	0.331
-235.844	-187.177	0.156	-0.003
-234.830	-4.804	-0.051	-0.045
-233.815	307.211	-0.213	-0.511
-232.800	90.579	0.066	-0.095
-231.786	-92.025	0.307	0.111
-230.771	39.820	0.240	-0.277
-229.757	260.605	0.062	-0.138
-228.742	675.124	0.078	-0.262
-227.727	-200.000	0.063	0.450
-226.713	-188.140	0.265	-0.004
-225.698	-93.197	0.319	-0.113
-224.684	-174.770	0.290	-0.010
-223.669	208.935	-0.107	-0.216
-222.655	-89.220	0.163	-0.062
-221.640	-200.000	0.310	-0.002
-220.625	-40.328	0.185	0.123
-219.611	157.012	0.341	-0.607
-218.596	-132.371	0.202	-0.033
-217.582	-118.162	-0.353	0.080
-216.567	-165.783	0.474	-0.026
-215.552	-172.688	-0.247	-0.010
-214.538	-200.000	0.022	-0.209
-213.523	-29.213	-0.267	-0.196
-212.509	25.387	-0.131	0.140
-211.494	-71.206	-0.249	0.120
-210.479	-99.350	-0.018	0.006
-209.465	202.372	0.089	0.177
-208.450	550.301	0.082	0.255
-207.436	-9.141	-0.238	0.204
-206.421	18.194	-0.348	-0.356
-205.406	182.102	-0.088	0.167
-204.392	299.892	-0.242	-0.573
-203.377	282.559	0.236	0.545
-202.363	-86.884	-0.045	-0.018
-201.348	-117.083	-0.194	0.045
-200.333	-5.934	0.354	-0.310
-199.319	232.159	0.079	-0.167
-198.304	114.528	-0.267	0.418
-197.290	1.692	0.611	-0.564
-196.275	-112.231	0.122	-0.031
-195.260	-160.966	0.235	0.016
-194.246	-52.072	0.191	-0.114
-193.231	19.881	0.359	-0.371
-192.217	-200.000	0.024	0.282
-191.202	53.575	0.325	0.400
-190.187	278.780	0.170	-0.390
-189.173	240.780	0.146	-0.314
-188.158	80.982	0.019	-0.027
-187.144	-200.000	0.008	-0.347
-186.129	87.716	0.211	0.300
-185.114	38.392	-0.171	-0.195
-184.100	-57.627	0.196	0.110
-183.085	-20.781	0.197	-0.154
-182.071	-82.226	-0.441	0.183
-181.056	-200.000	0.008	-0.135
-180.042	-12.721	-0.690	-0.575
-179.027	800.000	-0.068	-0.280
-178.012	-90.751	0.435	0.160
-176.998	-60.709	0.083	-0.045
-175.983	-200.000	-0.002	0.254
-174.969	22.534	0.086	-0.090
-173.954	173.501	-0.104	-0.193
-172.939	-135.782	0.600	-0.090
-171.925	321.268	-0.051	0.124
-170.910	-129.616	-0.267	0.047
-169.896	-24.789	0.267	0.203
-168.881	-78.503	0.231	-0.101
-167.866	-200.000	-0.580	-0.001
-166.852	5.305	-0.255	-0.241
-165.837	103.373	-0.179	-0.269
-164.823	117.156	-0.091	0.144
-163.808	64.623	0.324	0.419
-162.793	50.877	-0.159	-0.193
-161.779	53.673	-0.135	-0.166
-160.764	-117.297	0.231	0.053
-159.750	-135.190	0.202	-0.031
-158.735	167.158	0.058	0.106
-157.720	-4.155	0.119	0.105
-156.706	-200.000	0.040	0.378
-155.691	-200.000	0.023	0.381
-154.677	-74.459	-0.492	0.226
-153.662	-16.221	0.387	0.314
-152.647	-200.000	0.016	-0.100
-151.633	-46.010	0.071	0.045
-150.618	-43.382	0.210	0.135
-149.604	43.993	0.295	-0.346
-148.589	511.857	0.040	0.121
-147.574	-200.000	0.015	0.216
-146.560	-117.685	-0.581	0.133
-145.545	132.303	0.063	0.103
-144.531	661.024	-0.053	-0.176
-143.516	800.000	0.066	0.246
-142.502	-179.559	-0.233	0.006
-141.487	613.998	0.122	0.394
-140.472	-98.820	0.234	-0.076
-139.458	-66.467	-0.237	-0.120
-138.443	40.335	-0.128	-0.147
-137.429	-200.000	0.017	0.142
-136.414	11.362	-0.227	0.222
-135.399	399.578	0.087	-0.234
-134.385	-55.723	-0.132	0.075
-133.370	-76.646	0.489	0.218
-132.356	51.873	0.160	0.195
-131.341	-42.966	0.542	-0.351
-130.326	95.016	-0.216	-0.314
-129.312	-111.624	0.384	0.099
-128.297	225.872	0.191	0.397
-127.283	-118.104	-0.393	-0.089
-126.268	800.000	-0.221	-0.804
-125.253	258.707	0.113	-0.251
-124.239	-17.722	0.170	0.136
-123.224	-73.292	0.272	0.127
