DTS Sentinel unit serial number:	SN409020Multiplexer serial number:	ORYXHardware model number:	OX4-SRSoftware version number:	ORYX F/W v3.00 Oryx Data Collector v3.7.2.0data status	okinstallation	HaddamTimeLapsedifferential loss correction	single-endedforward channel	channel 3reverse channel	N/Adate	2011/06/21time	23:11:16forward acquisition time	30.00reverse acquisition time	0.00gamma	498.7831k internal	0.1753k external	0.1753temperature offset calibration	1.0074default loss term (dB/km)	0.3790temperature slope calibration	1.3530multiplexer offset coefficient	1.0000multiplexer slope coefficient	1.0000fibre end	0.00T internal ref (°C)	23.37T ext. ref 1 (°C)	19.04T ext. ref 2 (°C)	0.05length (m)	temperature (°C)	Stokes	anti-Stokes-747.200	-198.593	0.130	0.001
-746.185	590.290	-0.113	0.371
-745.171	104.287	0.147	-0.229
-744.156	33.403	0.226	0.260
-743.142	-121.285	-0.269	-0.059
-742.127	183.849	-0.150	0.296
-741.112	800.000	-0.113	-0.611
-740.098	12.951	-0.157	0.161
-739.083	26.197	0.213	-0.236
-738.069	281.280	0.254	0.606
-737.054	-200.000	-0.045	-0.321
-736.039	-106.526	-0.510	0.150
-735.025	27.879	0.201	0.224
-734.010	12.253	0.446	0.455
-732.996	113.080	-0.162	-0.260
-731.981	-96.452	0.149	-0.052
-730.966	0.558	-0.459	-0.435
-729.952	-20.145	-0.278	0.227
-728.937	-118.613	0.441	0.103
-727.923	16.417	-0.351	0.367
-726.908	-120.423	0.334	0.075
-725.894	-136.814	0.655	-0.099
-724.879	-200.000	0.051	0.384
-723.864	-188.954	-0.394	-0.006
-722.850	-148.197	-0.111	-0.012
-721.835	102.685	0.088	-0.137
-720.821	-126.127	-0.261	0.051
-719.806	-200.000	0.003	0.478
-718.791	210.459	-0.160	0.335
-717.777	165.886	0.124	0.234
-716.762	24.050	-0.219	-0.240
-715.748	-9.021	0.299	0.265
-714.733	-60.629	0.251	0.140
-713.718	-105.829	0.184	0.055
-712.704	2.762	0.041	-0.040
-711.689	-157.721	-0.177	0.014
-710.675	525.449	-0.123	-0.387
-709.660	131.642	0.137	0.233
-708.645	8.933	0.366	-0.366
-707.631	72.054	-0.298	0.411
-706.616	769.216	-0.082	0.297
-705.602	31.533	0.310	0.353
-704.587	-113.068	-0.207	0.054
-703.572	231.720	-0.178	0.388
-702.558	25.862	0.142	0.157
-701.543	94.151	-0.234	-0.352
-700.529	-200.000	-0.005	-0.161
-699.514	-45.191	-0.324	0.213
-698.499	-49.400	0.449	-0.283
-697.485	26.072	-0.209	-0.231
-696.470	278.675	-0.220	-0.520
-695.456	-117.435	-0.119	0.028
-694.441	-56.782	-0.291	-0.170
-693.426	-200.000	0.026	-0.266
-692.412	-200.000	0.009	0.123
-691.397	-113.820	0.008	0.002
-690.383	-23.742	-0.358	-0.284
-689.368	19.949	0.208	-0.222
-688.354	-105.284	0.335	0.100
-687.339	-103.578	0.277	-0.085
-686.324	800.000	0.117	0.440
-685.310	-168.277	-0.244	-0.012
-684.295	167.092	-0.082	0.155
-683.281	-200.000	-0.001	0.072
-682.266	-108.856	0.384	0.108
-681.251	-200.000	0.044	0.392
-680.237	-200.000	0.013	-0.189
-679.222	-200.000	0.035	-0.350
-678.208	214.422	0.094	0.197
-677.193	131.900	0.044	0.075
-676.178	800.000	-0.073	-0.295
-675.164	-24.414	-0.248	0.195
-674.149	13.559	-0.141	0.145
-673.135	-64.095	0.358	0.193
-672.120	-30.765	-0.190	0.142
-671.105	-162.084	0.162	0.011
-670.091	-141.167	0.166	-0.022
-669.076	22.931	0.145	-0.158
-668.062	800.000	0.109	0.587
-667.047	-200.000	-0.023	0.507
-666.032	-56.617	0.461	0.269
-665.018	-200.000	-0.031	0.272
-664.003	-32.693	0.339	-0.249
-662.989	-92.893	0.200	-0.073
-661.974	-95.743	-0.298	-0.105
-660.959	-88.274	-0.230	-0.091
-659.945	-179.934	-0.310	-0.009
-658.930	-200.000	0.062	-0.455
-657.916	-122.861	-0.237	0.050
-656.901	20.148	-0.203	0.216
-655.886	-200.000	0.013	0.377
-654.872	728.885	0.072	-0.254
-653.857	-200.000	0.044	-0.451
-652.843	-137.186	-0.504	0.075
-651.828	499.551	-0.145	0.445
-650.814	681.870	-0.022	-0.075
-649.799	-148.040	-0.367	0.040
-648.784	-28.225	0.180	-0.137
-647.770	19.226	0.106	-0.112
-646.755	21.000	0.229	-0.245
-645.741	800.000	0.134	-0.525
-644.726	-200.000	-0.037	0.398
-643.711	-78.545	-0.334	-0.150
-642.697	24.972	0.183	-0.201
-641.682	145.819	0.184	-0.326
-640.668	-200.000	0.082	-0.558
-639.653	-30.541	-0.334	-0.249
-638.638	800.000	0.006	-0.023
-637.624	352.850	-0.069	0.182
-636.609	-7.496	-0.104	0.093
-635.595	85.201	0.117	-0.170
-634.580	647.870	0.053	-0.179
-633.565	376.343	-0.088	0.239
-632.551	355.259	0.015	-0.039
-631.536	76.889	-0.255	0.358
-630.522	-200.000	0.027	0.314
-629.507	-95.548	-0.264	-0.093
-628.492	117.686	-0.396	0.646
-627.478	298.414	0.147	0.358
-626.463	14.613	0.256	0.264
-625.449	-27.539	-0.319	-0.244
-624.434	114.678	-0.039	0.063
-623.419	800.000	-0.068	0.278
-622.405	-35.722	-0.142	0.101
-621.390	-17.251	0.084	-0.070
-620.376	75.664	-0.072	0.101
-619.361	-73.456	0.221	0.106
-618.346	336.604	-0.038	0.097
-617.332	123.928	0.239	-0.397
-616.317	166.226	0.231	-0.432
-615.303	-2.831	0.239	0.220
-614.288	-82.487	0.054	-0.023
-613.273	504.548	-0.053	0.163
-612.259	-67.302	-0.211	-0.109
-611.244	-200.000	0.014	-0.107
-610.230	-86.921	-0.287	0.115
-609.215	-117.978	-0.313	0.073
-608.201	-11.913	0.263	0.227
-607.186	-76.414	0.476	-0.220
-606.171	-200.000	0.047	0.287
-605.157	-200.000	0.016	-0.252
-604.142	800.000	0.053	0.261
-603.128	800.000	-0.108	-0.418
-602.113	-63.583	0.410	-0.221
-601.098	-86.967	0.344	-0.138
-600.084	-200.000	0.026	-0.291
-599.069	-200.000	-0.738	-0.001
-598.055	105.828	-0.228	-0.356
-597.040	-118.083	0.084	0.020
-596.025	447.704	-0.093	0.271
-595.011	490.253	0.069	-0.209
-593.996	-200.000	-0.025	-0.329
-592.982	-23.427	0.232	0.183
-591.967	-200.000	0.041	-0.453
-590.952	-72.498	-0.309	0.150
-589.938	-19.296	-0.285	-0.233
-588.923	800.000	-0.021	-0.118
-587.909	-7.923	-0.223	0.198
-586.894	19.027	0.224	0.237
-585.879	-122.288	0.539	0.115
-584.865	-77.890	0.334	0.151
-583.850	32.169	-0.131	0.149
-582.836	-116.054	0.432	0.105
-581.821	304.150	0.129	0.316
-580.806	-97.562	-0.317	0.108
-579.792	-200.000	0.009	0.279
-578.777	-156.388	0.280	-0.023
-577.763	800.000	-0.066	0.369
-576.748	119.431	0.260	-0.426
-575.733	-74.320	-0.242	-0.115
-574.719	164.942	-0.160	-0.298
-573.704	57.484	0.282	0.363
-572.690	-128.730	-0.267	0.049
-571.675	-70.674	0.557	0.276
-570.661	-94.813	0.381	0.135
-569.646	-96.643	-0.534	-0.184
-568.631	550.039	0.074	0.235
-567.617	800.000	-0.031	0.165
-566.602	109.958	0.298	-0.471
-565.588	732.169	-0.122	-0.432
-564.573	136.450	0.194	0.334
-563.558	-200.000	-0.001	-0.278
-562.544	26.188	0.059	0.065
-561.529	-200.000	0.007	-0.215
-560.515	-108.105	0.466	0.132
-559.500	800.000	-0.066	-0.302
-558.485	800.000	-0.113	-0.477
-557.471	-76.187	-0.154	-0.071
-556.456	138.285	0.074	0.128
-555.442	150.967	-0.244	0.438
-554.427	-136.974	-0.594	-0.089
-553.412	-101.675	-0.168	-0.053
-552.398	-18.522	0.224	-0.184
-551.383	196.588	0.051	-0.102
-550.369	-123.052	-0.230	0.048
-549.354	-35.461	-0.014	0.010
-548.339	-70.095	0.122	0.061
-547.325	-72.161	0.339	-0.165
-546.310	-51.586	-0.207	-0.127
-545.296	37.339	-0.319	-0.372
-544.281	800.000	-0.021	0.097
-543.266	53.271	0.124	0.157
-542.252	-83.374	0.294	-0.124
-541.237	-72.939	0.606	0.292
-540.223	-101.658	-0.145	-0.046
-539.208	-15.621	-0.470	-0.394
-538.193	-93.272	-0.460	-0.167
-537.179	25.755	0.176	0.192
-536.164	184.938	0.271	0.530
-535.150	-69.280	0.141	0.071
-534.135	-200.000	0.046	-0.000
-533.121	584.147	0.063	-0.203
-532.106	-3.685	0.402	0.367
-531.091	-200.000	-0.023	0.221
-530.077	800.000	-0.019	0.082
-529.062	-39.683	0.508	0.349
-528.048	-46.468	-0.203	-0.131
-527.033	-79.757	0.198	0.087
-526.018	579.886	-0.141	0.457
-525.004	-45.784	-0.094	-0.061
-523.989	18.504	0.494	0.519
-522.975	800.000	-0.028	0.139
-521.960	334.437	-0.210	0.537
-520.945	-69.464	-0.294	0.147
-519.931	-114.068	-0.244	0.062
-518.916	-138.811	-0.158	0.022
-517.902	-75.121	-0.146	-0.068
-516.887	242.471	0.071	0.156
-515.872	84.245	-0.137	-0.198
-514.858	-174.345	0.316	0.012
-513.843	115.718	0.324	0.522
-512.829	319.058	-0.090	0.226
-511.814	82.153	0.350	0.500
-510.799	7.142	-0.398	0.391
-509.785	-120.431	-0.791	0.175
-508.770	-200.000	-0.030	0.287
-507.756	88.187	-0.330	-0.481
-506.741	-200.000	-0.015	0.420
-505.726	-200.000	-0.015	-0.093
-504.712	800.000	0.029	0.136
-503.697	-46.390	-0.165	0.106
-502.683	74.688	0.209	0.290
-501.668	-65.174	0.419	0.221
-500.653	-12.403	0.315	0.270
-499.639	800.000	-0.081	0.351
-498.624	149.908	0.077	0.138
-497.610	-111.695	0.231	-0.061
-496.595	-200.000	0.029	-0.345
-495.581	-200.000	0.219	-0.001
-494.566	-38.802	-0.106	-0.073
-493.551	-97.199	0.101	0.035
-492.537	-115.273	-0.284	0.070
-491.522	-200.000	-0.023	0.148
-490.508	-200.000	0.006	1.018
-489.493	290.014	-0.096	0.229
-488.478	-83.003	-0.297	-0.125
-487.464	-114.836	-0.112	0.028
-486.449	-120.620	0.669	0.148
-485.435	-7.641	0.386	-0.342
-484.420	-1.516	0.107	-0.099
-483.405	-48.607	-0.422	0.266
-482.391	-99.299	0.324	-0.107
-481.376	-160.146	-0.413	-0.029
-480.362	-200.000	0.162	0.000
-479.347	140.365	0.139	0.242
-478.332	441.697	0.052	-0.149
-477.318	95.300	0.181	-0.271
-476.303	-162.259	0.463	0.030
-475.289	179.295	0.012	0.024
-474.274	11.611	0.440	-0.442
-473.259	114.215	-0.213	-0.341
-472.245	21.738	-0.015	-0.016
-471.230	-102.058	0.233	-0.073
-470.216	800.000	0.084	-0.461
-469.201	289.121	0.105	0.250
-468.186	-92.558	-0.118	-0.043
-467.172	-53.206	0.100	-0.060
-466.157	800.000	0.113	-0.452
-465.143	-119.493	0.366	-0.083
-464.128	-35.721	0.497	0.352
-463.113	-200.000	0.021	0.297
-462.099	-200.000	0.093	0.763
-461.084	-70.041	-0.482	-0.240
-460.070	125.430	-0.519	-0.861
-459.055	60.297	-0.265	-0.344
-458.040	60.508	0.128	0.167
-457.026	87.359	0.246	-0.357
-456.011	141.227	0.250	0.435
-454.997	209.599	0.070	-0.145
-453.982	-119.336	0.218	-0.049
-452.968	100.768	0.119	0.181
-451.953	-90.461	0.219	-0.083
-450.938	-18.837	-0.340	0.277
-449.924	-78.309	-0.203	0.091
-448.909	-114.960	-0.172	-0.043
-447.895	523.875	-0.073	-0.225
-446.880	-95.150	0.451	-0.158
-445.865	800.000	-0.007	-0.041
-444.851	800.000	0.070	-0.347
-443.836	-12.359	-0.297	0.254
-442.822	-158.325	-0.158	-0.012
-441.807	-200.000	-0.011	0.312
-440.792	8.199	-0.308	-0.303
-439.778	-200.000	0.015	-0.278
-438.763	131.375	-0.194	0.328
-437.749	11.135	-0.026	-0.026
-436.734	-160.018	-0.185	-0.013
-435.719	466.767	0.083	-0.245
-434.705	707.747	0.023	0.079
-433.690	-110.966	0.383	-0.102
-432.676	-42.062	0.206	0.138
-431.661	175.262	0.104	0.198
-430.646	-76.686	0.443	-0.203
-429.632	-15.107	0.100	0.084
-428.617	-55.179	0.224	-0.132
-427.603	-87.467	-0.274	0.108
-426.588	122.938	0.078	0.128
-425.573	-200.000	0.024	-0.657
-424.559	-200.000	-0.032	-0.375
-423.544	-132.022	-0.296	0.050
-422.530	-92.446	-0.246	-0.090
-421.515	-117.299	0.268	-0.063
-420.500	219.918	-0.189	0.398
-419.486	-108.209	0.432	-0.121
-418.471	-61.772	-0.293	0.160
-417.457	488.557	0.195	-0.587
-416.442	-3.352	0.238	-0.217
-415.428	55.311	-0.143	-0.182
-414.413	-91.114	-0.401	0.150
-413.398	-61.643	-0.227	-0.124
-412.384	140.546	-0.188	0.327
-411.369	-69.196	-0.190	0.095
-410.355	124.839	-0.130	0.215
-409.340	80.274	-0.515	0.727
-408.325	-100.693	0.300	0.096
-407.311	-13.103	0.131	0.111
-406.296	800.000	-0.044	-0.165
-405.282	-53.711	0.486	-0.289
-404.267	-64.190	0.392	-0.209
-403.252	-106.833	-0.413	-0.119
-402.238	65.323	-0.054	-0.071
-401.223	-16.855	0.379	-0.313
-400.209	32.849	-0.352	0.399
-399.194	-144.314	0.036	0.004
-398.179	403.847	0.073	-0.202
-397.165	-70.704	-0.581	-0.286
-396.150	110.149	-0.131	-0.206
-395.136	-117.384	-0.797	0.188
-394.121	203.927	-0.304	0.618
-393.106	130.137	0.206	-0.346
-392.092	-191.468	-0.470	0.006
-391.077	562.793	0.046	0.148
-390.063	-60.046	-0.274	0.152
-389.048	-127.792	-0.332	0.062
-388.033	-200.000	0.031	0.250
-387.019	-90.387	0.291	0.110
-386.004	-85.402	-0.253	-0.103
-384.990	-166.200	0.536	0.029
-383.975	166.541	0.445	0.827
-382.960	-126.706	-0.111	0.021
-381.946	800.000	0.068	-0.250
-380.931	-109.025	0.298	0.083
-379.917	-101.638	-0.357	-0.113
-378.902	417.781	-0.094	-0.263
-377.888	-166.690	-0.377	-0.020
-376.873	2.956	-0.333	-0.316
-375.858	209.041	0.123	0.252
-374.844	147.153	-0.138	0.244
-373.829	-104.212	0.142	-0.043
-372.815	-135.561	0.095	-0.015
-371.800	-69.800	-0.160	0.079
-370.785	-200.000	0.047	-0.806
-369.771	106.228	-0.309	-0.479
-368.756	-128.255	0.467	-0.086
-367.742	-14.199	0.361	0.304
-366.727	-166.860	-0.359	-0.019
-365.712	-83.369	-0.206	-0.086
-364.698	381.184	-0.072	0.195
-363.683	423.797	-0.134	0.378
-362.669	-178.131	0.339	-0.010
-361.654	336.283	0.113	-0.287
-360.639	597.499	-0.086	-0.282
-359.625	-20.731	0.064	0.051
-358.610	-0.745	-0.203	0.188
-357.596	-62.696	0.215	-0.116
-356.581	33.428	-0.161	0.183
-355.566	-200.000	-0.070	0.497
-354.552	-68.775	-0.479	0.241
-353.537	-166.901	-0.277	0.015
-352.523	-76.789	-0.181	0.082
-351.508	-200.000	0.012	0.260
-350.493	-134.373	0.606	0.096
-349.479	-116.355	0.199	-0.048
-348.464	-200.000	-0.059	0.565
-347.450	43.589	0.384	-0.459
-346.435	-46.903	0.360	-0.229
-345.420	-38.090	-0.406	-0.281
-344.406	-153.980	-0.567	0.050
-343.391	31.677	0.202	0.227
-342.377	-76.581	0.672	-0.307
-341.362	-134.140	-0.521	0.083
-340.348	-52.070	-0.423	-0.256
-339.333	-170.181	0.546	0.025
-338.318	-200.000	-0.032	-0.272
-337.304	-65.270	-0.565	-0.296
-336.289	224.433	0.212	0.450
-335.275	-145.386	-0.563	0.066
-334.260	123.194	0.012	0.019
-333.245	-177.361	0.382	-0.012
-332.231	-54.782	0.311	-0.183
-331.216	-200.000	-0.006	0.146
-330.202	-127.906	-0.077	0.014
-329.187	-108.091	-0.312	0.088
-328.172	-70.603	-0.413	-0.203
-327.158	-200.000	0.055	-0.505
-326.143	-10.009	0.204	-0.177
-325.129	-176.806	0.446	-0.015
-324.114	356.631	0.041	0.107
-323.099	-96.882	0.335	-0.114
-322.085	83.461	-0.211	-0.301
-321.070	800.000	0.048	0.209
-320.056	-106.678	0.346	0.100
-319.041	-73.370	0.104	-0.049
-318.026	-117.373	-0.281	-0.066
-317.012	558.870	-0.062	-0.197
-315.997	800.000	-0.095	-0.478
-314.983	-118.204	0.303	0.070
-313.968	-200.000	-0.008	-0.108
-312.953	-57.124	0.252	0.145
-311.939	-19.719	-0.257	-0.207
-310.924	326.986	-0.054	-0.135
-309.910	-113.274	0.253	-0.064
-308.895	-117.099	0.306	0.072
-307.880	-130.682	-0.543	-0.094
-306.866	143.009	0.152	0.263
-305.851	614.375	0.035	0.114
-304.837	-44.371	0.187	0.122
-303.822	-200.000	0.045	0.515
-302.807	800.000	0.044	0.219
-301.793	-5.397	0.357	0.319
-300.778	-41.357	-0.147	-0.099
-299.764	488.974	-0.127	0.380
-298.749	-11.066	-0.112	-0.096
-297.735	397.968	-0.105	-0.287
-296.720	-200.000	-0.054	-0.414
-295.705	686.459	0.054	0.187
-294.691	-2.094	0.338	-0.310
-293.676	-182.216	0.341	0.008
-292.662	-70.571	-0.383	0.188
-291.647	-88.641	0.126	-0.049
-290.632	-200.000	0.029	0.365
-289.618	212.166	0.067	-0.138
-288.603	-152.581	0.334	0.031
-287.589	-119.342	-0.455	0.102
-286.574	-200.000	0.029	-0.246
-285.559	800.000	0.073	-0.366
-284.545	284.912	-0.224	-0.528
-283.530	800.000	-0.173	-0.659
-282.516	-140.555	0.619	0.083
-281.501	-68.332	-0.208	0.105
-280.486	-163.500	0.291	0.018
-279.472	227.964	0.051	0.109
-278.457	800.000	-0.064	-0.249
-277.443	344.044	0.011	-0.028
-276.428	202.910	-0.232	0.468
-275.413	109.165	-0.039	0.062
-274.399	-97.868	0.272	-0.091
-273.384	10.163	-0.319	0.315
-272.370	108.660	0.091	-0.142
-271.355	-150.025	-0.159	0.016
-270.340	-48.771	0.491	-0.306
-269.326	83.736	-0.217	-0.308
-268.311	-53.701	-0.270	-0.160
-267.297	-14.419	-0.295	-0.247
-266.282	-200.000	-0.018	0.127
-265.267	-78.712	-0.563	-0.249
-264.253	800.000	-0.104	-0.380
-263.238	407.600	-0.232	-0.641
-262.224	-200.000	-0.022	-0.337
-261.209	34.218	0.077	-0.088
-260.195	-200.000	0.044	0.675
-259.180	85.015	-0.200	0.285
-258.165	-168.657	-0.031	-0.002
-257.151	-200.000	0.008	0.266
-256.136	-149.583	-0.217	0.022
-255.122	-145.306	0.308	-0.036
-254.107	307.070	0.171	-0.417
-253.092	-37.716	-0.154	0.106
-252.078	-169.734	0.063	0.003
-251.063	-1.300	-0.066	-0.060
-250.049	142.679	0.151	-0.262
-249.034	-19.875	-0.398	0.320
-248.019	415.402	0.087	-0.244
-247.005	-130.757	-0.254	-0.044
-245.990	-77.714	-0.397	-0.178
-244.976	-40.373	0.589	0.397
-243.961	-86.094	0.114	0.046
-242.946	635.588	-0.142	-0.472
-241.932	-116.678	0.634	0.150
-240.917	314.594	-0.060	-0.148
-239.903	-164.133	-0.147	0.009
-238.888	-200.000	0.034	0.434
-237.873	-130.394	-0.426	0.074
-236.859	730.209	-0.026	-0.091
-235.844	25.271	-0.317	0.342
-234.830	-200.000	0.039	-0.274
-233.815	57.566	-0.252	-0.321
-232.800	134.672	-0.226	0.382
-231.786	-81.242	-0.342	0.146
-230.771	13.427	0.013	0.013
-229.757	722.580	-0.081	0.283
-228.742	-107.343	-0.179	0.051
-227.727	-104.519	0.482	0.144
-226.713	-123.992	0.500	0.101
-225.698	-62.047	-0.252	-0.136
-224.684	-140.204	-0.350	-0.047
-223.669	361.474	0.112	0.292
-222.655	-160.838	-0.332	0.022
-221.640	-200.000	0.072	-0.431
-220.625	-161.665	0.218	-0.014
-219.611	-132.619	0.245	-0.040
-218.596	2.735	-0.360	-0.339
-217.582	-13.408	0.245	0.206
-216.567	-200.000	0.007	0.572
-215.552	176.727	-0.165	0.313
-214.538	124.795	0.190	-0.311
-213.523	538.181	-0.173	-0.536
-212.509	800.000	0.087	0.389
-211.494	37.798	-0.320	-0.369
-210.479	-200.000	0.045	0.396
-209.465	-200.000	-0.017	-0.398
-208.450	553.038	-0.034	-0.108
-207.436	-174.798	-0.339	-0.012
-206.421	-144.639	0.259	0.031
-205.406	-83.494	0.323	0.134
-204.392	-87.174	-0.321	0.126
-203.377	-48.810	0.378	-0.235
-202.363	77.336	0.270	-0.373
-201.348	-45.902	0.248	-0.158
-200.333	-12.135	-0.111	0.094
-199.319	19.281	0.076	0.079
-198.304	-113.127	-0.458	-0.116
-197.290	-110.875	0.378	-0.100
-196.275	-47.938	-0.259	-0.162
-195.260	-200.000	-0.005	0.176
-194.246	20.277	0.121	0.127
-193.231	-121.282	0.155	0.033
-192.217	-200.000	-0.014	0.123
-191.202	-34.576	0.132	0.093
-190.187	800.000	0.074	-0.335
-189.173	33.088	0.207	-0.233
-188.158	21.536	-0.405	-0.427
-187.144	-67.237	0.636	-0.324
-186.129	800.000	0.062	-0.321
-185.114	-200.000	-0.008	-0.143
-184.100	800.000	0.130	0.540
-183.085	-2.980	-0.251	0.227
-182.071	-5.624	-0.071	-0.063
-181.056	-47.741	-0.426	0.267
-180.042	-49.102	-0.377	0.233
-179.027	-200.000	0.049	0.292
-178.012	-56.357	-0.030	-0.017
-176.998	800.000	-0.043	0.170
-175.983	-106.478	0.379	0.109
-174.969	53.567	0.156	-0.195
-173.954	175.528	0.148	0.280
-172.939	3.714	0.167	0.158
-171.925	-139.372	0.785	-0.108
-170.910	-87.195	-0.198	0.078
-169.896	109.584	-0.088	0.137
-168.881	-45.584	-0.361	0.231
-167.866	800.000	-0.033	-0.165
-166.852	-200.000	0.026	-0.406
-165.837	13.894	0.207	-0.209
-164.823	-93.867	-0.328	0.116
-163.808	-88.944	0.104	-0.040
-162.793	-164.879	-0.260	-0.015
-161.779	-127.874	-0.195	-0.036
-160.764	681.595	0.106	-0.362
-159.750	-200.000	-0.043	0.296
-158.735	-109.316	-0.406	-0.111
-157.720	76.561	0.276	0.380
-156.706	65.914	-0.233	0.307
-155.691	-200.000	-0.032	-0.358
-154.677	-98.360	0.086	0.028
-153.662	800.000	0.003	-0.013
-152.647	-141.152	0.076	0.010
-151.633	-100.089	0.068	0.022
-150.618	-20.005	0.408	0.326
-149.604	61.423	0.233	0.301
-148.589	-25.438	-0.171	0.131
-147.574	127.645	-0.111	-0.183
-146.560	188.028	0.100	-0.194
-145.545	-84.723	0.805	-0.327
-144.531	311.983	0.117	0.285
-143.516	-48.401	0.254	-0.158
-142.502	-77.718	-0.487	0.217
-141.487	-112.816	0.334	0.085
-140.472	-200.000	-0.007	-0.132
-139.458	-200.000	0.011	-0.386
-138.443	314.376	0.076	-0.186
-137.429	17.621	0.442	-0.455
-136.414	117.809	0.121	-0.194
-135.399	-52.765	-0.301	-0.179
-134.385	313.325	0.026	-0.064
-133.370	217.523	0.112	0.233
-132.356	-151.095	-0.335	0.032
-131.341	18.633	-0.451	-0.467
-130.326	-41.346	0.316	0.210
-129.312	-200.000	-0.008	-0.132
-128.297	155.062	-0.085	0.152
-127.283	-48.253	0.136	0.085
-126.268	-200.000	0.043	-0.410
-125.253	118.877	-0.265	-0.424
-124.239	12.592	-0.246	-0.246
-123.224	-143.660	0.161	0.020
-122.210	-200.000	-0.021	-0.246
