DTS Sentinel unit serial number:	SN409020Multiplexer serial number:	ORYXHardware model number:	OX4-SRSoftware version number:	ORYX F/W v3.00 Oryx Data Collector v3.7.2.0data status	okinstallation	HaddamTimeLapsedifferential loss correction	single-endedforward channel	channel 3reverse channel	N/Adate	2011/06/22time	11:06:01forward acquisition time	30.00reverse acquisition time	0.00gamma	498.7831k internal	0.1768k external	0.1768temperature offset calibration	1.0074default loss term (dB/km)	0.3790temperature slope calibration	1.3530multiplexer offset coefficient	1.0000multiplexer slope coefficient	1.0000fibre end	0.00T internal ref (°C)	29.56T ext. ref 1 (°C)	24.69T ext. ref 2 (°C)	-0.10length (m)	temperature (°C)	Stokes	anti-Stokes-747.200	-157.228	-0.161	-0.013
-746.185	36.060	0.129	0.150
-745.171	-173.489	-0.300	0.012
-744.156	-125.030	0.287	0.058
-743.142	62.870	-0.250	0.329
-742.127	-69.294	0.081	-0.041
-741.112	-110.449	-0.173	-0.047
-740.098	-31.937	0.318	-0.234
-739.083	-162.411	0.082	-0.005
-738.069	188.771	0.069	0.136
-737.054	800.000	0.052	-0.210
-736.039	-74.739	-0.296	0.139
-735.025	-141.915	0.661	0.086
-734.010	-198.399	0.507	-0.004
-732.996	65.846	0.033	-0.044
-731.981	-84.914	0.664	0.273
-730.966	676.287	-0.112	0.386
-729.952	76.433	0.120	0.168
-728.937	-70.671	0.172	0.085
-727.923	76.864	-0.285	-0.399
-726.908	-106.369	0.279	-0.082
-725.894	-28.751	0.161	-0.121
-724.879	-122.496	0.387	-0.082
-723.864	-88.572	-0.249	-0.097
-722.850	-72.876	0.394	-0.190
-721.835	177.535	0.237	-0.455
-720.821	307.846	0.048	-0.119
-719.806	-85.645	-0.331	0.134
-718.791	-175.319	-0.120	-0.004
-717.777	-199.804	0.340	0.002
-716.762	-94.734	0.596	-0.211
-715.748	111.404	0.135	-0.214
-714.733	-153.561	0.265	0.024
-713.718	-111.967	0.344	-0.090
-712.704	800.000	-0.007	0.035
-711.689	800.000	-0.075	-0.406
-710.675	1.879	0.394	-0.373
-709.660	212.301	0.096	-0.200
-708.645	-87.420	0.134	-0.053
-707.631	-44.637	-0.178	-0.116
-706.616	-29.622	0.194	0.145
-705.602	-53.325	-0.021	0.013
-704.587	800.000	-0.050	-0.238
-703.572	-7.970	-0.223	-0.198
-702.558	-119.119	0.271	0.062
-701.543	-9.600	0.066	-0.058
-700.529	-60.218	0.325	-0.181
-699.514	800.000	-0.076	-0.386
-698.499	-115.773	0.309	0.075
-697.485	-77.914	0.199	-0.090
-696.470	-86.132	-0.046	-0.018
-695.456	-200.000	-0.017	-0.431
-694.441	-57.710	0.419	-0.240
-693.426	-200.000	0.030	-0.333
-692.412	-24.984	0.204	0.158
-691.397	800.000	-0.065	0.261
-690.383	-34.095	-0.345	-0.249
-689.368	-184.205	-0.537	0.011
-688.354	-200.000	-0.049	-0.405
-687.339	-147.757	0.433	0.047
-686.324	175.365	-0.138	-0.263
-685.310	-42.780	-0.167	-0.111
-684.295	-200.000	-0.011	-0.338
-683.281	800.000	0.044	-0.175
-682.266	-200.000	-0.005	-0.281
-681.251	-76.468	0.586	-0.269
-680.237	-108.141	-0.152	0.043
-679.222	193.545	-0.059	-0.117
-678.208	-200.000	0.003	0.162
-677.193	52.621	-0.133	0.166
-676.178	-60.167	-0.351	0.196
-675.164	91.874	-0.180	-0.267
-674.149	-135.564	0.096	0.015
-673.135	-83.156	0.542	-0.228
-672.120	88.753	0.348	-0.508
-671.105	-32.319	-0.295	-0.216
-670.091	424.506	-0.180	-0.512
-669.076	18.374	-0.180	-0.189
-668.062	-105.774	-0.459	-0.135
-667.047	800.000	-0.103	-0.478
-666.032	-200.000	0.062	-0.377
-665.018	800.000	-0.057	0.254
-664.003	-200.000	-0.047	-0.386
-662.989	697.136	-0.049	0.169
-661.974	800.000	0.030	-0.173
-660.959	800.000	0.061	-0.289
-659.945	768.099	-0.086	-0.310
-658.930	-92.109	0.236	0.087
-657.916	317.469	0.070	-0.175
-656.901	-200.000	0.010	-0.264
-655.886	98.634	-0.250	-0.378
-654.872	88.612	-0.498	-0.727
-653.857	41.171	0.082	-0.097
-652.843	-31.285	-0.310	-0.229
-651.828	-113.923	0.085	-0.022
-650.814	161.439	-0.076	-0.140
-649.799	-123.851	0.190	-0.039
-648.784	-200.000	-0.013	-0.144
-647.770	-131.321	0.405	-0.070
-646.755	-145.790	-0.182	-0.021
-645.741	135.069	0.162	-0.276
-644.726	58.578	0.063	0.081
-643.711	-20.352	0.186	-0.150
-642.697	202.585	-0.043	0.087
-641.682	-55.579	0.292	-0.171
-640.668	-66.226	0.343	-0.178
-639.653	-59.122	-0.211	-0.119
-638.638	-18.704	-0.256	0.209
-637.624	97.043	0.247	-0.371
-636.609	-109.253	0.563	0.155
-635.595	-116.824	-0.570	-0.136
-634.580	385.553	0.035	0.094
-633.565	-27.553	0.099	-0.075
-632.551	73.578	-0.076	-0.105
-631.536	37.510	0.068	0.079
-630.522	-34.286	-0.167	0.120
-629.507	67.195	0.258	0.345
-628.492	-93.196	0.502	0.182
-627.478	91.184	-0.217	-0.319
-626.463	800.000	-0.115	-0.532
-625.449	68.427	0.379	-0.509
-624.434	82.749	-0.344	-0.489
-623.419	38.300	-0.367	-0.428
-622.405	102.732	-0.272	-0.417
-621.390	-162.278	0.090	0.006
-620.376	195.143	0.153	-0.305
-619.361	800.000	0.112	-0.425
-618.346	51.751	0.323	-0.402
-617.332	-50.430	-0.103	0.064
-616.317	220.852	-0.167	-0.352
-615.303	-139.210	0.311	-0.043
-614.288	27.177	0.334	0.367
-613.273	-200.000	0.032	0.495
-612.259	7.002	-0.119	-0.116
-611.244	-109.075	0.484	0.134
-610.230	-87.829	0.459	-0.180
-609.215	7.922	-0.091	-0.089
-608.201	-2.478	0.208	-0.191
-607.186	800.000	-0.025	-0.131
-606.171	-163.572	-0.337	-0.021
-605.157	-26.358	-0.065	-0.050
-604.142	-15.287	0.107	0.089
-603.128	27.249	0.242	0.265
-602.113	23.987	-0.319	0.344
-601.098	-56.328	-0.203	0.118
-600.084	-116.527	0.240	-0.057
-599.069	-54.157	0.198	-0.117
-598.055	-70.179	-0.060	-0.030
-597.040	-4.779	-0.449	0.404
-596.025	11.518	-0.059	-0.059
-595.011	-189.299	-0.130	-0.002
-593.996	-112.495	-0.021	0.005
-592.982	-200.000	0.030	-0.283
-591.967	-71.328	0.252	0.123
-590.952	-59.762	-0.139	-0.078
-589.938	72.291	-0.231	0.315
-588.923	-163.672	-0.524	-0.032
-587.909	-66.048	0.299	0.155
-586.894	-200.000	0.040	0.246
-585.879	-200.000	-0.018	0.350
-584.865	11.010	0.482	0.481
-583.850	-101.769	0.223	-0.070
-582.836	-100.340	0.208	0.067
-581.821	-200.000	0.047	0.537
-580.806	-3.778	0.436	0.396
-579.792	-200.000	-0.039	-0.232
-578.777	-37.770	0.235	0.163
-577.763	123.741	0.267	0.439
-576.748	-20.262	-0.359	-0.288
-575.733	-90.938	-0.351	-0.131
-574.719	-6.658	0.159	-0.141
-573.704	-0.719	-0.085	0.079
-572.690	220.469	-0.172	0.362
-571.675	-102.917	-0.416	0.128
-570.661	-138.689	0.401	-0.057
-569.646	-100.247	0.357	-0.115
-568.631	60.888	0.098	0.127
-567.617	223.807	0.098	0.208
-566.602	-200.000	-0.012	-0.398
-565.588	0.379	-0.410	-0.382
-564.573	-198.628	-0.485	0.003
-563.558	-200.000	-0.287	0.001
-562.544	-100.428	-0.338	-0.109
-561.529	-144.641	0.159	-0.019
-560.515	-121.651	-0.329	0.071
-559.500	-200.000	-0.032	-0.315
-558.485	-83.533	-0.682	0.283
-557.471	169.253	-0.124	-0.233
-556.456	-149.279	-0.143	0.015
-555.442	-72.368	-0.270	-0.130
-554.427	-76.464	0.453	0.207
-553.412	-8.331	0.380	0.333
-552.398	-109.160	-0.317	-0.087
-551.383	102.223	0.041	-0.063
-550.369	-200.000	-0.012	0.175
-549.354	-146.804	0.142	-0.016
-548.339	-200.000	-0.019	0.501
-547.325	249.463	-0.059	-0.131
-546.310	402.796	-0.132	-0.364
-545.296	800.000	-0.042	-0.220
-544.281	-8.194	-0.082	-0.072
-543.266	36.389	0.445	0.512
-542.252	-131.717	0.322	-0.055
-541.237	81.365	0.057	-0.081
-540.223	-80.953	0.368	-0.159
-539.208	3.932	-0.261	-0.248
-538.193	-34.358	-0.471	-0.336
-537.179	-65.122	0.082	-0.043
-536.164	329.041	0.113	-0.283
-535.150	800.000	-0.061	-0.268
-534.135	-52.689	-0.351	-0.211
-533.121	-55.174	0.214	0.125
-532.106	-68.929	0.225	-0.113
-531.091	-48.504	0.309	-0.193
-530.077	-72.672	-0.162	0.078
-529.062	-98.672	-0.411	-0.136
-528.048	-76.331	-0.115	-0.053
-527.033	417.639	-0.072	0.201
-526.018	-21.471	-0.205	0.163
-525.004	-75.566	0.060	-0.028
-523.989	91.992	-0.266	0.391
-522.975	33.724	-0.170	-0.193
-521.960	-125.576	0.120	-0.024
-520.945	-13.828	-0.139	-0.117
-519.931	-70.823	-0.167	-0.082
-518.916	-159.485	0.298	0.021
-517.902	137.494	-0.137	-0.234
-516.887	95.599	0.300	0.447
-515.872	-11.327	-0.340	-0.292
-514.858	-170.648	0.188	-0.008
-513.843	331.940	0.083	0.211
-512.829	-200.000	-0.046	0.473
-511.814	19.435	-0.200	0.209
-510.799	-59.821	-0.297	0.165
-509.785	130.745	-0.091	-0.153
-508.770	-38.146	-0.206	0.142
-507.756	-44.127	-0.128	0.083
-506.741	-63.091	-0.404	-0.217
-505.726	-34.817	-0.248	0.176
-504.712	359.516	-0.036	0.094
-503.697	-117.788	-0.384	0.089
-502.683	265.410	0.129	-0.295
-501.668	-116.600	-0.368	0.088
-500.653	-139.028	-0.174	0.024
-499.639	-50.785	-0.201	-0.123
-498.624	-124.598	0.266	0.053
-497.610	-53.595	-0.406	-0.241
-496.595	-45.453	-0.219	-0.141
-495.581	41.912	0.219	0.259
-494.566	-44.128	0.325	0.212
-493.551	-100.929	-0.148	0.047
-492.537	-92.079	-0.412	0.151
-491.522	-154.116	-0.310	-0.027
-490.508	800.000	-0.016	0.076
-489.493	-64.598	0.266	-0.140
-488.478	-200.000	0.015	0.221
-487.464	65.507	-0.142	-0.188
-486.449	-130.370	0.449	0.078
-485.435	-34.673	0.530	0.377
-484.420	684.094	0.078	-0.267
-483.405	18.947	-0.214	-0.224
-482.391	-120.723	0.582	-0.127
-481.376	-200.000	0.691	-0.002
-480.362	-200.000	-0.011	0.225
-479.347	-98.687	-0.443	0.146
-478.332	-200.000	-0.301	-0.001
-477.318	25.395	-0.237	0.257
-476.303	-200.000	0.092	-0.671
-475.289	470.252	0.083	-0.245
-474.274	-116.556	0.334	0.079
-473.259	150.318	-0.185	-0.327
-472.245	-24.173	-0.251	-0.194
-471.230	-18.485	0.062	0.050
-470.216	55.866	0.265	0.335
-469.201	-46.874	-0.108	-0.069
-468.186	-88.946	-0.366	-0.140
-467.172	33.688	-0.462	0.523
-466.157	-140.993	-0.321	-0.042
-465.143	-132.414	-0.272	-0.045
-464.128	-157.358	-0.365	-0.028
-463.113	200.573	0.121	0.243
-462.099	-193.101	0.559	0.006
-461.084	-99.700	-0.235	0.076
-460.070	82.639	0.158	-0.223
-459.055	-200.000	0.021	-0.391
-458.040	-200.000	-0.504	-0.000
-457.026	518.259	-0.209	0.641
-456.011	-183.951	-0.410	0.009
-454.997	-147.957	-0.299	0.032
-453.982	57.700	-0.145	-0.185
-452.968	-62.872	-0.346	-0.186
-451.953	-49.815	-0.461	-0.284
-450.938	58.927	0.129	0.165
-449.924	800.000	-0.076	0.397
-448.909	-68.767	-0.197	0.099
-447.895	800.000	-0.039	0.213
-446.880	253.888	-0.076	0.170
-445.865	35.583	-0.221	0.252
-444.851	-200.000	-0.001	-0.215
-443.836	21.129	-0.273	-0.288
-442.822	49.708	0.167	0.205
-441.807	800.000	-0.050	0.221
-440.792	7.577	0.095	0.092
-439.778	-98.126	0.394	-0.131
-438.763	-200.000	0.055	-0.359
-437.749	-80.499	0.372	0.160
-436.734	-174.679	-0.281	-0.010
-435.719	29.960	0.401	-0.444
-434.705	338.204	-0.137	-0.348
-433.690	-200.000	0.019	-0.156
-432.676	16.172	0.312	0.319
-431.661	621.577	-0.066	0.215
-430.646	109.810	0.081	0.127
-429.632	170.035	0.250	-0.466
-428.617	77.547	-0.136	0.189
-427.603	-97.309	-0.304	-0.102
-426.588	-35.765	0.170	-0.119
-425.573	25.488	0.273	0.295
-424.559	407.579	0.147	0.405
-423.544	-28.075	-0.443	-0.332
-422.530	375.928	-0.176	0.469
-421.515	-200.000	0.044	0.311
-420.500	-52.147	0.026	-0.015
-419.486	-55.785	0.050	0.029
-418.471	-33.174	-0.110	-0.079
-417.457	-97.203	0.308	-0.104
-416.442	-96.544	0.539	-0.183
-415.428	11.723	-0.414	-0.413
-414.413	147.560	-0.163	-0.286
-413.398	39.884	0.340	0.397
-412.384	-168.231	0.260	0.013
-411.369	58.916	0.368	0.470
-410.355	-200.000	-0.059	0.422
-409.340	-1.795	-0.474	0.432
-408.325	55.272	0.046	-0.058
-407.311	800.000	0.090	0.481
-406.296	209.578	-0.035	0.071
-405.282	800.000	0.032	0.128
-404.267	-48.794	0.347	-0.216
-403.252	30.408	0.137	-0.151
-402.238	62.945	-0.131	0.170
-401.223	-200.000	-0.000	-0.403
-400.209	100.661	-0.161	0.243
-399.194	-200.000	-0.035	-0.477
-398.179	-47.777	0.297	-0.186
-397.165	-33.565	0.204	-0.146
-396.150	-85.505	-0.322	-0.129
-395.136	-109.878	-0.148	0.040
-394.121	1.405	0.176	-0.164
-393.106	134.063	0.155	-0.261
-392.092	39.749	0.192	0.224
-391.077	-34.469	-0.183	0.130
-390.063	-66.452	0.228	0.117
-389.048	43.744	-0.038	-0.046
-388.033	24.321	0.098	0.105
-387.019	-132.912	-0.121	0.020
-386.004	-200.000	-0.007	-0.765
-384.990	-65.641	-0.213	0.111
-383.975	-122.240	-0.201	0.042
-382.960	-156.217	0.477	0.038
-381.946	-200.000	-0.021	-0.349
-380.931	100.182	0.287	-0.433
-379.917	-200.000	-0.008	-0.488
-378.902	-200.000	-0.055	-0.339
-377.888	-33.048	0.455	0.327
-376.873	-98.467	-0.179	-0.059
-375.858	77.928	-0.276	0.382
-374.844	182.383	0.259	0.497
-373.829	-200.000	0.078	0.458
-372.815	-63.466	0.449	0.239
-371.800	-105.377	0.225	0.066
-370.785	405.072	-0.069	0.191
-369.771	-200.000	-0.050	-0.288
-368.756	130.325	0.293	-0.487
-367.742	-184.611	-0.210	0.004
-366.727	97.516	-0.161	0.240
-365.712	-104.317	-0.209	0.062
-364.698	11.136	0.103	0.102
-363.683	-139.254	0.359	-0.050
-362.669	-64.033	-0.557	-0.294
-361.654	-104.439	-0.413	-0.123
-360.639	694.201	0.093	0.318
-359.625	10.944	-0.447	-0.442
-358.610	-72.526	0.458	0.218
-357.596	-200.000	0.001	-0.045
-356.581	-119.274	-0.545	-0.122
-355.566	76.957	-0.060	0.083
-354.552	-148.207	0.236	0.025
-353.537	464.787	0.075	-0.218
-352.523	-103.460	-0.356	0.108
-351.508	-1.817	-0.366	0.334
-350.493	5.882	-0.222	0.213
-349.479	36.375	0.247	-0.282
-348.464	-100.748	0.372	0.118
-347.450	-200.000	0.029	-0.454
-346.435	-24.302	0.212	0.164
-345.420	-121.508	-0.229	0.049
-344.406	526.915	0.146	-0.448
-343.391	-160.004	0.735	-0.051
-342.377	-119.769	0.247	-0.055
-341.362	112.049	-0.100	0.157
-340.348	-99.211	0.257	0.084
-339.333	-97.100	-0.587	0.197
-338.318	208.927	-0.078	0.158
-337.304	-138.430	0.535	0.075
-336.289	-200.000	0.005	0.196
-335.275	-92.575	-0.049	-0.018
-334.260	-124.460	0.694	0.139
-333.245	-95.559	0.081	0.028
-332.231	-127.850	-0.586	-0.108
-331.216	222.726	0.076	0.159
-330.202	575.146	-0.111	0.354
-329.187	-115.956	0.114	0.027
-328.172	-108.247	-0.152	-0.042
-327.158	219.807	0.051	0.106
-326.143	234.928	0.118	0.253
-325.129	-136.477	-0.107	-0.016
-324.114	177.209	-0.096	0.181
-323.099	-50.499	0.320	-0.195
-322.085	-88.247	-0.213	-0.082
-321.070	429.241	0.144	-0.403
-320.056	-163.158	-0.108	0.007
-319.041	158.127	0.134	0.240
-318.026	-86.551	-0.221	-0.087
-317.012	-66.179	0.427	0.219
-315.997	118.119	-0.046	0.073
-314.983	-7.163	0.324	-0.284
-313.968	-113.868	-0.299	0.075
-312.953	53.585	0.147	-0.182
-311.939	-26.260	0.275	-0.208
-310.924	-130.284	0.728	-0.127
-309.910	-89.065	0.249	-0.095
-308.895	-132.172	0.552	0.092
-307.880	-173.781	0.621	0.023
-306.866	-155.129	-0.122	-0.010
-305.851	5.872	-0.100	0.096
-304.837	52.214	-0.392	-0.484
-303.822	131.457	-0.199	-0.332
-302.807	-200.000	0.059	-0.373
-301.793	-99.503	0.201	-0.065
-300.778	-77.172	0.228	0.102
-299.764	306.447	0.250	-0.605
-298.749	333.229	0.124	-0.310
-297.735	0.256	-0.271	-0.250
-296.720	174.005	-0.169	-0.317
-295.705	-40.461	-0.337	-0.225
-294.691	4.605	0.297	-0.281
-293.676	-53.363	0.249	0.147
-292.662	64.468	0.061	0.079
-291.647	-200.000	-0.026	0.277
-290.632	631.239	-0.190	0.625
-289.618	286.919	-0.154	0.360
-288.603	-67.763	0.155	-0.078
-287.589	800.000	0.113	-0.534
-286.574	800.000	-0.062	0.267
-285.559	-200.000	0.009	-0.086
-284.545	-152.916	-0.386	0.035
-283.530	21.090	0.076	0.080
-282.516	448.644	0.095	0.273
-281.501	-192.998	0.431	-0.005
-280.486	-119.235	-0.114	0.025
-279.472	-5.279	-0.270	0.239
-278.457	-99.315	-0.122	-0.039
-277.443	-11.907	-0.224	0.189
-276.428	-200.000	-0.044	0.340
-275.413	-200.000	-0.027	0.165
-274.399	-200.000	-0.054	0.516
-273.384	-22.277	-0.357	-0.279
-272.370	-174.614	0.237	0.009
-271.355	278.976	0.008	-0.018
-270.340	509.133	-0.041	0.125
-269.326	34.654	-0.185	0.209
-268.311	152.537	0.253	-0.447
-267.297	-200.000	-0.018	0.118
-266.282	-24.587	-0.151	0.116
-265.267	-81.150	-0.313	0.133
-264.253	184.679	0.205	0.393
-263.238	89.930	0.137	0.197
-262.224	-53.199	0.129	-0.076
-261.209	-88.120	-0.164	-0.063
-260.195	287.142	-0.016	0.037
-259.180	-200.000	-0.031	0.355
-258.165	-65.985	0.244	0.125
-257.151	-200.000	0.043	0.286
-256.136	96.627	0.057	0.084
-255.122	-46.687	0.472	-0.297
-254.107	-200.000	0.019	-0.287
-253.092	556.214	-0.051	-0.161
-252.078	-200.000	0.017	-0.213
-251.063	204.681	0.089	0.179
-250.049	18.612	-0.183	-0.189
-249.034	-97.564	0.024	-0.008
-248.019	453.434	0.063	0.181
-247.005	-136.593	-0.289	0.043
-245.990	-117.509	0.378	0.087
-244.976	593.927	-0.095	0.303
-243.961	-176.400	0.481	0.016
-242.946	800.000	-0.094	-0.344
-241.932	455.919	0.079	0.228
-240.917	-82.977	0.288	0.119
-239.903	-162.508	0.378	0.024
-238.888	-106.150	-0.281	0.081
-237.873	800.000	0.163	0.591
-236.859	-70.493	-0.157	0.076
-235.844	-34.440	0.044	-0.031
-234.830	-78.393	-0.277	-0.122
-233.815	-32.193	-0.090	-0.064
-232.800	-200.000	0.030	0.173
-231.786	800.000	0.040	0.197
-230.771	241.571	-0.190	-0.411
-229.757	-193.632	0.323	0.003
-228.742	59.242	0.242	0.307
-227.727	529.942	0.089	0.273
-226.713	-113.775	-0.297	-0.074
-225.698	-200.000	-0.040	0.235
-224.684	10.245	-0.267	0.261
-223.669	-200.000	0.001	0.067
-222.655	371.509	-0.248	-0.652
-221.640	-12.819	-0.389	-0.326
-220.625	399.002	0.076	0.206
-219.611	-37.131	-0.338	-0.233
-218.596	-170.363	0.310	-0.014
-217.582	7.050	0.340	0.327
-216.567	-78.113	-0.287	-0.127
-215.552	-200.000	0.050	-0.333
-214.538	-53.386	-0.238	-0.140
-213.523	-110.766	0.034	-0.009
-212.509	85.445	0.073	0.103
-211.494	27.251	-0.191	-0.207
-210.479	35.622	0.327	-0.370
-209.465	4.997	0.148	-0.140
-208.450	442.551	-0.038	-0.108
-207.436	-200.000	0.050	-0.289
-206.421	194.651	-0.026	0.051
-205.406	-87.690	-0.475	-0.184
-204.392	-80.768	0.334	0.142
-203.377	-200.000	0.015	0.169
-202.363	-140.844	-0.727	0.095
-201.348	-129.124	-0.363	0.065
-200.333	8.576	-0.075	-0.073
-199.319	-130.904	0.164	0.028
-198.304	800.000	-0.079	0.421
-197.290	-120.372	-0.542	-0.118
-196.275	-72.411	-0.112	0.053
-195.260	-200.000	-0.045	-0.383
-194.246	194.844	-0.115	-0.225
-193.231	192.459	0.067	-0.130
-192.217	-200.000	-0.018	0.427
-191.202	-64.122	-0.247	0.129
-190.187	27.100	-0.120	0.130
-189.173	-95.708	-0.141	0.048
-188.158	70.092	0.222	-0.296
-187.144	-200.000	0.018	0.387
-186.129	1.235	0.203	-0.188
-185.114	-24.666	-0.174	-0.133
-184.100	32.687	0.347	-0.386
-183.085	-85.785	-0.171	0.068
-182.071	-128.293	-0.511	0.093
-181.056	-49.500	0.092	-0.056
-180.042	-164.645	0.229	-0.013
-179.027	-131.973	-0.158	0.026
-178.012	-42.672	-0.203	0.133
-176.998	-147.099	-0.156	-0.017
-175.983	-48.212	0.403	-0.249
-174.969	232.600	-0.135	-0.286
-173.954	-71.167	0.324	0.156
-172.939	138.094	0.174	0.294
-171.925	36.966	-0.125	0.142
-170.910	-172.221	0.162	-0.007
-169.896	-47.092	0.063	0.040
-168.881	-54.765	0.134	0.078
-167.866	-65.419	-0.175	0.090
-166.852	-1.327	-0.205	-0.186
-165.837	800.000	-0.030	-0.127
-164.823	-171.625	0.182	0.008
-163.808	-70.632	0.421	0.204
-162.793	222.003	-0.060	-0.125
-161.779	709.278	-0.106	0.363
-160.764	-200.000	-0.052	0.668
-159.750	-50.997	-0.023	0.014
-158.735	-18.933	0.566	-0.452
-157.720	800.000	0.045	0.232
-156.706	-20.791	-0.259	0.204
-155.691	60.513	-0.148	-0.188
-154.677	-113.159	-0.248	0.062
-153.662	-60.185	0.304	0.166
-152.647	-133.233	0.741	0.119
-151.633	180.186	-0.221	-0.417
-150.618	-11.037	-0.418	-0.354
-149.604	-118.379	0.249	-0.056
-148.589	-97.612	-0.244	-0.081
-147.574	-58.415	-0.035	0.019
-146.560	-8.794	-0.388	0.334
-145.545	298.278	-0.156	0.369
-144.531	-200.000	0.033	-0.340
-143.516	-17.610	-0.096	0.077
-142.502	800.000	0.094	0.383
-141.487	0.870	0.348	0.320
-140.472	75.669	-0.208	-0.282
-139.458	-200.000	-0.063	-0.453
-138.443	-200.000	-0.001	0.207
-137.429	-26.421	0.159	0.120
-136.414	476.621	0.010	0.029
-135.399	-92.229	0.144	0.052
-134.385	-131.876	-0.261	0.043
-133.370	-200.000	-0.019	-0.156
-132.356	-27.108	-0.205	0.153
-131.341	135.948	0.192	-0.322
-130.326	-46.061	-0.197	-0.124
-129.312	73.469	0.195	-0.262
-128.297	-83.318	0.344	0.141
-127.283	-110.513	-0.059	0.016
-126.268	78.328	-0.130	-0.178
-125.253	-200.000	0.042	-0.353
-124.239	-88.927	0.211	-0.080
-123.224	-93.811	0.150	-0.053
-122.210	-200.000	-0.038	0.398
