DTS Sentinel unit serial number:	SN409020Multiplexer serial number:	ORYXHardware model number:	OX4-SRSoftware version number:	ORYX F/W v3.00 Oryx Data Collector v3.7.2.0data status	okinstallation	HaddamTimeLapsedifferential loss correction	single-endedforward channel	channel 3reverse channel	N/Adate	2011/06/22time	11:11:01forward acquisition time	30.00reverse acquisition time	0.00gamma	498.7831k internal	0.1766k external	0.1766temperature offset calibration	1.0074default loss term (dB/km)	0.3790temperature slope calibration	1.3530multiplexer offset coefficient	1.0000multiplexer slope coefficient	1.0000fibre end	0.00T internal ref (°C)	29.34T ext. ref 1 (°C)	24.32T ext. ref 2 (°C)	-0.10length (m)	temperature (°C)	Stokes	anti-Stokes-747.200	-78.787	-0.595	-0.266
-746.185	348.719	-0.171	0.446
-745.171	-174.724	-0.509	-0.019
-744.156	9.807	0.321	0.320
-743.142	258.460	0.227	-0.518
-742.127	-200.000	0.000	0.175
-741.112	-75.470	-0.045	0.021
-740.098	373.160	0.187	0.502
-739.083	34.325	-0.410	0.471
-738.069	139.194	-0.179	0.311
-737.054	-26.740	-0.299	-0.230
-736.039	216.447	0.101	-0.213
-735.025	-119.328	0.518	-0.118
-734.010	-111.323	0.149	-0.040
-732.996	115.975	0.267	0.432
-731.981	-200.000	0.035	-0.310
-730.966	-7.910	0.239	0.212
-729.952	-82.885	-0.585	0.247
-728.937	-106.635	-0.475	0.138
-727.923	-86.220	0.117	-0.047
-726.908	0.719	-0.096	-0.091
-725.894	-101.766	-0.581	0.184
-724.879	51.914	-0.268	-0.336
-723.864	-200.000	-0.019	-0.206
-722.850	800.000	-0.123	-0.660
-721.835	-200.000	-0.027	-0.448
-720.821	-113.503	-0.543	0.139
-719.806	-97.053	-0.430	0.147
-718.791	-65.675	0.120	-0.063
-717.777	6.159	-0.072	0.070
-716.762	-94.431	-0.227	-0.081
-715.748	-71.013	0.308	0.152
-714.733	29.946	-0.406	-0.455
-713.718	-63.931	-0.081	0.044
-712.704	-151.377	-0.313	0.030
-711.689	63.902	-0.211	-0.280
-710.675	67.781	-0.301	0.406
-709.660	-78.070	-0.390	0.176
-708.645	800.000	-0.051	0.246
-707.631	-65.682	-0.419	-0.220
-706.616	-97.009	-0.296	-0.101
-705.602	-149.328	0.356	-0.037
-704.587	-116.699	0.215	-0.052
-703.572	189.313	-0.086	0.169
-702.558	-200.000	-0.001	0.178
-701.543	-141.812	0.331	-0.043
-700.529	-70.192	-0.359	0.179
-699.514	-94.106	-0.356	0.128
-698.499	-60.232	0.404	0.226
-697.485	541.468	0.134	-0.423
-696.470	-200.000	0.054	-0.334
-695.456	53.042	0.306	-0.386
-694.441	-95.408	-0.166	0.058
-693.426	123.365	-0.087	0.144
-692.412	221.947	0.147	-0.312
-691.397	-160.481	-0.654	-0.045
-690.383	-119.646	-0.242	-0.055
-689.368	319.358	-0.063	0.158
-688.354	-18.816	0.107	-0.088
-687.339	-126.560	-0.081	0.016
-686.324	-35.869	-0.576	0.409
-685.310	-128.882	-0.216	-0.039
-684.295	92.517	0.380	-0.563
-683.281	-122.487	-0.184	0.039
-682.266	570.892	-0.044	-0.141
-681.251	494.135	0.132	0.400
-680.237	-200.000	0.100	-0.662
-679.222	-143.936	-0.347	-0.042
-678.208	-118.126	0.060	-0.014
-677.193	-59.795	0.342	0.191
-676.178	-102.358	-0.357	0.112
-675.164	-72.828	0.387	-0.186
-674.149	800.000	-0.132	0.505
-673.135	-200.000	-0.008	0.368
-672.120	33.866	0.027	0.031
-671.105	-93.810	-0.083	0.030
-670.091	13.496	-0.187	0.190
-669.076	-62.336	0.494	-0.269
-668.062	-130.924	-0.287	0.050
-667.047	36.669	0.178	0.207
-666.032	-200.000	0.012	-0.162
-665.018	-54.169	0.105	-0.062
-664.003	-200.000	-0.007	-0.252
-662.989	-2.227	-0.155	-0.143
-661.974	-107.627	-0.386	0.110
-660.959	-43.123	-0.328	0.218
-659.945	-89.634	0.294	-0.113
-658.930	-113.185	0.238	0.061
-657.916	-149.338	0.132	0.014
-656.901	-29.043	-0.213	0.160
-655.886	-110.051	0.272	0.074
-654.872	-93.315	0.746	0.270
-653.857	12.182	0.261	-0.263
-652.843	234.821	-0.153	-0.331
-651.828	650.864	0.074	0.249
-650.814	98.212	-0.197	-0.298
-649.799	751.492	0.082	-0.292
-648.784	133.907	-0.134	0.228
-647.770	-188.012	-0.430	-0.007
-646.755	-128.511	-0.359	0.066
-645.741	-129.991	-0.209	-0.037
-644.726	-5.366	-0.020	0.018
-643.711	194.791	0.152	-0.303
-642.697	-113.127	0.053	-0.014
-641.682	-80.491	0.097	-0.042
-640.668	-77.939	0.179	0.081
-639.653	311.530	-0.037	-0.091
-638.638	94.911	-0.230	-0.344
-637.624	-153.573	0.623	-0.056
-636.609	5.047	0.072	0.070
-635.595	-67.626	-0.484	0.248
-634.580	-168.144	0.149	0.007
-633.565	-23.593	-0.181	-0.143
-632.551	134.780	-0.129	-0.220
-631.536	474.209	-0.154	0.459
-630.522	-171.110	0.397	0.017
-629.507	206.245	0.180	0.368
-628.492	-120.075	-0.128	-0.029
-627.478	-70.732	0.355	-0.175
-626.463	-200.000	0.023	0.310
-625.449	162.394	0.141	-0.259
-624.434	-15.407	-0.302	-0.253
-623.419	756.120	0.094	-0.335
-622.405	800.000	0.108	-0.468
-621.390	-91.556	0.382	0.142
-620.376	-97.112	0.648	-0.221
-619.361	-141.144	0.207	0.027
-618.346	778.455	0.103	0.372
-617.332	-200.000	0.004	-0.322
-616.317	156.524	-0.166	-0.301
-615.303	264.792	0.198	0.453
-614.288	20.887	-0.202	0.215
-613.273	265.393	-0.086	0.196
-612.259	-130.389	0.305	0.054
-611.244	-145.562	0.300	0.035
-610.230	-75.678	0.611	0.283
-609.215	-104.035	0.306	-0.093
-608.201	-150.229	-0.322	-0.032
-607.186	-57.163	0.276	0.159
-606.171	-8.623	-0.161	0.142
-605.157	72.498	0.078	-0.107
-604.142	-131.360	-0.313	0.054
-603.128	46.867	-0.285	0.347
-602.113	-33.859	-0.520	-0.374
-601.098	-103.263	-0.394	-0.121
-600.084	-133.183	0.381	0.062
-599.069	28.188	0.232	0.257
-598.055	106.742	0.014	-0.023
-597.040	-35.092	-0.204	0.145
-596.025	20.681	-0.243	-0.257
-595.011	-200.000	0.153	0.000
-593.996	388.060	0.241	-0.655
-592.982	66.626	0.126	-0.169
-591.967	726.607	-0.054	0.189
-590.952	41.552	-0.323	-0.383
-589.938	-138.103	-0.376	0.054
-588.923	-39.935	-0.327	0.223
-587.909	13.366	0.378	0.383
-586.894	64.359	-0.155	0.204
-585.879	-200.000	0.092	0.793
-584.865	-145.817	0.171	0.020
-583.850	-157.239	-0.283	0.022
-582.836	712.325	0.145	0.506
-581.821	473.454	-0.055	0.162
-580.806	49.973	0.132	-0.163
-579.792	-136.486	-0.323	-0.049
-578.777	11.592	-0.256	0.257
-577.763	365.547	0.143	0.380
-576.748	-112.673	-0.154	0.040
-575.733	99.098	-0.140	-0.212
-574.719	-128.583	0.065	0.012
-573.704	-106.907	0.271	0.078
-572.690	124.307	0.244	-0.402
-571.675	-200.000	-0.013	-0.305
-570.661	800.000	0.017	-0.080
-569.646	-200.000	-0.018	0.413
-568.631	-200.000	0.008	-0.533
-567.617	52.345	-0.066	0.082
-566.602	49.180	0.134	-0.164
-565.588	564.625	-0.063	0.201
-564.573	-200.000	-0.006	0.417
-563.558	-36.974	0.027	-0.019
-562.544	117.441	-0.229	-0.369
-561.529	-25.923	0.122	0.094
-560.515	-60.613	-0.126	0.070
-559.500	63.054	0.069	-0.090
-558.485	-71.007	0.141	-0.069
-557.471	162.803	0.300	-0.551
-556.456	98.874	-0.238	-0.360
-555.442	-131.840	-0.146	-0.025
-554.427	-200.000	0.039	-0.356
-553.412	-80.907	-0.085	-0.037
-552.398	252.195	-0.248	0.556
-551.383	-30.364	-0.131	-0.097
-550.369	51.096	0.315	-0.391
-549.354	-200.000	-0.008	-0.180
-548.339	14.928	-0.056	-0.057
-547.325	-83.256	-0.522	-0.218
-546.310	800.000	0.090	0.438
-545.296	-200.000	0.023	0.238
-544.281	6.715	-0.435	-0.423
-543.266	10.436	-0.467	-0.465
-542.252	-17.924	0.379	-0.310
-541.237	-113.406	-0.226	-0.058
-540.223	-200.000	-0.041	0.536
-539.208	-106.160	-0.207	0.060
-538.193	-88.219	0.292	-0.114
-537.179	758.084	0.214	-0.763
-536.164	83.041	0.362	0.516
-535.150	-175.014	-0.448	0.016
-534.135	-115.066	-0.133	0.033
-533.121	-81.817	0.468	0.199
-532.106	159.624	0.253	-0.462
-531.091	-137.131	-0.204	0.030
-530.077	-63.717	0.101	-0.054
-529.062	800.000	0.086	0.329
-528.048	197.310	-0.096	0.193
-527.033	-200.000	0.018	-0.496
-526.018	-56.615	-0.379	-0.219
-525.004	-103.222	-0.700	-0.215
-523.989	19.310	0.291	-0.305
-522.975	-69.451	-0.286	0.143
-521.960	125.020	-0.075	-0.123
-520.945	-89.120	0.323	0.124
-519.931	-65.760	0.273	0.142
-518.916	-159.902	0.328	-0.023
-517.902	451.842	-0.038	0.109
-516.887	574.826	0.040	0.127
-515.872	1.528	0.493	0.463
-514.858	-200.000	0.057	0.512
-513.843	274.549	-0.114	0.265
-512.829	-30.359	0.318	-0.235
-511.814	-110.948	-0.362	-0.096
-510.799	-200.000	0.086	-0.532
-509.785	13.515	-0.682	-0.690
-508.770	44.515	-0.120	0.144
-507.756	-116.656	-0.269	-0.064
-506.741	800.000	-0.019	-0.104
-505.726	52.998	-0.103	-0.128
-504.712	89.933	0.213	0.311
-503.697	-200.000	-0.007	0.067
-502.683	47.775	0.175	-0.213
-501.668	-62.238	-0.520	-0.282
-500.653	36.280	-0.250	0.287
-499.639	-200.000	-0.012	0.574
-498.624	-200.000	-0.243	0.000
-497.610	-76.260	-0.326	0.149
-496.595	-168.492	0.149	0.007
-495.581	-137.059	0.278	0.041
-494.566	-80.859	-0.187	-0.080
-493.551	-200.000	0.005	0.214
-492.537	-23.386	-0.135	0.106
-491.522	800.000	0.017	-0.089
-490.508	-148.977	-0.158	0.016
-489.493	-51.508	0.525	0.319
-488.478	39.022	0.057	0.067
-487.464	-15.321	-0.148	-0.123
-486.449	572.830	-0.201	0.641
-485.435	138.994	0.270	-0.463
-484.420	-107.227	0.369	0.105
-483.405	-200.000	-0.025	0.218
-482.391	94.963	-0.172	-0.255
-481.376	-96.837	0.501	-0.171
-480.362	512.771	0.244	-0.744
-479.347	-21.858	-0.468	0.370
-478.332	-200.000	0.024	-0.395
-477.318	88.486	0.043	0.062
-476.303	117.480	-0.294	0.472
-475.289	-25.786	-0.281	-0.215
-474.274	405.932	-0.063	-0.175
-473.259	46.057	-0.170	0.206
-472.245	161.225	0.226	0.412
-471.230	90.276	0.189	-0.276
-470.216	80.983	0.402	0.566
-469.201	-40.103	-0.155	0.105
-468.186	-61.007	-0.257	0.141
-467.172	-200.000	0.073	0.536
-466.157	97.651	0.043	-0.064
-465.143	-200.000	0.003	0.048
-464.128	312.987	0.227	0.558
-463.113	140.591	0.151	-0.261
-462.099	-200.000	0.019	-0.152
-461.084	-200.000	-0.011	0.076
-460.070	12.143	-0.501	-0.502
-459.055	-200.000	-0.017	-0.405
-458.040	-81.365	0.241	0.103
-457.026	-200.000	0.285	-0.000
-456.011	705.930	-0.132	-0.456
-454.997	-200.000	0.006	-0.229
-453.982	199.892	-0.090	0.180
-452.968	-150.130	0.166	0.017
-451.953	-78.007	-0.748	-0.334
-450.938	800.000	-0.168	-0.780
-449.924	-100.065	0.581	-0.187
-448.909	11.841	-0.265	-0.265
-447.895	-120.793	-0.182	0.040
-446.880	-103.004	0.403	-0.124
-445.865	23.680	0.169	-0.181
-444.851	182.412	0.133	-0.257
-443.836	-79.008	-0.187	-0.083
-442.822	-77.959	-0.362	-0.162
-441.807	-200.000	0.010	-0.073
-440.792	-200.000	-0.007	0.148
-439.778	-200.000	-0.019	0.310
-438.763	176.987	-0.017	0.032
-437.749	198.286	-0.160	0.320
-436.734	-200.000	0.024	0.333
-435.719	-28.229	-0.324	-0.243
-434.705	273.576	-0.201	0.464
-433.690	34.297	-0.155	-0.176
-432.676	800.000	-0.089	0.357
-431.661	50.203	0.209	-0.257
-430.646	61.491	-0.513	-0.665
-429.632	-65.856	0.177	-0.092
-428.617	-90.718	-0.305	0.114
-427.603	-200.000	0.029	0.209
-426.588	-118.431	0.128	-0.029
-425.573	-152.266	0.496	0.046
-424.559	-127.824	-0.375	0.070
-423.544	49.023	0.172	-0.210
-422.530	-136.509	0.178	-0.027
-421.515	-200.000	0.010	0.448
-420.500	65.168	0.169	0.222
-419.486	186.120	0.251	0.487
-418.471	28.733	0.226	0.249
-417.457	-11.848	0.166	0.142
-416.442	-70.205	-0.230	0.113
-415.428	800.000	0.036	-0.183
-414.413	-73.903	0.143	0.067
-413.398	-81.321	0.241	0.103
-412.384	69.003	-0.127	-0.170
-411.369	-200.000	0.002	0.339
-410.355	-200.000	0.010	-0.295
-409.340	495.062	0.041	-0.122
-408.325	105.821	0.186	-0.287
-407.311	-54.092	-0.382	-0.225
-406.296	2.988	-0.358	-0.338
-405.282	59.034	0.226	-0.289
-404.267	153.264	-0.128	-0.229
-403.252	-200.000	0.006	0.111
-402.238	94.238	-0.056	-0.083
-401.223	-200.000	0.055	-0.520
-400.209	85.407	0.096	0.137
-399.194	-66.536	0.132	0.068
-398.179	379.832	0.017	0.044
-397.165	-5.853	0.234	-0.208
-396.150	-53.610	0.768	0.455
-395.136	-47.479	0.361	0.227
-394.121	-113.923	-0.157	0.039
-393.106	-165.935	0.525	-0.029
-392.092	214.967	-0.054	0.111
-391.077	105.966	0.047	-0.072
-390.063	-127.183	-0.326	-0.061
-389.048	83.764	0.210	0.298
-388.033	-200.000	-0.016	0.318
-387.019	-43.162	-0.214	-0.141
-386.004	-200.000	-0.012	-0.338
-384.990	-157.321	-0.675	0.052
-383.975	-14.887	-0.429	0.357
-382.960	-26.309	0.232	0.176
-381.946	-0.934	-0.259	-0.238
-380.931	-54.964	-0.235	0.137
-379.917	-126.956	-0.179	-0.034
-378.902	-45.509	-0.462	0.297
-377.888	-84.672	0.216	-0.088
-376.873	800.000	-0.132	-0.601
-375.858	151.142	-0.053	-0.094
-374.844	126.374	0.233	-0.384
-373.829	800.000	0.090	-0.341
-372.815	26.085	-0.163	-0.176
-371.800	22.133	-0.262	-0.278
-370.785	800.000	-0.089	-0.411
-369.771	63.381	-0.062	0.080
-368.756	-89.413	0.276	-0.105
-367.742	37.835	-0.190	0.219
-366.727	-29.537	-0.345	-0.256
-365.712	-147.224	-0.515	0.056
-364.698	113.310	0.078	-0.124
-363.683	-167.774	-0.366	-0.018
-362.669	-76.945	0.265	-0.120
-361.654	5.206	-0.142	-0.136
-360.639	531.424	-0.208	0.642
-359.625	800.000	0.029	0.147
-358.610	-150.724	0.302	-0.029
-357.596	-200.000	0.052	-0.375
-356.581	-200.000	0.005	-0.540
-355.566	-46.325	-0.115	-0.073
-354.552	-200.000	-0.023	-0.517
-353.537	-121.393	0.228	-0.049
-352.523	-40.698	0.311	-0.208
-351.508	800.000	0.115	-0.549
-350.493	-109.851	0.290	-0.078
-349.479	-116.313	0.093	-0.022
-348.464	-156.177	-0.600	-0.048
-347.450	-200.000	0.007	0.088
-346.435	800.000	0.039	-0.155
-345.420	146.425	-0.160	0.278
-344.406	122.863	-0.171	-0.278
-343.391	-38.223	-0.309	0.212
-342.377	56.360	-0.254	-0.320
-341.362	-200.000	0.025	0.329
-340.348	-200.000	0.016	-0.198
-339.333	134.943	0.185	-0.312
-338.318	-101.509	0.294	-0.092
-337.304	474.277	0.178	-0.522
-336.289	800.000	0.060	-0.218
-335.275	-146.975	0.152	0.017
-334.260	375.316	-0.193	-0.512
-333.245	439.038	-0.134	0.380
-332.231	102.937	-0.223	0.339
-331.216	128.987	0.015	-0.024
-330.202	800.000	-0.107	-0.553
-329.187	298.322	0.034	-0.081
-328.172	0.412	-0.357	-0.330
-327.158	-83.210	-0.400	0.166
-326.143	69.073	-0.339	0.451
-325.129	-147.666	-0.625	-0.067
-324.114	22.178	-0.311	0.329
-323.099	190.386	-0.051	-0.100
-322.085	800.000	-0.043	0.183
-321.070	-54.594	0.348	-0.204
-320.056	38.457	-0.299	-0.345
-319.041	800.000	0.073	0.414
-318.026	-130.351	0.199	-0.035
-317.012	800.000	0.037	-0.200
-315.997	9.278	-0.294	-0.288
-314.983	-200.000	-0.024	0.354
-313.968	-108.695	0.217	0.060
-312.953	-200.000	-0.535	0.000
-311.939	-200.000	-0.024	0.162
-310.924	-88.292	0.604	-0.233
-309.910	207.203	0.175	0.355
-308.895	-83.349	0.235	-0.097
-307.880	126.598	0.105	0.172
-306.866	-104.449	-0.402	0.120
-305.851	-17.753	-0.191	0.155
-304.837	26.756	-0.306	0.332
-303.822	-17.236	0.071	0.058
-302.807	-32.441	-0.504	-0.363
-301.793	508.645	-0.004	0.013
-300.778	450.226	0.063	0.182
-299.764	800.000	-0.095	0.360
-298.749	2.634	-0.162	-0.152
-297.735	-123.671	-0.234	-0.048
-296.720	-48.053	-0.477	0.297
-295.705	152.680	0.234	-0.414
-294.691	-200.000	-0.005	0.279
-293.676	156.836	0.065	0.117
-292.662	295.507	0.132	0.314
-291.647	-185.060	0.293	0.006
-290.632	323.394	0.076	0.188
-289.618	-114.135	0.528	0.131
-288.603	159.101	-0.265	0.478
-287.589	800.000	0.096	0.384
-286.574	98.228	-0.293	0.437
-285.559	-10.693	0.334	0.285
-284.545	-38.744	0.396	-0.270
-283.530	75.897	0.130	0.179
-282.516	-0.151	0.235	-0.216
-281.501	-144.543	-0.147	-0.017
-280.486	-102.427	-0.442	0.136
-279.472	-48.946	-0.346	-0.214
-278.457	-66.671	0.078	-0.040
-277.443	-58.428	-0.416	0.233
-276.428	454.410	-0.293	-0.845
-275.413	67.642	0.123	-0.163
-274.399	-48.241	-0.317	-0.198
-273.384	67.752	0.214	0.283
-272.370	-200.000	-0.018	0.772
-271.355	29.531	0.166	-0.183
-270.340	245.062	0.332	0.724
-269.326	-124.919	-0.372	-0.074
-268.311	-37.466	0.381	-0.262
-267.297	164.427	0.183	-0.335
-266.282	735.683	0.085	-0.297
-265.267	-133.993	0.036	0.006
-264.253	-152.669	0.468	0.043
-263.238	-200.000	0.078	0.581
-262.224	-200.000	-0.088	0.528
-261.209	204.431	-0.095	0.190
-260.195	800.000	-0.120	0.624
-259.180	-88.187	0.176	-0.068
-258.165	79.767	0.300	0.417
-257.151	-167.526	-0.423	-0.022
-256.136	800.000	0.052	0.201
-255.122	800.000	0.063	0.238
-254.107	-200.000	0.018	-0.313
-253.092	-200.000	0.025	0.367
-252.078	289.542	0.084	-0.197
-251.063	-24.810	0.515	0.394
-250.049	134.177	-0.128	0.214
-249.034	427.631	0.007	0.018
-248.019	-97.786	0.408	-0.136
-247.005	-113.909	-0.118	0.029
-245.990	-86.885	0.431	0.169
-244.976	92.663	-0.129	-0.188
-243.961	-62.205	-0.113	0.060
-242.946	-200.000	0.042	0.309
-241.932	-190.771	0.421	-0.006
-240.917	422.220	-0.020	0.057
-239.903	800.000	0.093	-0.459
-238.888	-126.756	-0.071	0.013
-237.873	51.186	-0.187	0.230
-236.859	-97.594	0.309	0.103
-235.844	-94.633	-0.323	0.113
-234.830	-37.806	-0.353	-0.242
-233.815	4.732	0.178	-0.169
-232.800	-111.070	-0.198	0.052
-231.786	-107.167	0.311	0.088
-230.771	322.074	0.022	-0.054
-229.757	-200.000	0.008	-0.132
-228.742	710.240	0.061	0.208
-227.727	23.982	0.180	-0.192
-226.713	800.000	-0.059	0.239
-225.698	84.782	0.233	-0.330
-224.684	184.148	0.037	-0.071
-223.669	-128.683	0.427	0.077
-222.655	42.867	0.281	-0.331
-221.640	74.332	0.050	-0.067
-220.625	71.655	-0.055	0.074
-219.611	-47.966	0.100	0.062
-218.596	149.093	0.095	-0.167
-217.582	-60.806	-0.289	0.157
-216.567	-34.198	0.215	0.152
-215.552	-53.395	-0.147	0.086
-214.538	-7.363	0.258	-0.225
-213.523	7.073	0.305	-0.294
-212.509	83.866	0.183	-0.258
-211.494	-200.000	-0.001	-0.205
-210.479	305.033	0.111	-0.267
-209.465	-200.000	0.063	0.555
-208.450	-200.000	0.008	0.425
-207.436	557.648	-0.168	0.527
-206.421	-133.004	-0.268	0.044
-205.406	83.945	0.175	0.247
-204.392	186.101	-0.089	0.171
-203.377	-87.617	0.253	-0.098
-202.363	-78.766	0.174	0.076
-201.348	110.746	0.108	0.168
-200.333	244.820	-0.094	-0.204
-199.319	-200.000	0.002	-0.440
-198.304	13.290	0.160	-0.159
-197.290	304.142	0.182	-0.438
-196.275	-84.625	-0.182	-0.073
-195.260	97.580	0.264	0.392
-194.246	-54.177	0.227	-0.133
-193.231	-61.999	-0.448	-0.241
-192.217	27.508	0.095	-0.104
-191.202	-0.725	0.413	-0.377
-190.187	178.895	0.179	0.339
-189.173	-56.764	0.529	-0.300
-188.158	-51.631	-0.504	-0.302
-187.144	-102.037	0.431	-0.133
-186.129	800.000	0.087	0.368
-185.114	-80.821	-0.413	0.176
-184.100	62.354	-0.160	0.206
-183.085	-102.714	0.378	0.115
-182.071	11.064	0.303	-0.298
-181.056	310.773	0.214	-0.518
-180.042	-64.282	0.448	0.234
-179.027	7.608	-0.049	0.047
-178.012	61.361	0.073	0.094
-176.998	-57.383	0.122	0.069
-175.983	164.863	0.116	0.211
-174.969	-108.132	0.294	0.081
-173.954	800.000	-0.079	0.286
-172.939	3.898	-0.199	0.187
-171.925	-152.156	0.238	0.022
-170.910	-83.124	-0.450	0.186
-169.896	-44.376	0.426	-0.274
-168.881	-200.000	-0.019	-0.396
-167.866	72.195	0.083	0.111
-166.852	-55.654	-0.418	-0.240
-165.837	-90.290	-0.200	0.074
-164.823	-4.885	0.068	0.060
-163.808	51.998	-0.339	0.415
-162.793	-67.766	0.098	-0.049
-161.779	86.022	0.139	-0.198
-160.764	543.941	-0.165	-0.511
-159.750	240.075	0.137	-0.295
-158.735	-200.000	0.042	0.281
-157.720	-36.736	-0.408	0.281
-156.706	-42.075	0.180	0.119
-155.691	449.362	0.066	0.187
-154.677	-69.845	-0.474	0.232
-153.662	800.000	-0.085	0.440
-152.647	64.509	0.406	0.527
-151.633	800.000	0.094	0.378
-150.618	196.699	0.221	-0.434
-149.604	-200.000	-0.086	-0.000
-148.589	-121.327	0.475	-0.101
-147.574	80.143	0.216	0.300
-146.560	-25.098	-0.240	-0.183
-145.545	167.282	-0.075	0.137
-144.531	187.500	-0.153	-0.294
-143.516	105.783	-0.216	-0.329
-142.502	800.000	0.128	-0.470
-141.487	619.573	0.107	0.349
-140.472	267.573	0.060	-0.135
-139.458	31.396	0.377	-0.417
-138.443	447.180	0.075	-0.214
-137.429	274.015	-0.055	0.125
-136.414	-85.480	-0.204	0.081
-135.399	-130.895	0.529	0.090
-134.385	-88.363	0.498	-0.190
-133.370	-200.000	-0.017	-0.181
-132.356	340.263	0.085	0.215
-131.341	12.481	-0.017	0.017
-130.326	-176.025	0.388	0.013
-129.312	-75.549	0.083	0.038
-128.297	-45.325	0.102	-0.065
-127.283	20.736	-0.306	0.318
-126.268	73.711	-0.254	-0.343
-125.253	-157.496	0.237	0.018
-124.239	-8.539	-0.192	-0.166
-123.224	-4.822	0.178	-0.158
-122.210	40.613	0.286	0.332
-121.195	-22.239	0.210	0.164
-120.180	-111.872	0.663	-0.171
