DTS Sentinel unit serial number:	SN409020Multiplexer serial number:	ORYXHardware model number:	OX4-SRSoftware version number:	ORYX F/W v3.00 Oryx Data Collector v3.7.2.0data status	okinstallation	HaddamTimeLapsedifferential loss correction	single-endedforward channel	channel 3reverse channel	N/Adate	2011/06/21time	23:26:17forward acquisition time	30.00reverse acquisition time	0.00gamma	498.7831k internal	0.1754k external	0.1754temperature offset calibration	1.0074default loss term (dB/km)	0.3790temperature slope calibration	1.3530multiplexer offset coefficient	1.0000multiplexer slope coefficient	1.0000fibre end	0.00T internal ref (°C)	23.28T ext. ref 1 (°C)	18.66T ext. ref 2 (°C)	0.06length (m)	temperature (°C)	Stokes	anti-Stokes-747.200	-30.432	0.095	-0.072
-746.185	-58.492	0.211	0.121
-745.171	-17.995	0.396	-0.329
-744.156	77.658	-0.249	0.353
-743.142	-146.634	-0.498	-0.057
-742.127	-32.248	-0.438	0.323
-741.112	-13.770	0.018	0.015
-740.098	281.268	0.108	0.258
-739.083	-96.546	-0.047	-0.016
-738.069	111.455	-0.200	0.321
-737.054	-88.241	-0.324	-0.128
-736.039	-46.665	-0.188	0.122
-735.025	15.991	-0.005	-0.005
-734.010	-158.567	0.416	-0.031
-732.996	67.992	0.055	0.074
-731.981	-55.351	0.169	-0.101
-730.966	1.250	-0.172	-0.164
-729.952	-112.571	0.447	-0.117
-728.937	-41.632	0.303	-0.206
-727.923	113.591	-0.253	-0.407
-726.908	-10.810	-0.230	0.202
-725.894	-200.000	-0.010	-0.285
-724.879	800.000	-0.027	0.149
-723.864	484.262	0.048	-0.145
-722.850	65.007	0.174	-0.233
-721.835	65.943	-0.182	0.245
-720.821	53.601	0.162	-0.206
-719.806	-200.000	0.046	-0.333
-718.791	-91.654	-0.692	0.260
-717.777	-173.177	0.267	0.011
-716.762	99.555	0.146	0.225
-715.748	277.154	0.042	0.098
-714.733	-106.032	0.414	0.123
-713.718	-131.288	-0.353	-0.061
-712.704	-19.536	-0.134	-0.109
-711.689	-32.820	-0.199	-0.146
-710.675	-83.793	0.229	-0.096
-709.660	-171.967	-0.130	-0.005
-708.645	179.766	0.302	-0.587
-707.631	-154.810	-0.244	-0.021
-706.616	397.458	0.217	-0.605
-705.602	-178.497	0.253	-0.008
-704.587	800.000	-0.110	-0.424
-703.572	-125.868	-0.676	-0.134
-702.558	-120.217	0.241	-0.054
-701.543	-167.823	-0.267	-0.014
-700.529	170.937	0.174	0.331
-699.514	294.057	-0.164	0.399
-698.499	-107.409	-0.223	0.064
-697.485	443.506	-0.154	0.448
-696.470	-94.674	-0.100	-0.036
-695.456	-119.150	-0.224	-0.051
-694.441	-167.437	0.402	0.021
-693.426	25.153	0.338	0.371
-692.412	-200.000	-0.013	-0.232
-691.397	-114.067	-0.533	0.136
-690.383	18.733	-0.365	0.386
-689.368	-31.276	-0.053	-0.039
-688.354	115.148	0.158	0.255
-687.339	-75.787	-0.406	0.190
-686.324	800.000	-0.055	0.303
-685.310	-29.284	0.300	0.227
-684.295	-39.002	0.111	0.077
-683.281	-200.000	-0.018	-0.178
-682.266	-14.146	0.301	-0.257
-681.251	-200.000	0.050	-0.301
-680.237	217.115	0.132	-0.278
-679.222	-200.000	-0.034	-0.228
-678.208	-130.974	-0.456	-0.080
-677.193	-52.963	-0.070	0.043
-676.178	23.632	0.251	0.274
-675.164	-60.900	0.213	-0.119
-674.149	-200.000	-0.089	-0.642
-673.135	-200.000	0.041	-0.240
-672.120	215.474	0.178	0.376
-671.105	-141.168	-0.283	-0.038
-670.091	-52.245	-0.262	-0.160
-669.076	154.562	-0.303	-0.552
-668.062	82.882	-0.165	-0.238
-667.047	-145.861	-0.446	-0.052
-666.032	-51.065	-0.489	0.302
-665.018	507.275	-0.058	0.180
-664.003	729.295	0.081	0.287
-662.989	-42.909	0.071	0.047
-661.974	-143.564	-0.375	0.047
-660.959	197.119	0.186	-0.376
-659.945	-83.568	-0.446	-0.188
-658.930	-123.954	-0.554	0.114
-657.916	422.354	-0.156	-0.444
-656.901	-89.184	-0.347	-0.135
-655.886	-146.451	0.220	-0.025
-654.872	158.438	-0.214	0.393
-653.857	-130.687	-0.474	-0.083
-652.843	18.278	0.050	-0.053
-651.828	112.546	0.143	0.230
-650.814	-82.267	-0.054	0.023
-649.799	48.781	-0.179	0.222
-648.784	-200.000	-0.021	-0.324
-647.770	-31.097	0.292	-0.217
-646.755	-108.256	-0.561	0.159
-645.741	149.470	0.131	0.235
-644.726	698.274	-0.052	-0.181
-643.711	-200.000	0.065	-0.402
-642.697	-97.398	0.616	-0.211
-641.682	800.000	0.051	0.241
-640.668	-101.677	-0.256	-0.081
-639.653	233.251	0.051	-0.112
-638.638	34.193	0.421	-0.485
-637.624	-200.000	0.081	0.523
-636.609	-84.052	0.215	0.090
-635.595	179.564	0.125	0.243
-634.580	17.349	-0.216	0.227
-633.565	76.139	-0.150	-0.210
-632.551	-125.389	-0.152	-0.030
-631.536	274.620	-0.147	-0.345
-630.522	-49.288	-0.455	0.286
-629.507	-52.788	-0.511	-0.310
-628.492	311.323	0.103	-0.255
-627.478	-200.000	0.003	0.150
-626.463	313.200	-0.107	-0.266
-625.449	-200.000	-0.039	-0.519
-624.434	67.508	0.323	-0.436
-623.419	119.097	-0.280	0.457
-622.405	-129.202	-0.180	-0.033
-621.390	-54.092	0.540	-0.323
-620.376	-93.248	-0.380	-0.139
-619.361	150.528	0.115	0.206
-618.346	-93.720	-0.222	-0.080
-617.332	800.000	-0.057	0.290
-616.317	54.141	-0.219	-0.278
-615.303	-200.000	-0.041	0.450
-614.288	89.900	0.210	-0.310
-613.273	800.000	-0.068	0.267
-612.259	800.000	0.075	-0.292
-611.244	-110.710	0.429	0.116
-610.230	-23.745	0.038	-0.030
-609.215	319.775	-0.074	-0.185
-608.201	-111.737	0.314	-0.083
-607.186	800.000	-0.109	0.451
-606.171	-124.767	-0.179	-0.036
-605.157	-46.740	-0.142	0.091
-604.142	-145.282	-0.022	0.003
-603.128	72.496	-0.202	-0.278
-602.113	-191.487	-0.397	-0.005
-601.098	-46.278	0.212	-0.137
-600.084	800.000	0.017	0.085
-599.069	-104.293	-0.228	-0.069
-598.055	-130.569	0.113	0.020
-597.040	-200.000	0.010	0.388
-596.025	318.746	-0.097	0.244
-595.011	17.576	0.136	0.143
-593.996	-160.707	-0.780	0.054
-592.982	-156.446	-0.210	0.017
-591.967	240.925	-0.190	0.419
-590.952	-148.068	0.394	0.043
-589.938	33.688	0.256	-0.293
-588.923	-200.000	-0.010	0.460
-587.909	107.105	-0.105	-0.165
-586.894	360.033	0.105	-0.279
-585.879	-69.715	-0.143	0.072
-584.865	800.000	-0.063	0.288
-583.850	-10.102	-0.437	0.382
-582.836	273.732	-0.111	0.259
-581.821	-90.134	-0.410	-0.156
-580.806	50.345	0.261	-0.325
-579.792	-200.000	0.014	0.283
-578.777	-71.050	-0.491	-0.243
-577.763	658.091	-0.125	-0.426
-576.748	-105.173	0.331	0.099
-575.733	100.189	-0.214	0.328
-574.719	-3.551	-0.362	-0.331
-573.704	-62.328	-0.584	0.319
-572.690	-59.858	-0.434	0.244
-571.675	-112.066	0.101	-0.027
-570.661	19.009	0.188	-0.199
-569.646	-58.079	0.221	-0.127
-568.631	-200.000	0.073	-0.428
-567.617	-95.429	0.417	0.147
-566.602	-58.933	-0.404	-0.229
-565.588	800.000	0.078	-0.393
-564.573	20.529	0.162	-0.172
-563.558	95.022	0.211	-0.317
-562.544	-6.339	-0.368	0.330
-561.529	-22.352	0.270	-0.215
-560.515	-133.078	0.109	0.018
-559.500	-25.702	0.077	-0.059
-558.485	50.399	0.082	0.103
-557.471	21.015	-0.012	-0.013
-556.456	800.000	-0.050	0.188
-555.442	-102.093	-0.208	0.066
-554.427	-57.070	-0.282	-0.163
-553.412	-37.004	-0.319	-0.225
-552.398	28.534	-0.387	-0.431
-551.383	-80.725	-0.156	-0.068
-550.369	-55.677	-0.445	-0.261
-549.354	166.012	0.128	-0.239
-548.339	1.640	0.219	0.207
-547.325	-78.827	-0.136	0.061
-546.310	-8.118	0.248	0.220
-545.296	-200.000	-0.000	0.205
-544.281	129.168	0.197	-0.331
-543.266	-174.678	-0.223	0.008
-542.252	-140.064	0.230	-0.032
-541.237	-11.703	0.135	0.116
-540.223	97.570	0.113	0.171
-539.208	-26.066	-0.469	-0.362
-538.193	800.000	0.064	-0.291
-537.179	-120.373	0.468	0.104
-536.164	186.786	-0.178	-0.349
-535.150	-87.489	0.341	-0.135
-534.135	-23.248	-0.272	-0.215
-533.121	414.456	0.137	-0.387
-532.106	-58.015	0.258	-0.148
-531.091	43.641	0.226	-0.272
-530.077	163.340	0.184	0.341
-529.062	71.022	-0.040	-0.054
-528.048	135.624	-0.075	0.128
-527.033	-178.386	-0.250	0.008
-526.018	0.223	-0.205	0.192
-525.004	10.180	0.121	-0.121
-523.989	-200.000	-0.027	0.221
-522.975	-200.000	-0.007	0.362
-521.960	-200.000	-0.032	-0.225
-520.945	53.614	-0.334	0.421
-519.931	-200.000	-0.019	-0.177
-518.916	95.635	0.209	0.314
-517.902	-200.000	0.004	-0.074
-516.887	96.174	0.159	0.240
-515.872	800.000	-0.028	-0.134
-514.858	-127.098	-0.168	-0.032
-513.843	-73.837	-0.292	0.139
-512.829	-200.000	-0.048	0.332
-511.814	1.411	0.320	0.302
-510.799	-82.052	0.349	0.149
-509.785	-83.995	0.362	-0.151
-508.770	342.590	0.196	-0.507
-507.756	-112.770	-0.524	-0.136
-506.741	466.343	0.124	0.368
-505.726	-68.951	-0.219	-0.110
-504.712	-43.465	-0.205	0.136
-503.697	-86.253	0.283	0.114
-502.683	-39.507	-0.458	0.315
-501.668	-110.915	-0.422	-0.113
-500.653	-82.850	-0.205	-0.087
-499.639	134.636	-0.311	0.531
-498.624	-167.636	-0.563	0.029
-497.610	163.096	0.008	-0.014
-496.595	-152.846	-0.289	-0.027
-495.581	-65.062	-0.192	-0.102
-494.566	-94.311	-0.310	0.110
-493.551	-118.779	-0.566	0.130
-492.537	-180.129	-0.270	0.007
-491.522	43.039	-0.063	-0.076
-490.508	55.506	0.073	0.092
-489.493	-147.084	0.710	-0.079
-488.478	539.413	0.103	-0.323
-487.464	147.228	0.081	-0.143
-486.449	-118.371	0.160	0.037
-485.435	-35.293	-0.613	0.437
-484.420	-73.527	0.679	-0.324
-483.405	-94.525	-0.312	-0.111
-482.391	20.958	-0.059	-0.063
-481.376	-164.337	-0.148	0.009
-480.362	494.748	-0.024	-0.072
-479.347	-144.309	0.243	-0.029
-478.332	-200.000	0.027	0.234
-477.318	-18.857	-0.161	-0.131
-476.303	-167.672	0.285	0.015
-475.289	-92.986	-0.175	0.064
-474.274	-21.829	-0.419	0.334
-473.259	-70.799	-0.156	-0.077
-472.245	-161.860	0.744	-0.049
-471.230	-90.341	0.318	0.120
-470.216	13.996	0.449	0.458
-469.201	102.660	-0.142	-0.218
-468.186	-9.143	0.079	-0.070
-467.172	-31.346	0.100	0.074
-466.157	-38.015	-0.377	0.262
-465.143	800.000	-0.044	-0.240
-464.128	-142.967	0.640	-0.080
-463.113	22.809	0.453	0.487
-462.099	60.876	0.457	0.595
-461.084	-24.162	0.408	0.319
-460.070	-91.448	0.530	0.197
-459.055	-200.000	-0.027	-0.190
-458.040	-167.271	-0.425	0.022
-457.026	14.045	-0.130	-0.132
-456.011	-161.005	-0.451	0.031
-454.997	-185.750	-0.277	0.005
-453.982	-200.000	-0.002	0.205
-452.968	-200.000	0.050	0.683
-451.953	48.748	0.364	-0.448
-450.938	-118.165	-0.179	0.042
-449.924	196.057	-0.118	0.237
-448.909	137.372	-0.083	-0.142
-447.895	800.000	-0.146	0.545
-446.880	355.756	-0.200	-0.524
-445.865	800.000	0.053	-0.270
-444.851	32.766	0.136	-0.154
-443.836	-53.013	-0.399	0.240
-442.822	-100.859	0.260	0.083
-441.807	120.886	-0.423	0.690
-440.792	114.611	-0.135	0.216
-439.778	68.684	0.111	0.150
-438.763	145.250	-0.090	-0.158
-437.749	41.645	0.148	0.176
-436.734	376.214	-0.094	-0.253
-435.719	800.000	-0.070	-0.284
-434.705	-180.695	0.467	-0.012
-433.690	-61.302	0.160	0.088
-432.676	800.000	-0.146	-0.660
-431.661	-97.882	-0.428	-0.144
-430.646	-27.921	0.350	0.265
-429.632	-130.195	0.155	-0.027
-428.617	89.339	0.167	0.245
-427.603	40.244	-0.206	0.243
-426.588	-166.829	-0.352	-0.019
-425.573	-200.000	-0.003	0.067
-424.559	-108.917	0.213	-0.059
-423.544	-115.408	-0.415	0.102
-422.530	54.458	0.254	0.320
-421.515	800.000	-0.108	-0.511
-420.500	-200.000	-0.007	-0.402
-419.486	-200.000	0.033	0.323
-418.471	181.562	-0.222	-0.429
-417.457	325.177	0.097	0.244
-416.442	-21.747	0.316	-0.251
-415.428	-137.635	-0.436	0.064
-414.413	608.033	-0.170	-0.559
-413.398	134.571	0.158	-0.269
-412.384	5.752	0.057	0.056
-411.369	187.989	0.256	0.503
-410.355	-126.416	0.500	0.097
-409.340	-64.910	0.228	-0.120
-408.325	211.798	-0.173	-0.358
-407.311	-166.081	0.253	-0.014
-406.296	35.138	-0.259	-0.297
-405.282	-0.193	-0.057	-0.053
-404.267	-39.429	0.203	-0.139
-403.252	-100.576	-0.400	0.129
-402.238	-41.637	0.335	0.225
-401.223	-102.962	-0.171	0.053
-400.209	-128.003	0.189	0.035
-399.194	800.000	0.036	-0.207
-398.179	-200.000	0.267	0.001
-397.165	800.000	-0.093	-0.389
-396.150	800.000	-0.072	0.327
-395.136	57.836	0.301	0.386
-394.121	24.147	0.039	-0.042
-393.106	48.065	-0.205	0.251
-392.092	800.000	0.102	0.515
-391.077	-71.750	-0.422	-0.205
-390.063	-200.000	0.008	0.130
-389.048	107.139	0.174	0.272
-388.033	-132.706	0.230	-0.038
-387.019	-71.447	0.431	0.210
-386.004	-98.646	0.062	-0.021
-384.990	800.000	-0.040	-0.224
-383.975	-83.267	0.221	-0.092
-382.960	695.905	0.054	-0.188
-381.946	-200.000	0.023	-0.465
-380.931	86.205	-0.159	-0.229
-379.917	-107.785	0.653	-0.185
-378.902	488.471	-0.029	-0.086
-377.888	-200.000	-0.036	0.308
-376.873	-73.708	-0.403	0.191
-375.858	-200.000	0.003	-0.250
-374.844	-107.866	-0.397	0.112
-373.829	-20.889	-0.078	-0.062
-372.815	-118.370	-0.111	0.026
-371.800	-153.137	0.427	0.039
-370.785	-175.212	0.410	-0.015
-369.771	-26.030	0.340	0.261
-368.756	-200.000	-0.027	0.230
-367.742	129.512	-0.226	0.379
-366.727	57.312	-0.165	-0.211
-365.712	97.968	-0.214	-0.322
-364.698	-69.655	-0.109	0.054
-363.683	37.949	-0.034	-0.039
-362.669	-94.953	0.445	0.157
-361.654	-30.505	0.155	0.115
-360.639	-37.928	0.243	0.169
-359.625	-70.101	0.026	-0.013
-358.610	-19.240	0.520	-0.421
-357.596	-200.000	-0.002	-0.110
-356.581	-139.554	0.443	-0.061
-355.566	-200.000	0.013	-0.439
-354.552	-134.687	0.344	0.054
-353.537	-90.697	-0.425	-0.160
-352.523	104.972	0.124	-0.192
-351.508	-109.945	-0.496	0.135
-350.493	800.000	0.048	-0.260
-349.479	800.000	-0.059	-0.236
-348.464	-38.524	0.183	-0.126
-347.450	-119.147	0.391	0.089
-346.435	120.581	-0.048	-0.078
-345.420	414.127	-0.080	0.223
-344.406	2.534	-0.131	0.124
-343.391	-123.464	-0.155	-0.032
-342.377	-102.093	-0.554	0.173
-341.362	-126.428	-0.190	-0.037
-340.348	-6.562	0.148	-0.132
-339.333	-77.036	0.148	-0.067
-338.318	124.541	0.100	-0.165
-337.304	-200.000	-0.017	0.181
-336.289	-200.000	0.056	-0.624
-335.275	-99.968	-0.092	0.030
-334.260	-200.000	0.067	-0.500
-333.245	800.000	-0.114	-0.538
-332.231	2.984	0.290	-0.274
-331.216	-98.454	-0.274	0.091
-330.202	-11.087	-0.239	0.206
-329.187	52.403	0.378	0.472
-328.172	44.117	0.164	0.196
-327.158	47.720	0.053	-0.064
-326.143	79.913	-0.294	-0.413
-325.129	33.774	0.348	0.395
-324.114	-93.318	0.243	-0.088
-323.099	-35.514	0.270	0.191
-322.085	-49.608	-0.466	-0.288
-321.070	127.966	0.106	-0.177
-320.056	3.462	-0.089	-0.085
-319.041	800.000	0.020	0.074
-318.026	-14.643	0.191	0.160
-317.012	36.274	0.169	0.194
-315.997	78.051	0.081	0.113
-314.983	800.000	-0.077	-0.335
-313.968	-74.930	0.163	-0.076
-312.953	800.000	0.076	-0.327
-311.939	-8.453	0.178	-0.156
-310.924	-147.814	0.268	-0.029
-309.910	317.358	0.184	-0.456
-308.895	-96.255	0.123	-0.042
-307.880	-69.687	0.554	0.275
-306.866	368.277	0.056	0.149
-305.851	378.398	-0.047	-0.126
-304.837	-140.083	0.524	-0.071
-303.822	-37.967	0.200	-0.138
-302.807	-82.958	0.282	-0.118
-301.793	19.959	0.363	-0.381
-300.778	38.925	0.203	-0.237
-299.764	800.000	0.131	-0.547
-298.749	12.087	0.328	0.329
-297.735	-74.547	0.254	0.119
-296.720	84.298	0.089	0.128
-295.705	-38.516	0.320	0.220
-294.691	-77.369	-0.583	0.263
-293.676	-200.000	0.026	-0.227
-292.662	106.633	-0.130	0.201
-291.647	-200.000	-0.030	0.192
-290.632	-86.004	-0.336	-0.135
-289.618	2.716	0.477	-0.450
-288.603	-200.000	-0.015	-0.104
-287.589	426.043	0.117	-0.330
-286.574	800.000	-0.109	0.467
-285.559	221.222	-0.120	0.251
-284.545	8.231	-0.193	-0.189
-283.530	-51.398	0.430	-0.261
-282.516	-14.288	-0.179	0.150
-281.501	68.290	0.069	-0.092
-280.486	17.125	0.130	0.134
-279.472	-38.679	0.195	-0.134
-278.457	19.282	-0.304	-0.318
-277.443	-6.948	-0.220	-0.194
-276.428	-138.170	-0.156	-0.022
-275.413	-200.000	-0.044	-0.766
-274.399	-150.136	0.153	-0.015
-273.384	-143.526	0.694	0.085
-272.370	-38.329	0.408	0.281
-271.355	-164.078	-0.120	-0.007
-270.340	-200.000	-0.045	0.356
-269.326	-70.334	0.319	0.157
-268.311	-92.985	0.208	-0.075
-267.297	-200.000	-0.002	-0.032
-266.282	92.048	-0.056	-0.082
-265.267	120.191	0.234	0.379
-264.253	52.053	-0.333	0.413
-263.238	424.137	0.070	0.197
-262.224	-141.603	-0.577	-0.075
-261.209	3.312	0.381	0.361
-260.195	-133.337	-0.158	-0.026
-259.180	63.621	-0.145	0.189
-258.165	142.189	0.289	0.500
-257.151	668.339	-0.156	0.527
-256.136	56.454	0.075	-0.095
-255.122	528.079	-0.051	0.159
-254.107	217.471	0.078	0.162
-253.092	-200.000	0.007	0.138
-252.078	329.889	0.109	0.275
-251.063	28.300	-0.122	0.134
-250.049	16.261	0.246	-0.253
-249.034	-90.435	0.167	-0.063
-248.019	-177.443	-0.564	0.018
-247.005	-66.696	-0.430	-0.221
-245.990	-5.701	-0.404	-0.360
-244.976	-200.000	0.062	-0.497
-243.961	-120.266	0.092	0.020
-242.946	800.000	-0.083	0.330
-241.932	294.875	0.088	-0.211
-240.917	308.141	-0.258	0.629
-239.903	61.482	0.177	-0.229
-238.888	-200.000	0.017	-0.132
-237.873	61.429	-0.319	-0.413
-236.859	-200.000	-0.031	0.180
-235.844	235.269	-0.099	-0.214
-234.830	-120.566	0.412	0.090
-233.815	-108.217	0.231	0.064
-232.800	-14.071	-0.226	-0.189
-231.786	212.082	0.108	-0.221
-230.771	-86.456	-0.224	0.089
-229.757	50.601	0.240	0.296
-228.742	671.128	0.043	-0.144
-227.727	-200.000	0.003	0.091
-226.713	558.226	0.071	-0.225
-225.698	-65.098	0.709	0.370
-224.684	360.331	-0.069	0.180
-223.669	173.361	-0.197	-0.370
-222.655	-104.944	0.259	-0.077
-221.640	-200.000	-0.438	-0.002
-220.625	7.859	0.324	-0.315
-219.611	-107.690	0.098	-0.028
-218.596	506.447	-0.085	0.258
-217.582	-26.139	-0.420	-0.320
-216.567	-200.000	0.032	-0.314
-215.552	146.597	0.374	0.654
-214.538	800.000	0.116	0.514
-213.523	4.388	-0.139	-0.132
-212.509	-165.184	-0.778	-0.044
-211.494	538.382	-0.083	-0.257
-210.479	-46.476	-0.298	0.189
-209.465	-200.000	-0.006	0.374
-208.450	70.704	-0.096	-0.129
-207.436	126.436	-0.216	-0.356
-206.421	-190.082	0.271	-0.004
-205.406	-180.822	0.334	0.009
-204.392	-61.667	-0.234	-0.127
-203.377	619.033	0.028	0.093
-202.363	-27.207	0.215	-0.162
-201.348	800.000	-0.114	-0.458
-200.333	-10.105	-0.230	0.198
-199.319	-164.005	-0.387	-0.023
-198.304	800.000	0.101	0.434
-197.290	358.909	0.035	-0.092
-196.275	-51.597	-0.416	0.251
-195.260	-21.346	0.188	0.149
-194.246	75.458	-0.183	-0.252
-193.231	25.840	0.573	-0.620
-192.217	-96.401	-0.151	0.052
-191.202	-132.365	-0.223	-0.037
-190.187	-107.486	-0.181	0.051
-189.173	23.490	-0.308	0.329
-188.158	-43.925	0.337	0.219
-187.144	73.812	0.441	0.600
-186.129	-82.058	-0.503	0.212
-185.114	81.367	-0.045	0.063
-184.100	-200.000	0.008	0.484
-183.085	800.000	-0.022	0.104
-182.071	122.577	0.140	0.228
-181.056	-200.000	0.026	0.337
-180.042	-177.785	0.143	0.004
-179.027	138.689	-0.301	0.514
-178.012	276.188	-0.127	0.293
-176.998	800.000	0.026	0.147
-175.983	-132.899	-0.186	-0.031
-174.969	105.560	-0.205	-0.315
-173.954	330.902	0.121	-0.303
-172.939	-120.981	0.099	0.021
-171.925	150.063	0.054	-0.096
-170.910	269.107	-0.143	0.326
-169.896	-22.020	-0.372	0.293
-168.881	-197.620	0.521	-0.004
-167.866	-200.000	-0.053	-0.510
-166.852	29.253	-0.254	-0.280
-165.837	68.899	0.292	0.389
-164.823	-106.503	-0.500	-0.144
-163.808	-111.021	0.614	0.162
-162.793	-200.000	-0.000	0.089
-161.779	-57.773	-0.306	0.173
-160.764	57.954	-0.141	0.179
-159.750	-51.128	0.396	0.240
-158.735	41.581	0.201	0.236
-157.720	-16.681	-0.122	0.100
-156.706	192.188	-0.136	-0.267
-155.691	387.158	0.085	-0.229
-154.677	67.880	0.068	-0.091
-153.662	243.732	-0.189	-0.413
-152.647	63.328	0.036	-0.046
-151.633	-91.002	-0.488	0.181
-150.618	66.209	-0.298	0.392
-149.604	143.691	-0.054	0.094
-148.589	414.399	-0.061	-0.169
-147.574	24.037	-0.191	-0.204
-146.560	-80.203	-0.511	-0.221
-145.545	121.450	-0.119	0.193
-144.531	-140.348	0.311	-0.042
-143.516	-98.208	0.296	0.098
-142.502	-57.285	0.147	-0.084
-141.487	-94.652	0.321	-0.112
-140.472	-108.021	0.183	0.051
-139.458	320.568	-0.163	-0.402
-138.443	-200.000	0.026	-0.239
-137.429	362.408	0.042	0.110
-136.414	639.643	0.122	-0.404
-135.399	4.433	-0.411	-0.390
-134.385	-58.550	0.263	0.147
-133.370	-158.020	0.214	0.016
-132.356	-149.966	0.239	-0.024
-131.341	-199.439	-0.032	-0.000
-130.326	-200.000	0.024	0.177
-129.312	800.000	-0.036	-0.168
-128.297	800.000	-0.100	0.430
-127.283	227.155	-0.033	0.069
-126.268	-56.012	0.350	0.201
-125.253	-200.000	0.005	-0.155
-124.239	-72.267	-0.072	0.034
-123.224	-96.928	-0.166	-0.056
-122.210	-200.000	0.003	0.029
-121.195	47.154	0.334	-0.403
