DTS Sentinel unit serial number:	SN409020Multiplexer serial number:	ORYXHardware model number:	OX4-SRSoftware version number:	ORYX F/W v3.00 Oryx Data Collector v3.7.2.0data status	okinstallation	HaddamTimeLapsedifferential loss correction	single-endedforward channel	channel 3reverse channel	N/Adate	2011/06/22time	08:21:16forward acquisition time	30.00reverse acquisition time	0.00gamma	498.7831k internal	0.1776k external	0.1776temperature offset calibration	1.0074default loss term (dB/km)	0.3790temperature slope calibration	1.3530multiplexer offset coefficient	1.0000multiplexer slope coefficient	1.0000fibre end	0.00T internal ref (°C)	25.53T ext. ref 1 (°C)	23.53T ext. ref 2 (°C)	0.17length (m)	temperature (°C)	Stokes	anti-Stokes-747.200	-42.173	-0.203	0.135
-746.185	168.376	0.131	0.244
-745.171	47.536	0.508	-0.621
-744.156	456.707	-0.065	-0.189
-743.142	-36.348	0.159	0.112
-742.127	323.547	-0.243	0.611
-741.112	-24.104	-0.358	0.279
-740.098	-27.642	0.079	0.060
-739.083	121.146	-0.156	-0.255
-738.069	-146.174	0.059	-0.007
-737.054	205.305	-0.155	-0.316
-736.039	-61.155	-0.430	0.237
-735.025	-23.832	0.268	0.210
-734.010	800.000	0.125	0.609
-732.996	800.000	0.154	0.777
-731.981	-91.137	0.368	-0.138
-730.966	-200.000	-0.098	-0.584
-729.952	-99.447	0.189	0.062
-728.937	800.000	0.025	0.128
-727.923	-17.392	0.277	0.228
-726.908	-200.000	0.009	-0.179
-725.894	-161.750	-0.291	0.019
-724.879	-66.178	-0.243	0.126
-723.864	-63.378	-0.510	0.273
-722.850	36.158	0.148	0.171
-721.835	234.285	-0.079	0.170
-720.821	-62.913	0.347	0.187
-719.806	-60.253	-0.386	0.214
-718.791	30.592	-0.206	-0.230
-717.777	-0.733	-0.360	-0.333
-716.762	-122.973	-0.711	0.148
-715.748	632.992	-0.064	0.212
-714.733	-79.218	0.123	0.054
-713.718	-103.678	-0.299	-0.091
-712.704	-60.087	-0.110	-0.061
-711.689	-24.564	-0.100	-0.077
-710.675	-43.817	0.205	0.135
-709.660	293.242	0.175	-0.418
-708.645	-200.000	-0.010	0.427
-707.631	39.870	-0.151	-0.178
-706.616	-195.932	0.222	0.002
-705.602	-150.092	0.343	0.034
-704.587	692.083	0.173	-0.595
-703.572	800.000	-0.038	0.194
-702.558	-18.383	0.359	-0.293
-701.543	185.090	0.099	-0.193
-700.529	-200.000	-0.014	0.331
-699.514	-200.000	-0.020	0.601
-698.499	-65.468	-0.329	-0.172
-697.485	800.000	0.048	0.184
-696.470	800.000	-0.096	0.445
-695.456	151.557	-0.073	-0.131
-694.441	68.254	0.390	-0.523
-693.426	-55.610	-0.230	0.134
-692.412	-151.159	-0.591	0.057
-691.397	21.030	-0.083	-0.088
-690.383	68.909	-0.240	-0.322
-689.368	-130.045	-0.660	0.117
-688.354	17.012	0.182	0.188
-687.339	-200.000	-0.015	-0.239
-686.324	-200.000	0.415	0.002
-685.310	-79.354	0.146	0.064
-684.295	756.482	0.017	0.060
-683.281	59.501	0.210	-0.271
-682.266	-196.896	-0.340	0.003
-681.251	-26.507	0.175	-0.134
-680.237	-135.192	-0.506	-0.079
-679.222	495.582	0.127	0.385
-678.208	-61.638	-0.273	-0.149
-677.193	90.063	-0.065	0.095
-676.178	-158.014	-0.314	-0.024
-675.164	-48.424	-0.149	-0.094
-674.149	244.608	0.101	0.222
-673.135	422.037	-0.179	0.504
-672.120	263.633	0.137	0.312
-671.105	800.000	0.105	-0.539
-670.091	647.134	-0.107	-0.359
-669.076	-200.000	-0.003	-0.486
-668.062	-195.269	0.107	0.001
-667.047	-94.029	-0.269	-0.096
-666.032	54.143	-0.336	-0.422
-665.018	-35.023	0.210	-0.149
-664.003	443.263	-0.134	0.386
-662.989	-25.620	-0.592	-0.455
-661.974	128.357	-0.250	-0.417
-660.959	-200.000	0.002	0.425
-659.945	-26.070	-0.085	0.065
-658.930	76.436	0.012	-0.017
-657.916	-85.222	0.233	0.094
-656.901	-56.876	0.333	0.192
-655.886	-105.084	0.448	-0.133
-654.872	-130.871	0.109	-0.019
-653.857	42.678	0.201	0.238
-652.843	127.074	0.169	0.280
-651.828	-3.804	0.251	-0.227
-650.814	-68.949	-0.125	0.063
-649.799	-200.000	0.002	0.296
-648.784	265.936	0.115	-0.264
-647.770	-200.000	-0.017	-0.182
-646.755	190.765	-0.060	0.119
-645.741	214.448	-0.037	-0.076
-644.726	143.265	-0.254	-0.442
-643.711	98.793	-0.072	-0.108
-642.697	11.102	-0.056	0.056
-641.682	-200.000	-0.000	0.693
-640.668	39.064	0.333	0.388
-639.653	-200.000	0.013	0.393
-638.638	434.685	-0.066	-0.188
-637.624	-97.074	-0.200	-0.068
-636.609	-72.403	0.309	-0.148
-635.595	-89.062	0.248	-0.095
-634.580	164.603	-0.083	0.154
-633.565	-57.146	-0.205	-0.117
-632.551	-44.063	-0.446	-0.291
-631.536	73.400	-0.079	-0.109
-630.522	-200.000	0.078	0.638
-629.507	800.000	-0.150	-0.544
-628.492	63.892	0.028	0.037
-627.478	-35.534	-0.065	-0.046
-626.463	-52.787	0.587	0.352
-625.449	-69.544	-0.309	-0.154
-624.434	-87.093	0.173	0.068
-623.419	231.097	0.062	-0.133
-622.405	-109.123	-0.280	0.077
-621.390	72.818	-0.189	-0.258
-620.376	-147.136	0.195	-0.021
-619.361	-41.532	0.282	-0.189
-618.346	-74.037	-0.169	0.080
-617.332	-200.000	-0.030	-0.194
-616.317	287.061	0.182	-0.431
-615.303	-128.803	0.332	0.060
-614.288	71.809	0.402	0.545
-613.273	-105.275	-0.342	0.101
-612.259	-135.410	-0.118	-0.018
-611.244	-176.524	-0.406	0.013
-610.230	-102.721	0.167	-0.051
-609.215	-16.395	-0.253	0.209
-608.201	800.000	-0.143	0.621
-607.186	-77.068	-0.230	-0.104
-606.171	-72.379	-0.279	0.134
-605.157	-27.313	0.229	-0.174
-604.142	103.232	0.177	-0.271
-603.128	53.602	0.246	-0.308
-602.113	-200.000	-0.414	-0.001
-601.098	37.493	-0.185	-0.214
-600.084	-27.996	0.191	-0.143
-599.069	82.299	-0.055	-0.078
-598.055	-113.209	0.629	0.160
-597.040	800.000	0.063	0.239
-596.025	211.588	0.265	-0.545
-595.011	-26.394	-0.110	-0.084
-593.996	-40.734	0.170	0.114
-592.982	-4.896	-0.286	-0.256
-591.967	-11.153	0.151	-0.129
-590.952	800.000	0.128	-0.662
-589.938	800.000	-0.048	0.260
-588.923	-75.523	0.294	0.135
-587.909	-106.563	-0.085	0.025
-586.894	-86.964	0.182	0.072
-585.879	-97.498	-0.776	-0.261
-584.865	-200.000	-0.024	-0.162
-583.850	114.904	-0.180	-0.286
-582.836	-47.676	0.279	-0.175
-581.821	-56.853	-0.259	0.149
-580.806	-75.558	-0.146	-0.067
-579.792	-137.159	-0.211	0.031
-578.777	-128.918	0.187	0.034
-577.763	416.544	-0.112	-0.311
-576.748	-200.000	-0.002	0.210
-575.733	-200.000	0.004	0.264
-574.719	16.583	0.054	-0.055
-573.704	-200.000	0.035	-0.725
-572.690	-200.000	0.018	-0.182
-571.675	215.717	0.098	0.203
-570.661	-83.184	0.381	0.158
-569.646	-55.493	0.152	0.088
-568.631	-86.616	0.332	0.132
-567.617	405.142	0.085	0.235
-566.602	-182.596	-0.126	-0.003
-565.588	86.430	-0.293	-0.420
-564.573	-108.068	-0.388	0.109
-563.558	-22.584	0.420	-0.330
-562.544	-200.000	-0.024	-0.194
-561.529	800.000	-0.033	0.119
-560.515	194.358	-0.151	0.299
-559.500	128.862	0.271	-0.450
-558.485	-200.000	-0.003	-0.126
-557.471	75.775	-0.234	-0.322
-556.456	63.058	0.299	-0.389
-555.442	-80.779	0.470	0.202
-554.427	111.251	0.257	0.403
-553.412	134.374	0.191	0.323
-552.398	-20.586	-0.246	-0.196
-551.383	-153.483	0.276	-0.025
-550.369	116.574	-0.175	0.280
-549.354	800.000	0.084	0.465
-548.339	12.415	0.211	0.212
-547.325	-153.727	0.385	0.034
-546.310	-78.553	0.053	-0.024
-545.296	-18.566	0.177	-0.143
-544.281	800.000	-0.035	0.164
-543.266	738.604	0.088	-0.308
-542.252	-200.000	-0.020	0.247
-541.237	-71.520	-0.589	0.285
-540.223	99.974	0.057	-0.086
-539.208	-104.057	0.776	-0.233
-538.193	-53.024	-0.455	-0.271
-537.179	-69.550	-0.157	-0.078
-536.164	-169.184	-0.406	-0.019
-535.150	-200.000	-0.035	-0.492
-534.135	-43.952	0.419	-0.273
-533.121	-130.735	-0.201	-0.035
-532.106	-167.161	-0.329	-0.017
-531.091	514.211	0.122	0.373
-530.077	201.720	-0.127	0.256
-529.062	124.173	-0.375	0.613
-528.048	-151.048	-0.254	-0.025
-527.033	-117.357	-0.271	-0.063
-526.018	-89.139	-0.304	0.116
-525.004	408.077	-0.093	-0.258
-523.989	470.072	-0.090	-0.265
-522.975	-12.327	-0.201	0.170
-521.960	15.702	-0.471	0.481
-520.945	-53.399	-0.356	0.211
-519.931	-44.894	0.281	0.181
-518.916	-200.000	0.007	-0.244
-517.902	-36.259	0.401	0.280
-516.887	-78.699	-0.285	-0.126
-515.872	448.688	-0.042	-0.120
-514.858	-163.750	-0.472	0.028
-513.843	-126.209	-0.316	-0.061
-512.829	6.787	0.246	-0.238
-511.814	-168.128	0.283	0.014
-510.799	-200.000	0.073	0.802
-509.785	800.000	0.087	0.457
-508.770	-90.144	0.310	0.116
-507.756	235.806	-0.230	0.494
-506.741	128.198	0.268	-0.443
-505.726	-56.122	0.673	-0.387
-504.712	244.918	0.220	-0.481
-503.697	-136.809	0.605	-0.089
-502.683	-8.385	0.187	0.163
-501.668	-0.243	0.072	0.067
-500.653	33.739	-0.059	0.067
-499.639	214.570	0.130	-0.269
-498.624	-83.510	-0.335	0.138
-497.610	64.772	0.131	0.171
-496.595	390.122	-0.061	-0.164
-495.581	-18.211	0.089	-0.072
-494.566	-83.444	-0.461	0.191
-493.551	-200.000	0.004	-0.084
-492.537	-200.000	-0.026	-0.336
-491.522	296.432	-0.046	-0.111
-490.508	30.069	0.275	0.304
-489.493	-171.814	0.277	0.012
-488.478	294.209	0.125	0.298
-487.464	75.265	0.277	-0.379
-486.449	-122.516	-0.264	-0.055
-485.435	-140.315	0.425	0.057
-484.420	-14.545	-0.252	-0.210
-483.405	322.466	-0.141	-0.350
-482.391	130.152	-0.103	0.171
-481.376	101.681	-0.305	0.461
-480.362	237.666	0.048	0.104
-479.347	659.178	-0.155	-0.519
-478.332	-200.000	-0.008	-0.264
-477.318	-104.968	-0.225	0.066
-476.303	-27.264	0.112	0.084
-475.289	198.437	0.201	0.399
-474.274	180.306	-0.026	-0.050
-473.259	215.208	0.157	0.324
-472.245	800.000	-0.106	0.439
-471.230	-114.683	-0.530	0.130
-470.216	-190.404	0.586	-0.008
-469.201	-15.878	0.490	-0.404
-468.186	-200.000	-0.072	-0.521
-467.172	-200.000	-0.052	-0.402
-466.157	800.000	0.056	-0.286
-465.143	-82.353	0.168	-0.070
-464.128	-76.391	-0.525	-0.238
-463.113	-51.968	-0.216	-0.130
-462.099	-44.777	0.332	0.214
-461.084	402.905	-0.058	-0.159
-460.070	183.859	0.224	-0.430
-459.055	150.844	-0.155	-0.273
-458.040	-130.319	-0.072	-0.013
-457.026	-197.408	-0.442	0.003
-456.011	-62.482	0.226	-0.121
-454.997	-173.525	0.268	0.010
-453.982	-159.319	0.046	-0.003
-452.968	-200.000	-0.051	-0.322
-451.953	237.737	-0.290	-0.626
-450.938	-2.111	0.131	-0.119
-449.924	-53.633	0.356	-0.210
-448.909	202.605	-0.158	0.317
-447.895	136.750	0.175	-0.297
-446.880	-200.000	0.013	0.312
-445.865	-25.647	-0.106	0.081
-444.851	372.911	-0.091	0.240
-443.836	-41.989	-0.109	0.072
-442.822	-36.882	0.242	0.168
-441.807	84.104	-0.103	-0.146
-440.792	-128.528	0.456	-0.083
-439.778	-200.000	-0.019	0.274
-438.763	-97.039	0.181	0.061
-437.749	-47.473	0.099	0.062
-436.734	-76.014	0.443	0.202
-435.719	520.383	-0.027	-0.083
-434.705	0.532	0.084	-0.078
-433.690	4.564	0.366	-0.347
-432.676	202.725	0.138	-0.276
-431.661	70.020	0.120	-0.160
-430.646	-82.310	-0.348	-0.146
-429.632	363.972	-0.018	-0.046
-428.617	-164.331	-0.128	0.007
-427.603	-18.935	-0.142	0.114
-426.588	-66.367	0.153	0.079
-425.573	302.265	0.097	-0.233
-424.559	-145.173	-0.247	0.029
-423.544	-198.806	0.073	-0.001
-422.530	71.120	-0.301	-0.404
-421.515	-43.929	-0.373	-0.242
-420.500	-117.570	-0.361	-0.084
-419.486	-74.933	0.292	-0.135
-418.471	76.447	-0.136	-0.187
-417.457	6.310	-0.184	0.177
-416.442	-200.000	-0.006	0.224
-415.428	-145.699	-0.166	-0.019
-414.413	108.113	0.085	0.131
-413.398	-53.701	0.112	0.066
-412.384	310.984	-0.089	-0.217
-411.369	-65.314	0.236	-0.122
-410.355	57.039	-0.167	0.211
-409.340	-200.000	-0.004	0.190
-408.325	-56.830	-0.193	0.110
-407.311	800.000	-0.081	-0.382
-406.296	108.555	0.146	0.226
-405.282	-62.263	-0.219	0.118
-404.267	-125.097	-0.157	-0.031
-403.252	-109.747	-0.811	0.219
-402.238	-91.939	-0.343	0.125
-401.223	33.643	0.330	0.370
-400.209	372.256	0.145	-0.382
-399.194	166.773	-0.243	0.446
-398.179	-109.493	-0.673	-0.182
-397.165	-77.576	-0.266	0.119
-396.150	-47.579	0.303	0.190
-395.136	88.262	-0.061	-0.088
-394.121	-67.204	-0.430	-0.218
-393.106	-200.000	-0.019	0.156
-392.092	-8.546	-0.150	-0.130
-391.077	-74.261	0.426	0.198
-390.063	-200.000	0.019	-0.354
-389.048	-90.944	-0.301	0.111
-388.033	374.840	0.104	-0.275
-387.019	67.885	-0.307	-0.405
-386.004	-200.000	0.015	-0.388
-384.990	-200.000	0.023	-0.237
-383.975	800.000	-0.031	-0.164
-382.960	46.682	-0.139	0.166
-381.946	58.478	0.272	0.344
-380.931	-28.080	0.259	-0.193
-379.917	-110.025	0.454	-0.122
-378.902	129.716	0.113	0.187
-377.888	-200.000	0.053	-0.345
-376.873	220.492	0.206	0.428
-375.858	-200.000	0.007	-0.162
-374.844	-122.581	-0.092	0.019
-373.829	-21.283	0.395	-0.311
-372.815	-46.955	-0.302	-0.190
-371.800	-138.006	0.049	0.007
-370.785	-63.703	0.135	-0.071
-369.771	800.000	-0.115	-0.442
-368.756	-37.987	0.329	-0.225
-367.742	20.162	-0.200	0.208
-366.727	99.606	-0.345	-0.516
-365.712	-88.800	0.738	-0.281
-364.698	371.759	0.209	-0.549
-363.683	14.824	0.278	0.280
-362.669	-20.228	0.448	-0.355
-361.654	-96.314	-0.249	0.085
-360.639	-177.135	-0.334	-0.011
-359.625	-58.609	0.054	-0.030
-358.610	-10.961	-0.304	-0.258
-357.596	-75.064	-0.396	0.182
-356.581	-91.035	-0.082	-0.030
-355.566	-100.141	0.424	0.135
-354.552	800.000	-0.053	-0.274
-353.537	27.317	0.199	-0.216
-352.523	-100.574	0.385	0.122
-351.508	137.315	-0.199	0.337
-350.493	-125.486	-0.251	-0.049
-349.479	3.532	-0.176	0.166
-348.464	-151.271	-0.142	-0.014
-347.450	222.858	0.084	0.175
-346.435	-91.297	-0.507	-0.186
-345.420	-119.190	-0.085	-0.019
-344.406	-200.000	0.012	-0.193
-343.391	161.133	0.342	-0.617
-342.377	-71.092	-0.133	0.064
-341.362	-143.074	0.340	-0.042
-340.348	-51.387	-0.145	-0.087
-339.333	-122.198	-0.039	0.008
-338.318	-91.956	-0.475	-0.172
-337.304	-200.000	0.002	-0.198
-336.289	35.959	-0.061	0.069
-335.275	799.979	-0.124	0.445
-334.260	2.499	-0.104	-0.097
-333.245	-70.555	0.472	-0.229
-332.231	-200.000	0.073	0.481
-331.216	-200.000	0.041	0.613
-330.202	-12.855	0.094	-0.079
-329.187	-131.678	0.111	0.019
-328.172	42.317	0.215	-0.252
-327.158	-6.459	-0.289	-0.253
-326.143	370.281	-0.137	-0.360
-325.129	59.729	-0.254	-0.323
-324.114	-174.310	-0.365	-0.013
-323.099	242.326	-0.045	-0.097
-322.085	-110.543	0.164	-0.043
-321.070	484.991	-0.086	-0.252
-320.056	-13.575	-0.053	0.044
-319.041	-2.789	0.253	0.227
-318.026	-4.642	0.438	-0.389
-317.012	8.096	0.350	0.338
-315.997	-68.814	-0.221	0.110
-314.983	-31.803	-0.200	0.144
-313.968	92.898	0.216	0.315
-312.953	24.058	0.184	0.195
-311.939	49.775	0.127	-0.154
-310.924	-200.000	-0.056	0.341
-309.910	250.633	0.295	0.648
-308.895	-200.000	-0.039	0.397
-307.880	800.000	-0.105	0.580
-306.866	341.996	-0.175	-0.442
-305.851	621.755	0.105	0.341
-304.837	-38.016	-0.543	0.370
-303.822	-154.323	-0.075	0.006
-302.807	33.469	-0.136	-0.152
-301.793	-115.698	0.266	-0.064
-300.778	-200.000	0.010	-0.156
-299.764	13.425	-0.351	0.350
-298.749	-6.148	-0.265	0.233
-297.735	283.293	0.012	-0.028
-296.720	290.444	-0.125	-0.292
-295.705	-30.255	0.303	-0.221
-294.691	-200.000	0.061	0.508
-293.676	-134.265	0.188	-0.029
-292.662	-28.276	0.103	0.076
-291.647	353.075	0.086	-0.220
-290.632	-23.494	-0.293	0.226
-289.618	-200.000	-0.018	0.218
-288.603	-7.682	0.273	-0.237
-287.589	127.903	-0.182	0.297
-286.574	-141.897	-0.270	-0.034
-285.559	101.273	0.301	0.451
-284.545	-12.574	0.103	0.087
-283.530	-103.104	0.551	-0.167
-282.516	-73.859	0.445	0.207
-281.501	203.555	-0.202	0.403
-280.486	373.638	0.108	0.283
-279.472	202.948	0.169	0.337
-278.457	800.000	0.112	-0.410
-277.443	-57.697	0.358	0.201
-276.428	-200.000	0.002	-0.044
-275.413	-200.000	0.019	0.166
-274.399	-35.310	0.106	-0.074
-273.384	-70.086	-0.283	0.138
-272.370	-187.998	-0.251	-0.004
-271.355	18.902	0.084	-0.086
-270.340	-44.356	0.368	-0.236
-269.326	28.519	-0.250	-0.272
-268.311	-68.487	0.260	-0.129
-267.297	119.884	0.136	-0.217
-266.282	-105.347	0.453	-0.132
-265.267	-200.000	-0.040	0.367
-264.253	800.000	0.094	-0.431
-263.238	-39.444	0.256	0.172
-262.224	800.000	0.108	0.406
-261.209	-16.100	-0.105	0.085
-260.195	134.813	0.129	0.215
-259.180	70.063	-0.244	0.324
-258.165	-37.441	0.190	0.130
-257.151	241.155	0.176	0.379
-256.136	-200.000	0.041	0.345
-255.122	-56.648	-0.639	-0.362
-254.107	-115.400	0.405	-0.097
-253.092	84.503	-0.098	-0.137
-252.078	-200.000	0.002	0.334
-251.063	741.271	0.097	-0.337
-250.049	-65.142	0.237	-0.122
-249.034	-78.592	0.150	-0.066
-248.019	-200.000	-0.005	-0.314
-247.005	-200.000	0.001	-0.090
-245.990	-159.243	0.114	0.008
-244.976	-74.339	0.017	-0.008
-243.961	-15.245	-0.186	0.153
-242.946	-109.787	0.218	-0.058
-241.932	-56.904	0.303	0.171
-240.917	-200.000	0.009	0.167
-239.903	210.518	-0.059	-0.119
-238.888	627.307	-0.068	0.221
-237.873	-103.557	-0.161	-0.048
-236.859	-116.534	-0.407	0.096
-235.844	92.230	-0.237	0.344
-234.830	-200.000	0.020	-0.594
-233.815	-3.746	0.071	-0.063
-232.800	-29.786	-0.163	0.119
-231.786	368.155	0.169	0.441
-230.771	-200.000	0.004	0.179
-229.757	-52.114	-0.377	0.224
-228.742	-107.220	-0.231	0.065
-227.727	30.354	-0.337	0.369
-226.713	411.720	0.222	0.608
-225.698	800.000	0.071	-0.265
-224.684	-13.420	0.304	0.253
-223.669	-112.572	0.358	-0.091
-222.655	-44.959	0.218	0.139
-221.640	-200.000	0.035	0.500
-220.625	492.835	-0.164	-0.485
-219.611	365.882	-0.191	-0.495
-218.596	667.364	0.081	-0.270
-217.582	42.219	-0.274	0.320
-216.567	-57.480	0.109	0.061
-215.552	800.000	-0.042	0.162
-214.538	800.000	-0.011	-0.041
-213.523	4.443	-0.178	0.167
-212.509	-46.865	-0.480	-0.300
-211.494	119.211	-0.249	0.396
-210.479	-34.461	0.202	0.141
-209.465	673.524	-0.037	-0.123
-208.450	-200.000	-0.035	0.331
-207.436	-123.099	-0.154	0.031
-206.421	-38.929	0.184	-0.124
-205.406	-41.375	-0.034	0.022
-204.392	76.221	0.026	-0.036
-203.377	-32.095	0.160	-0.114
-202.363	-141.026	0.108	-0.014
-201.348	-6.531	0.190	0.166
-200.333	-200.000	0.007	0.221
-199.319	-188.848	0.429	-0.007
-198.304	-79.401	-0.145	-0.063
-197.290	-21.090	0.335	0.262
-196.275	-191.536	0.458	0.006
-195.260	114.759	0.190	0.298
-194.246	800.000	-0.106	0.534
-193.231	-119.797	-0.278	0.061
-192.217	259.561	0.048	0.106
-191.202	117.103	0.174	0.274
-190.187	-200.000	0.069	0.415
-189.173	-145.399	-0.412	-0.047
-188.158	-79.551	-0.392	0.169
-187.144	-133.678	-0.331	-0.053
-186.129	463.853	0.092	0.264
-185.114	-0.076	-0.287	-0.261
-184.100	-50.388	-0.201	-0.121
-183.085	-10.005	-0.072	-0.061
-182.071	477.050	-0.087	0.255
-181.056	73.644	-0.186	-0.250
-180.042	359.535	0.059	0.153
-179.027	-200.000	-0.064	0.517
-178.012	758.646	-0.092	0.321
-176.998	231.046	0.031	-0.064
-175.983	11.683	0.131	0.129
-174.969	52.568	-0.131	-0.160
-173.954	-120.112	0.228	-0.050
-172.939	261.285	-0.256	0.569
-171.925	145.121	-0.152	-0.261
-170.910	30.849	0.289	0.317
-169.896	-200.000	-0.052	0.361
-168.881	548.788	-0.131	-0.405
-167.866	800.000	0.021	-0.109
-166.852	17.857	-0.137	0.140
-165.837	273.424	0.104	0.236
-164.823	-3.933	0.162	-0.143
-163.808	110.539	0.234	-0.361
-162.793	-116.552	-0.477	-0.112
-161.779	-64.171	-0.406	-0.211
-160.764	317.372	0.157	-0.382
-159.750	198.246	-0.196	-0.384
-158.735	-50.857	-0.279	-0.167
-157.720	210.324	-0.055	-0.110
-156.706	112.267	0.129	0.199
-155.691	-200.000	0.007	0.054
-154.677	251.547	-0.096	-0.210
-153.662	-64.877	0.593	-0.306
-152.647	147.184	-0.140	0.242
-151.633	-118.131	-0.455	0.103
-150.618	675.367	-0.193	0.644
-149.604	-91.843	0.498	-0.180
-148.589	679.480	-0.091	0.304
-147.574	800.000	0.055	-0.287
-146.560	-166.513	-0.284	-0.015
-145.545	-64.727	-0.156	0.080
-144.531	-49.882	-0.297	-0.179
-143.516	86.859	-0.064	0.091
-142.502	-64.755	-0.278	-0.143
-141.487	-50.771	-0.125	0.075
-140.472	800.000	0.071	-0.392
-139.458	-55.933	-0.131	-0.074
-138.443	-115.012	-0.397	-0.096
-137.429	414.996	0.147	0.402
-136.414	28.109	0.291	0.314
-135.399	304.529	-0.153	0.365
-134.385	-48.100	-0.262	0.161
-133.370	731.934	-0.068	0.235
-132.356	344.634	-0.058	-0.147
-131.341	218.605	0.091	0.186
-130.326	219.161	0.154	0.317
-129.312	800.000	-0.047	-0.173
-128.297	47.664	0.283	-0.338
-127.283	-25.862	0.280	-0.211
-126.268	613.988	-0.102	0.330
-125.253	-200.000	-0.015	0.197
-124.239	327.829	-0.168	-0.414
-123.224	-125.361	-0.261	-0.050
-122.210	-144.515	0.396	-0.046
