DTS Sentinel unit serial number:	SN409020Multiplexer serial number:	ORYXHardware model number:	OX4-SRSoftware version number:	ORYX F/W v3.00 Oryx Data Collector v3.7.2.0data status	okinstallation	HaddamTimeLapsedifferential loss correction	single-endedforward channel	channel 3reverse channel	N/Adate	2011/06/22time	03:41:17forward acquisition time	30.00reverse acquisition time	0.00gamma	498.7831k internal	0.1751k external	0.1751temperature offset calibration	1.0074default loss term (dB/km)	0.3790temperature slope calibration	1.3530multiplexer offset coefficient	1.0000multiplexer slope coefficient	1.0000fibre end	0.00T internal ref (°C)	22.37T ext. ref 1 (°C)	17.98T ext. ref 2 (°C)	0.08length (m)	temperature (°C)	Stokes	anti-Stokes-747.200	-57.263	-0.172	-0.100
-746.185	-169.823	0.110	0.005
-745.171	-165.597	-0.489	0.028
-744.156	-57.049	0.165	-0.097
-743.142	142.824	-0.126	0.224
-742.127	-184.282	0.111	0.002
-741.112	-14.963	0.125	0.106
-740.098	159.098	0.066	0.122
-739.083	-31.156	0.247	0.185
-738.069	247.315	0.203	0.457
-737.054	-92.939	-0.376	0.139
-736.039	61.434	-0.334	-0.442
-735.025	-94.916	-0.186	0.067
-734.010	633.740	-0.078	0.265
-732.996	83.273	0.375	0.544
-731.981	-74.416	0.120	0.057
-730.966	-11.232	0.189	0.165
-729.952	-89.592	-0.296	0.115
-728.937	255.587	-0.202	-0.462
-727.923	482.818	0.037	-0.111
-726.908	-89.842	-0.313	-0.121
-725.894	43.423	-0.255	-0.310
-724.879	-123.970	-0.162	0.034
-723.864	57.503	-0.105	0.136
-722.850	54.841	-0.178	0.229
-721.835	-200.000	0.010	0.212
-720.821	-56.580	-0.670	-0.393
-719.806	157.623	0.140	0.258
-718.791	-85.477	-0.218	-0.090
-717.777	-149.119	-0.123	-0.013
-716.762	-80.676	0.224	-0.098
-715.748	-196.092	0.718	-0.007
-714.733	800.000	0.085	0.487
-713.718	-99.743	-0.534	0.176
-712.704	-133.352	-0.833	0.138
-711.689	-153.227	-0.698	0.064
-710.675	-60.285	-0.482	-0.272
-709.660	239.435	0.068	0.152
-708.645	-189.385	-0.480	-0.007
-707.631	-112.329	-0.294	-0.078
-706.616	-76.929	0.401	-0.185
-705.602	-52.578	-0.100	-0.061
-704.587	-119.233	-0.217	0.050
-703.572	0.724	-0.255	0.242
-702.558	-49.028	0.343	-0.217
-701.543	110.516	0.170	0.271
-700.529	193.424	0.189	0.381
-699.514	-200.000	-0.015	0.357
-698.499	17.548	-0.373	-0.393
-697.485	-80.592	0.272	0.119
-696.470	296.865	0.271	-0.661
-695.456	625.378	0.153	-0.515
-694.441	130.749	-0.381	-0.649
-693.426	-39.461	0.217	-0.151
-692.412	-174.572	0.223	-0.008
-691.397	-50.759	0.141	0.088
-690.383	800.000	0.043	0.235
-689.368	800.000	0.028	-0.109
-688.354	273.532	-0.144	-0.339
-687.339	125.756	0.251	-0.421
-686.324	-200.000	0.004	-0.398
-685.310	61.097	-0.414	-0.545
-684.295	144.174	0.183	0.325
-683.281	-200.000	0.041	0.268
-682.266	-200.000	-0.069	0.417
-681.251	759.294	-0.100	0.360
-680.237	-33.869	0.201	-0.146
-679.222	107.345	0.123	0.194
-678.208	231.060	-0.111	0.241
-677.193	230.100	-0.051	0.112
-676.178	-193.896	-0.279	-0.003
-675.164	-64.070	-0.301	-0.162
-674.149	68.044	-0.094	0.127
-673.135	-110.635	0.300	-0.082
-672.120	-83.834	-0.304	-0.128
-671.105	-185.513	-0.296	-0.006
-670.091	-117.261	-0.131	-0.031
-669.076	3.632	-0.314	0.303
-668.062	-9.626	-0.219	-0.193
-667.047	408.681	-0.133	-0.374
-666.032	-171.487	0.345	0.015
-665.018	8.084	0.201	-0.200
-664.003	-200.000	-0.052	-0.467
-662.989	-172.637	-0.472	0.019
-661.974	-138.238	-0.370	0.054
-660.959	193.188	-0.140	-0.280
-659.945	800.000	-0.008	-0.041
-658.930	-200.000	-0.001	-0.019
-657.916	-200.000	0.036	0.252
-656.901	99.975	0.088	-0.136
-655.886	-82.543	-0.222	0.095
-654.872	-101.432	-0.218	-0.070
-653.857	430.995	0.035	0.102
-652.843	-126.244	0.267	-0.052
-651.828	-181.201	0.681	0.018
-650.814	-120.834	0.090	0.020
-649.799	135.676	-0.073	-0.126
-648.784	-200.000	0.030	0.239
-647.770	68.782	-0.198	-0.269
-646.755	61.159	0.281	-0.369
-645.741	-72.468	0.292	-0.142
-644.726	-104.730	0.182	-0.055
-643.711	-165.886	0.369	-0.021
-642.697	328.439	-0.129	-0.330
-641.682	-200.000	-0.000	-0.048
-640.668	-72.146	0.116	0.057
-639.653	25.854	-0.279	-0.308
-638.638	352.875	-0.036	-0.094
-637.624	96.816	-0.246	-0.373
-636.609	78.969	-0.168	0.239
-635.595	-91.640	-0.256	0.096
-634.580	-93.660	-0.269	-0.098
-633.565	85.932	-0.269	0.393
-632.551	63.970	-0.126	0.167
-631.536	90.624	0.146	-0.216
-630.522	-98.811	-0.086	0.029
-629.507	800.000	0.081	0.345
-628.492	394.515	0.177	-0.490
-627.478	314.740	-0.138	-0.345
-626.463	46.344	-0.144	-0.177
-625.449	192.627	0.170	-0.341
-624.434	180.610	-0.065	-0.126
-623.419	37.285	0.248	0.290
-622.405	-173.572	0.260	-0.010
-621.390	-100.576	0.357	-0.116
-620.376	-67.457	-0.199	0.103
-619.361	-200.000	0.032	-0.313
-618.346	-102.979	-0.612	0.191
-617.332	448.738	-0.127	-0.372
-616.317	-15.760	-0.215	0.181
-615.303	-117.693	0.825	-0.195
-614.288	349.610	-0.081	0.212
-613.273	218.577	-0.086	0.182
-612.259	26.940	0.101	-0.111
-611.244	-147.448	0.287	0.032
-610.230	68.311	-0.207	-0.281
-609.215	-45.802	-0.205	0.134
-608.201	481.441	-0.233	0.703
-607.186	-102.604	-0.247	-0.077
-606.171	-118.459	-0.349	0.081
-605.157	176.728	-0.379	-0.731
-604.142	-84.013	-0.285	0.119
-603.128	48.907	0.073	-0.091
-602.113	-70.570	0.318	0.158
-601.098	-63.786	-0.083	-0.045
-600.084	450.151	0.131	-0.382
-599.069	-27.999	-0.585	-0.447
-598.055	800.000	0.053	0.200
-597.040	62.851	-0.230	-0.304
-596.025	-96.944	-0.270	-0.093
-595.011	-59.704	-0.390	-0.220
-593.996	631.972	-0.106	0.355
-592.982	-160.910	-0.309	0.021
-591.967	-72.465	-0.249	0.121
-590.952	69.544	0.063	-0.086
-589.938	166.441	0.036	-0.068
-588.923	-86.313	-0.339	-0.137
-587.909	222.818	-0.084	0.180
-586.894	-138.252	-0.345	-0.050
-585.879	-59.659	-0.207	0.117
-584.865	-144.738	-0.056	0.007
-583.850	-200.000	-0.004	-0.339
-582.836	555.563	-0.054	0.171
-581.821	-144.583	0.385	-0.046
-580.806	231.418	0.297	-0.646
-579.792	-124.547	0.147	0.030
-578.777	169.601	-0.282	0.533
-577.763	1.832	0.154	-0.147
-576.748	-200.000	-0.058	0.387
-575.733	-81.208	0.281	0.122
-574.719	-148.640	-0.675	-0.072
-573.704	65.738	-0.345	-0.462
-572.690	394.043	0.030	-0.084
-571.675	-142.392	0.136	-0.018
-570.661	-159.556	0.587	0.042
-569.646	-200.000	-0.026	-0.349
-568.631	-112.519	0.430	0.112
-567.617	32.328	-0.388	0.443
-566.602	-200.000	0.023	-0.157
-565.588	-59.098	0.178	-0.101
-564.573	800.000	0.137	0.564
-563.558	800.000	0.050	0.200
-562.544	286.355	0.018	-0.043
-561.529	93.548	-0.212	0.317
-560.515	76.251	-0.385	-0.539
-559.500	405.980	0.133	-0.373
-558.485	-106.485	0.197	0.058
-557.471	-64.971	0.196	-0.104
-556.456	-40.141	0.598	0.410
-555.442	323.591	-0.146	0.369
-554.427	-29.457	0.082	0.062
-553.412	-35.847	0.475	0.339
-552.398	9.398	0.173	-0.173
-551.383	-130.224	-0.226	-0.040
-550.369	72.928	-0.346	0.477
-549.354	-18.659	0.132	0.109
-548.339	173.149	-0.302	-0.576
-547.325	197.097	-0.039	0.079
-546.310	-39.016	-0.106	0.073
-545.296	-33.800	0.228	0.165
-544.281	-197.015	-0.112	0.001
-543.266	694.332	-0.078	0.271
-542.252	-83.423	0.371	0.156
-541.237	381.375	0.025	0.068
-540.223	559.927	-0.240	-0.769
-539.208	-149.735	-0.570	-0.058
-538.193	68.438	0.128	0.174
-537.179	800.000	0.069	-0.329
-536.164	36.554	-0.297	-0.346
-535.150	75.973	-0.136	-0.190
-534.135	-98.118	-0.181	0.061
-533.121	127.377	-0.165	-0.277
-532.106	-120.132	-0.452	-0.101
-531.091	-200.000	0.030	-0.209
-530.077	128.069	0.183	-0.307
-529.062	17.585	0.157	-0.165
-528.048	540.833	0.068	-0.215
-527.033	-96.718	-0.486	-0.168
-526.018	-200.000	-0.039	0.235
-525.004	-110.273	0.265	0.072
-523.989	461.392	0.043	0.127
-522.975	111.684	-0.222	0.354
-521.960	-82.215	-0.175	0.075
-520.945	-200.000	0.021	-0.372
-519.931	472.581	-0.124	-0.369
-518.916	-147.804	-0.210	-0.023
-517.902	91.278	0.175	-0.259
-516.887	265.265	-0.096	-0.221
-515.872	237.636	0.070	0.153
-514.858	-184.939	0.336	-0.007
-513.843	-200.000	0.061	0.468
-512.829	-48.106	-0.371	-0.235
-511.814	320.246	0.026	-0.066
-510.799	6.582	-0.198	0.194
-509.785	-43.155	0.041	0.027
-508.770	-71.721	0.561	-0.274
-507.756	-144.800	0.386	0.046
-506.741	-200.000	-0.021	0.415
-505.726	752.003	0.065	0.232
-504.712	-72.645	0.196	0.095
-503.697	-116.693	0.182	0.044
-502.683	-168.653	0.316	0.016
-501.668	161.012	-0.253	0.467
-500.653	-107.104	0.477	0.138
-499.639	-132.433	0.543	-0.091
-498.624	669.297	-0.101	0.345
-497.610	-0.326	-0.351	0.328
-496.595	793.509	-0.092	0.333
-495.581	-31.469	0.309	0.228
-494.566	18.743	-0.245	0.258
-493.551	-97.132	0.559	-0.191
-492.537	311.735	-0.054	-0.134
-491.522	-129.482	0.475	-0.086
-490.508	-118.596	0.430	0.099
-489.493	-200.000	0.003	-0.312
-488.478	-135.213	0.200	-0.031
-487.464	-135.333	-0.296	-0.046
-486.449	-102.468	0.430	0.135
-485.435	-122.204	0.165	-0.035
-484.420	758.503	-0.020	0.071
-483.405	60.289	0.137	0.178
-482.391	-183.683	0.093	0.002
-481.376	-95.975	0.892	0.311
-480.362	-6.981	-0.184	-0.164
-479.347	-165.172	0.309	-0.018
-478.332	800.000	0.144	-0.662
-477.318	197.890	-0.068	-0.137
-476.303	-94.439	-0.080	-0.029
-475.289	267.766	0.093	-0.216
-474.274	-200.000	-0.032	-0.480
-473.259	-200.000	-0.012	-0.806
-472.245	-200.000	0.030	0.460
-471.230	-29.753	-0.274	0.205
-470.216	-200.000	-0.030	-0.198
-469.201	-57.736	0.359	0.206
-468.186	-167.495	0.530	0.027
-467.172	-200.000	-0.015	-0.133
-466.157	26.659	0.399	-0.439
-465.143	-200.000	0.001	-0.117
-464.128	-23.460	0.319	0.251
-463.113	-100.751	-0.156	-0.050
-462.099	46.144	-0.155	-0.189
-461.084	-200.000	-0.003	-0.480
-460.070	-200.000	0.000	0.111
-459.055	-102.647	-0.320	-0.100
-458.040	111.368	0.135	0.215
-457.026	175.753	0.205	0.393
-456.011	418.121	-0.091	-0.257
-454.997	59.334	-0.280	-0.362
-453.982	347.789	0.196	-0.509
-452.968	-178.016	-0.202	0.006
-451.953	-200.000	0.004	-0.028
-450.938	-139.171	-0.176	0.025
-449.924	-64.168	0.158	0.084
-448.909	51.144	-0.131	0.163
-447.895	-200.000	-0.017	0.152
-446.880	-49.985	0.112	0.069
-445.865	358.668	-0.261	0.688
-444.851	800.000	-0.069	0.303
-443.836	-108.941	-0.728	0.203
-442.822	-112.366	-0.170	0.044
-441.807	-129.510	-0.178	0.032
-440.792	-117.808	-0.539	-0.126
-439.778	800.000	-0.040	0.180
-438.763	674.665	-0.115	0.394
-437.749	-200.000	-0.089	0.595
-436.734	-92.844	-0.555	-0.202
-435.719	-71.609	0.229	-0.112
-434.705	59.122	-0.205	-0.266
-433.690	374.900	-0.101	0.271
-432.676	-61.423	0.366	-0.201
-431.661	-22.497	0.581	-0.461
-430.646	-181.882	0.447	0.011
-429.632	170.356	-0.028	0.053
-428.617	33.081	-0.264	0.300
-427.603	208.113	-0.052	0.107
-426.588	785.355	-0.075	-0.272
-425.573	-200.000	-0.003	-0.053
-424.559	800.000	-0.126	-0.505
-423.544	50.385	-0.099	0.123
-422.530	-83.269	0.219	0.092
-421.515	-151.764	-0.271	-0.026
-420.500	800.000	-0.054	0.302
-419.486	179.827	0.101	0.194
-418.471	-62.703	0.236	0.128
-417.457	800.000	-0.065	0.275
-416.442	-36.659	-0.407	0.287
-415.428	-161.584	-0.200	0.013
-414.413	158.664	-0.048	0.087
-413.398	-145.006	0.388	0.046
-412.384	160.835	-0.122	0.224
-411.369	-77.002	0.209	0.095
-410.355	112.004	-0.113	0.180
-409.340	-121.754	-0.097	-0.021
-408.325	800.000	-0.088	0.357
-407.311	4.294	-0.199	-0.191
-406.296	-99.869	-0.502	0.164
-405.282	169.903	-0.231	0.435
-404.267	-75.397	-0.374	-0.174
-403.252	-191.179	0.194	-0.003
-402.238	-3.536	-0.404	0.368
-401.223	800.000	0.123	0.649
-400.209	82.745	-0.348	0.497
-399.194	387.262	-0.063	-0.170
-398.179	-147.499	0.160	-0.018
-397.165	-89.602	0.199	-0.076
-396.150	-170.952	-0.263	-0.012
-395.136	-68.802	-0.285	-0.144
-394.121	570.493	0.014	-0.044
-393.106	699.951	0.100	0.346
-392.092	-105.734	0.691	0.203
-391.077	127.006	0.225	-0.374
-390.063	-113.807	0.325	0.082
-389.048	73.511	-0.163	0.224
-388.033	-85.226	-0.460	-0.187
-387.019	-50.137	-0.311	-0.193
-386.004	-29.312	-0.367	0.275
-384.990	288.401	0.175	0.417
-383.975	664.746	0.051	-0.173
-382.960	11.642	0.040	0.040
-381.946	-74.547	-0.302	0.142
-380.931	-26.707	-0.212	0.162
-379.917	-116.568	0.303	-0.073
-378.902	-200.000	0.009	-0.204
-377.888	172.338	0.041	-0.078
-376.873	17.255	0.342	0.356
-375.858	271.713	0.131	0.303
-374.844	661.373	0.034	-0.117
-373.829	361.675	0.119	0.315
-372.815	-150.534	0.407	0.040
-371.800	-4.931	-0.239	0.215
-370.785	-62.469	-0.454	0.246
-369.771	693.405	0.113	0.389
-368.756	168.148	0.126	0.235
-367.742	-20.183	0.336	-0.271
-366.727	174.409	0.023	-0.044
-365.712	-193.014	0.551	-0.006
-364.698	800.000	-0.046	0.189
-363.683	800.000	-0.095	-0.407
-362.669	-84.307	-0.233	-0.096
-361.654	-163.659	-0.180	-0.011
-360.639	-42.601	0.362	0.241
-359.625	-49.432	0.400	-0.249
-358.610	-64.851	0.363	-0.192
-357.596	-69.212	0.087	0.043
-356.581	139.624	0.079	-0.137
-355.566	-105.398	0.369	-0.109
-354.552	-0.664	-0.360	-0.334
-353.537	-45.144	-0.175	0.113
-352.523	800.000	-0.025	0.115
-351.508	-55.098	0.293	0.172
-350.493	800.000	0.102	-0.413
-349.479	233.647	-0.016	0.035
-348.464	-15.213	-0.187	-0.156
-347.450	-187.791	0.419	0.007
-346.435	630.064	0.051	-0.171
-345.420	-147.482	0.426	-0.047
-344.406	-25.783	-0.192	0.148
-343.391	-86.458	-0.334	0.133
-342.377	-39.253	0.082	0.056
-341.362	-110.948	-0.112	-0.030
-340.348	120.029	-0.186	-0.303
-339.333	-145.174	0.097	-0.011
-338.318	201.004	0.247	-0.498
-337.304	294.653	-0.189	-0.453
-336.289	-122.551	-0.341	-0.072
-335.275	-131.056	0.113	0.020
-334.260	-65.510	-0.269	-0.141
-333.245	179.872	-0.192	-0.369
-332.231	203.978	0.067	-0.137
-331.216	-200.000	-0.016	-0.596
-330.202	-200.000	-0.022	-0.229
-329.187	-43.064	0.159	-0.105
-328.172	5.222	0.385	0.371
-327.158	-46.854	0.521	0.332
-326.143	719.241	-0.055	-0.194
-325.129	263.832	-0.029	-0.067
-324.114	349.828	0.149	0.388
-323.099	-30.932	-0.153	0.113
-322.085	-200.000	-0.002	0.154
-321.070	-154.194	0.424	0.037
-320.056	-8.692	0.376	0.329
-319.041	136.725	-0.171	-0.293
-318.026	-12.454	0.274	0.234
-317.012	800.000	0.066	0.283
-315.997	-51.806	0.426	-0.258
-314.983	-93.261	0.379	0.137
-313.968	-143.542	-0.623	-0.077
-312.953	-79.053	-0.412	-0.182
-311.939	800.000	-0.027	-0.137
-310.924	-102.048	0.564	-0.177
-309.910	-165.505	0.169	0.009
-308.895	16.589	0.136	0.141
-307.880	3.788	0.401	0.382
-306.866	48.840	0.259	-0.318
-305.851	-121.268	-0.278	-0.060
-304.837	544.561	-0.063	-0.199
-303.822	-112.128	-0.431	-0.112
-302.807	800.000	-0.065	0.309
-301.793	363.425	-0.115	0.304
-300.778	35.275	0.119	0.136
-299.764	-92.124	0.330	-0.121
-298.749	-153.693	0.353	-0.031
-297.735	-74.204	-0.207	0.097
-296.720	-38.715	0.329	-0.226
-295.705	-54.775	-0.241	0.142
-294.691	209.341	-0.164	0.336
-293.676	11.644	-0.249	0.249
-292.662	-123.041	0.442	0.092
-291.647	261.970	-0.209	0.476
-290.632	16.630	-0.461	0.475
-289.618	-57.701	0.190	0.108
-288.603	-173.337	0.239	0.009
-287.589	624.308	-0.172	-0.569
-286.574	-200.000	-0.003	0.129
-285.559	-159.932	-0.455	0.032
-284.545	-44.733	0.042	-0.027
-283.530	-150.734	-0.066	0.007
-282.516	66.067	-0.354	-0.469
-281.501	-56.918	0.246	0.141
-280.486	-21.722	0.384	0.305
-279.472	191.211	-0.178	-0.352
-278.457	-7.065	-0.185	0.163
-277.443	31.804	-0.295	0.331
-276.428	-121.444	-0.699	-0.150
-275.413	-107.211	-0.275	0.078
-274.399	-62.738	-0.337	0.182
-273.384	105.496	-0.214	0.331
-272.370	521.585	0.064	-0.197
-271.355	236.879	0.060	-0.129
-270.340	-193.693	0.041	0.000
-269.326	-57.498	0.149	0.085
-268.311	170.941	0.085	0.159
-267.297	-112.643	0.410	0.106
-266.282	289.181	-0.175	0.416
-265.267	46.546	0.129	0.156
-264.253	-146.374	0.309	0.035
-263.238	-200.000	-0.011	-0.093
-262.224	-149.019	0.279	0.029
-261.209	63.423	0.483	-0.632
-260.195	437.277	-0.146	0.417
-259.180	516.762	0.147	-0.452
-258.165	54.492	0.175	0.220
-257.151	-131.666	0.296	-0.050
-256.136	152.050	0.104	0.186
-255.122	-58.303	-0.350	-0.198
-254.107	-200.000	-0.002	-0.312
-253.092	800.000	0.110	0.418
-252.078	-102.736	-0.181	0.056
-251.063	-106.374	0.289	0.084
-250.049	-41.945	0.343	0.228
-249.034	-110.040	-0.568	0.154
-248.019	278.202	-0.054	0.125
-247.005	-148.439	-0.254	0.027
-245.990	-3.886	-0.299	0.270
-244.976	160.505	-0.163	-0.297
-243.961	-144.827	0.380	-0.045
-242.946	231.721	-0.053	0.113
-241.932	-150.657	0.459	-0.045
-240.917	-200.000	0.005	0.172
-239.903	209.082	-0.123	0.252
-238.888	769.894	-0.164	0.586
-237.873	353.289	-0.102	-0.266
-236.859	-160.214	-0.375	0.026
-235.844	67.839	0.061	0.081
-234.830	97.077	0.136	-0.203
-233.815	-153.921	-0.586	-0.051
-232.800	-123.915	0.104	0.021
-231.786	-81.798	-0.448	-0.190
-230.771	-102.821	0.419	-0.129
-229.757	1.792	0.376	-0.353
-228.742	80.594	-0.139	-0.195
-227.727	-104.841	-0.331	0.098
-226.713	-168.491	0.197	0.010
-225.698	61.594	0.096	0.125
-224.684	229.530	0.175	0.374
-223.669	-200.000	-0.022	0.177
-222.655	-62.986	0.479	-0.257
-221.640	-96.755	0.267	-0.091
-220.625	-59.977	0.534	-0.296
-219.611	88.002	-0.127	0.183
-218.596	-74.401	0.052	0.024
-217.582	-200.000	-0.023	0.164
-216.567	-61.918	-0.360	-0.195
-215.552	-200.000	-0.012	-0.212
-214.538	667.461	0.032	-0.109
-213.523	-191.745	-0.271	0.003
-212.509	2.725	0.347	-0.327
-211.494	-90.232	-0.155	0.058
-210.479	-115.556	-0.374	0.091
-209.465	73.689	-0.085	0.116
-208.450	698.783	0.025	0.085
-207.436	-130.507	0.105	-0.018
-206.421	800.000	0.081	-0.300
-205.406	-0.269	0.188	0.174
-204.392	6.803	0.374	0.362
-203.377	-200.000	-0.023	0.193
-202.363	-36.221	-0.225	-0.158
-201.348	-28.355	-0.337	-0.252
-200.333	-171.431	-0.179	0.008
-199.319	-125.087	-0.216	0.043
-198.304	379.114	-0.070	-0.187
-197.290	-121.208	-0.123	-0.027
-196.275	85.247	-0.074	0.106
-195.260	-100.552	0.210	-0.067
-194.246	236.345	0.337	-0.728
-193.231	-200.000	0.022	-0.276
-192.217	379.952	0.080	-0.214
-191.202	626.247	-0.057	-0.189
-190.187	-37.203	-0.198	-0.137
-189.173	456.283	-0.138	-0.399
-188.158	578.150	-0.067	-0.214
-187.144	-200.000	0.001	0.135
-186.129	368.998	0.057	0.150
-185.114	-200.000	0.012	0.131
-184.100	-126.958	-0.316	-0.060
-183.085	599.123	0.048	-0.154
-182.071	407.024	-0.104	-0.286
-181.056	-99.004	0.163	0.053
-180.042	15.477	0.180	0.184
-179.027	-200.000	0.044	-0.260
-178.012	-200.000	-0.016	-0.108
-176.998	-151.702	0.304	0.029
-175.983	-49.804	-0.120	-0.074
-174.969	3.975	-0.274	0.261
-173.954	-126.082	0.240	0.046
-172.939	45.375	-0.389	0.466
-171.925	-115.895	-0.115	0.028
-170.910	56.166	0.364	0.460
-169.896	-21.121	0.308	0.244
-168.881	55.107	0.139	0.175
-167.866	-116.712	0.672	-0.159
-166.852	-71.569	-0.212	0.103
-165.837	-172.004	-0.817	-0.034
-164.823	-110.699	0.276	0.073
-163.808	91.152	0.051	-0.075
-162.793	568.847	0.098	-0.310
-161.779	800.000	0.045	0.239
-160.764	-83.946	-0.371	0.153
-159.750	19.769	-0.524	-0.548
-158.735	175.206	0.091	-0.172
-157.720	13.920	0.120	-0.122
-156.706	-164.895	0.534	0.031
-155.691	25.926	0.201	0.218
-154.677	-16.342	-0.386	0.317
-153.662	-200.000	0.059	-0.350
-152.647	-155.965	-0.349	-0.028
-151.633	-200.000	-0.007	-0.273
-150.618	-200.000	0.008	0.326
-149.604	26.202	-0.460	0.499
-148.589	-84.720	0.214	0.087
-147.574	87.609	0.114	0.165
-146.560	800.000	0.049	-0.229
-145.545	-89.861	-0.235	-0.089
-144.531	-17.083	0.329	0.269
-143.516	800.000	0.110	0.612
-142.502	535.954	0.030	0.093
-141.487	-200.000	-0.058	0.368
-140.472	-99.023	-0.431	0.141
-139.458	-81.232	0.267	0.114
-138.443	-110.941	-0.350	0.093
-137.429	52.339	0.159	-0.197
-136.414	-101.869	0.612	0.191
-135.399	-112.171	0.259	-0.067
-134.385	-85.781	0.583	0.233
-133.370	-101.773	0.335	0.105
-132.356	-177.286	-0.249	0.008
-131.341	164.030	-0.135	0.247
-130.326	-130.437	0.356	-0.062
-129.312	73.791	0.141	-0.192
-128.297	485.429	-0.199	0.591
-127.283	22.846	-0.183	0.194
-126.268	183.046	-0.024	-0.046
-125.253	800.000	0.054	0.212
-124.239	-159.099	-0.065	-0.005
-123.224	-156.335	0.200	0.016
-122.210	97.483	0.293	-0.437
-121.195	551.007	0.129	0.402
