DTS Sentinel unit serial number:	SN409020Multiplexer serial number:	ORYXHardware model number:	OX4-SRSoftware version number:	ORYX F/W v3.00 Oryx Data Collector v3.7.2.0data status	okinstallation	HaddamTimeLapsedifferential loss correction	single-endedforward channel	channel 3reverse channel	N/Adate	2011/06/21time	23:51:18forward acquisition time	30.00reverse acquisition time	0.00gamma	498.7831k internal	0.1752k external	0.1752temperature offset calibration	1.0074default loss term (dB/km)	0.3790temperature slope calibration	1.3530multiplexer offset coefficient	1.0000multiplexer slope coefficient	1.0000fibre end	0.00T internal ref (°C)	23.00T ext. ref 1 (°C)	18.30T ext. ref 2 (°C)	0.05length (m)	temperature (°C)	Stokes	anti-Stokes-747.200	800.000	0.035	0.140
-746.185	-156.494	0.314	-0.026
-745.171	25.271	0.203	0.224
-744.156	-200.000	-0.024	0.375
-743.142	-200.000	0.040	0.339
-742.127	-45.136	-0.277	0.182
-741.112	104.268	-0.262	-0.410
-740.098	-77.533	0.310	0.142
-739.083	-57.091	-0.352	-0.205
-738.069	67.924	-0.177	0.240
-737.054	-106.445	0.407	-0.120
-736.039	-26.240	0.104	0.081
-735.025	-53.378	0.211	0.128
-734.010	63.845	0.328	0.437
-732.996	-141.194	-0.168	0.022
-731.981	46.774	-0.552	-0.681
-730.966	-88.050	-0.347	-0.137
-729.952	-91.190	-0.096	-0.036
-728.937	24.729	-0.266	-0.292
-727.923	374.090	0.035	0.094
-726.908	439.025	-0.146	-0.425
-725.894	-3.657	0.316	-0.291
-724.879	-200.000	-0.001	0.257
-723.864	-17.273	-0.230	-0.192
-722.850	183.913	-0.091	0.180
-721.835	-200.000	0.019	-0.353
-720.821	90.023	-0.116	0.172
-719.806	-7.476	-0.146	0.131
-718.791	800.000	0.022	0.090
-717.777	800.000	0.042	-0.170
-716.762	-78.635	0.432	0.195
-715.748	-154.620	0.371	-0.032
-714.733	-145.596	0.248	0.029
-713.718	133.599	0.334	-0.574
-712.704	-19.841	0.198	0.162
-711.689	800.000	0.055	-0.266
-710.675	-200.000	-0.090	-0.593
-709.660	112.788	-0.082	0.132
-708.645	-9.049	0.365	0.324
-707.631	800.000	-0.010	-0.036
-706.616	22.861	-0.192	0.208
-705.602	-200.000	-0.045	0.303
-704.587	370.171	0.047	0.128
-703.572	-21.091	0.027	0.022
-702.558	185.898	0.206	-0.407
-701.543	-127.644	-0.443	-0.084
-700.529	-64.509	-0.418	-0.224
-699.514	-200.000	0.001	-0.764
-698.499	-173.059	0.679	-0.027
-697.485	-5.405	-0.438	-0.398
-696.470	800.000	0.055	-0.205
-695.456	209.386	-0.199	0.414
-694.441	30.464	-0.163	0.185
-693.426	800.000	-0.031	-0.152
-692.412	-200.000	-0.033	-0.215
-691.397	-200.000	-0.072	-0.697
-690.383	-25.290	0.134	-0.105
-689.368	-200.000	0.046	-0.284
-688.354	-10.562	-0.047	-0.041
-687.339	-200.000	0.055	0.417
-686.324	800.000	0.102	-0.460
-685.310	-186.231	0.328	0.006
-684.295	800.000	-0.070	0.299
-683.281	-200.000	0.048	-0.485
-682.266	53.482	0.325	-0.413
-681.251	-191.000	-0.359	-0.005
-680.237	-112.706	0.368	-0.096
-679.222	382.637	0.137	-0.374
-678.208	-11.481	0.268	0.233
-677.193	58.834	0.182	0.237
-676.178	311.298	0.107	-0.266
-675.164	-200.000	-0.306	-0.001
-674.149	-67.844	0.087	0.045
-673.135	-41.210	0.494	-0.336
-672.120	-67.420	0.292	-0.151
-671.105	43.448	-0.039	-0.047
-670.091	-40.775	0.269	-0.184
-669.076	-25.150	-0.152	-0.119
-668.062	800.000	0.144	0.566
-667.047	-82.763	-0.225	0.096
-666.032	-8.475	0.344	-0.306
-665.018	-57.630	0.062	-0.036
-664.003	87.822	0.138	-0.202
-662.989	39.338	0.259	-0.307
-661.974	-81.985	-0.162	-0.070
-660.959	-200.000	-0.346	0.001
-659.945	-195.018	-0.208	-0.002
-658.930	-59.193	0.299	0.170
-657.916	800.000	0.053	0.232
-656.901	-86.195	0.394	0.160
-655.886	-131.447	0.086	-0.015
-654.872	4.553	0.124	-0.120
-653.857	23.391	-0.261	0.284
-652.843	30.617	0.326	0.369
-651.828	-200.000	0.032	0.200
-650.814	159.853	-0.089	-0.164
-649.799	-200.000	0.051	0.438
-648.784	-172.391	-0.237	0.010
-647.770	-30.748	-0.194	0.145
-646.755	-3.447	0.109	-0.101
-645.741	119.998	0.278	-0.456
-644.726	-200.000	0.026	-0.451
-643.711	-120.416	0.227	0.051
-642.697	-102.048	0.288	-0.091
-641.682	-119.344	-0.078	-0.018
-640.668	-75.929	0.169	-0.079
-639.653	-18.872	0.146	-0.120
-638.638	-200.000	-0.026	-0.271
-637.624	-81.503	0.407	0.176
-636.609	562.671	0.058	0.185
-635.595	13.512	-0.126	-0.130
-634.580	-111.451	0.343	0.092
-633.565	-11.932	-0.387	0.335
-632.551	-126.490	0.182	0.036
-631.536	-77.815	-0.100	0.045
-630.522	-86.227	-0.267	-0.108
-629.507	212.427	-0.179	-0.373
-628.492	-136.121	-0.678	-0.104
-627.478	-172.366	-0.531	-0.022
-626.463	574.656	0.158	0.513
-625.449	-200.000	-0.001	0.005
-624.434	123.180	-0.220	0.365
-623.419	-200.000	-0.013	-0.135
-622.405	-125.243	0.298	0.060
-621.390	-0.317	-0.122	-0.114
-620.376	152.147	0.189	-0.341
-619.361	-69.044	-0.262	0.133
-618.346	146.888	-0.175	-0.312
-617.332	375.325	0.100	-0.270
-616.317	800.000	-0.059	-0.327
-615.303	800.000	-0.035	-0.159
-614.288	-1.273	-0.113	-0.105
-613.273	-58.158	0.205	0.118
-612.259	-104.132	0.427	-0.130
-611.244	800.000	-0.093	-0.506
-610.230	-54.958	0.190	-0.113
-609.215	83.551	-0.396	-0.571
-608.201	501.335	0.091	-0.279
-607.186	-200.000	0.004	0.051
-606.171	-90.966	0.183	-0.069
-605.157	-114.923	0.340	0.085
-604.142	-155.487	0.340	0.029
-603.128	-170.699	0.255	-0.011
-602.113	430.713	0.076	-0.219
-601.098	788.331	0.078	0.283
-600.084	-10.404	-0.101	-0.089
-599.069	-105.424	-0.308	-0.092
-598.055	14.850	0.105	-0.109
-597.040	152.386	-0.244	-0.440
-596.025	-11.779	-0.200	-0.173
-595.011	-200.000	-0.008	-0.422
-593.996	-106.668	-0.231	0.067
-592.982	-116.817	0.044	0.011
-591.967	320.150	0.074	-0.187
-590.952	24.251	-0.303	-0.330
-589.938	-200.000	-0.005	-0.161
-588.923	-75.667	-0.569	0.266
-587.909	-148.238	0.240	0.026
-586.894	436.883	-0.084	-0.241
-585.879	-62.720	0.085	0.046
-584.865	-200.000	-0.015	0.185
-583.850	-87.139	0.185	0.074
-582.836	-29.239	-0.674	-0.508
-581.821	316.369	0.178	0.445
-580.806	-86.494	-0.389	0.157
-579.792	185.695	0.149	0.293
-578.777	-55.984	0.346	0.203
-577.763	-7.320	0.358	0.319
-576.748	-103.617	0.859	0.264
-575.733	-33.985	0.424	0.307
-574.719	-112.869	-0.688	0.178
-573.704	-3.092	-0.420	0.386
-572.690	381.459	0.142	0.385
-571.675	-87.532	-0.237	0.094
-570.661	121.307	0.199	0.328
-569.646	-24.707	-0.191	-0.150
-568.631	65.506	-0.306	0.409
-567.617	800.000	-0.102	0.468
-566.602	146.871	0.221	-0.393
-565.588	-200.000	0.010	0.307
-564.573	-82.490	0.273	0.116
-563.558	11.754	-0.080	0.080
-562.544	221.397	-0.296	-0.628
-561.529	-27.102	0.275	-0.211
-560.515	-200.000	0.048	0.286
-559.500	-79.787	0.210	-0.093
-558.485	-45.735	-0.102	-0.066
-557.471	-147.472	-0.206	0.023
-556.456	198.821	0.206	0.416
-555.442	-105.281	0.174	-0.052
-554.427	222.850	-0.227	-0.484
-553.412	-172.383	0.485	0.020
-552.398	-200.000	-0.031	0.217
-551.383	-146.028	-0.359	0.041
-550.369	51.084	0.307	0.384
-549.354	66.676	-0.362	0.485
-548.339	-30.969	-0.204	-0.152
-547.325	31.943	-0.400	0.454
-546.310	68.376	0.164	0.221
-545.296	-200.000	0.004	-0.239
-544.281	30.162	0.221	-0.249
-543.266	20.447	-0.188	-0.200
-542.252	-7.981	-0.309	-0.274
-541.237	-200.000	0.020	0.346
-540.223	-131.000	0.067	0.012
-539.208	-98.069	-0.502	-0.169
-538.193	-60.422	-0.080	0.044
-537.179	-145.955	0.452	-0.052
-536.164	-78.695	0.191	0.086
-535.150	-174.150	-0.360	-0.014
-534.135	-94.656	-0.453	-0.161
-533.121	241.064	0.123	0.272
-532.106	1.385	-0.168	0.159
-531.091	-200.000	0.013	0.342
-530.077	318.758	-0.245	0.614
-529.062	-8.958	0.155	0.136
-528.048	-171.236	0.580	-0.025
-527.033	-61.628	0.013	0.007
-526.018	-12.654	0.117	-0.100
-525.004	-94.796	-0.379	0.134
-523.989	33.044	-0.277	-0.316
-522.975	102.774	-0.103	-0.159
-521.960	800.000	0.013	-0.069
-520.945	-50.231	-0.400	0.248
-519.931	-31.161	0.369	-0.273
-518.916	-82.433	-0.244	-0.104
-517.902	194.454	-0.050	0.101
-516.887	148.230	0.029	0.052
-515.872	-2.993	0.175	-0.160
-514.858	74.980	-0.369	0.512
-513.843	800.000	-0.034	-0.187
-512.829	-79.664	0.409	-0.181
-511.814	-7.888	0.168	0.149
-510.799	13.274	0.470	0.479
-509.785	-172.853	-0.281	0.011
-508.770	212.315	0.089	-0.186
-507.756	-90.332	0.310	0.118
-506.741	-200.000	-0.080	-0.538
-505.726	-26.439	0.602	-0.463
-504.712	-85.852	-0.614	0.249
-503.697	-171.484	0.105	0.005
-502.683	-15.302	-0.705	-0.592
-501.668	-46.309	-0.313	-0.202
-500.653	-1.176	0.286	0.266
-499.639	37.822	-0.128	-0.150
-498.624	118.729	0.287	0.467
-497.610	-200.000	0.015	0.460
-496.595	-52.413	0.468	-0.284
-495.581	800.000	0.044	-0.183
-494.566	158.268	-0.155	0.283
-493.551	101.161	0.146	-0.224
-492.537	-74.227	-0.579	-0.274
-491.522	157.231	0.136	0.248
-490.508	77.707	0.311	0.436
-489.493	-71.605	0.110	0.054
-488.478	-200.000	0.061	0.576
-487.464	72.407	0.270	-0.370
-486.449	177.087	0.200	-0.383
-485.435	800.000	-0.092	0.443
-484.420	178.130	-0.342	-0.658
-483.405	101.121	0.176	-0.269
-482.391	299.967	0.144	0.351
-481.376	-200.000	-0.045	0.306
-480.362	-200.000	0.000	0.024
-479.347	-101.988	0.255	0.080
-478.332	-65.763	-0.323	-0.169
-477.318	115.298	-0.096	0.154
-476.303	22.824	-0.178	0.192
-475.289	283.139	-0.212	-0.503
-474.274	-200.000	-0.017	0.221
-473.259	-18.428	0.161	-0.132
-472.245	800.000	0.088	-0.480
-471.230	385.798	-0.071	0.192
-470.216	-180.852	0.205	0.005
-469.201	-159.308	-0.423	-0.031
-468.186	-87.813	-0.450	-0.177
-467.172	-101.091	-0.371	0.119
-466.157	-151.639	-0.488	0.047
-465.143	-147.116	-0.063	-0.007
-464.128	-157.985	-0.416	0.032
-463.113	161.090	-0.104	-0.192
-462.099	-57.974	0.550	0.314
-461.084	-79.742	0.254	0.112
-460.070	-101.290	0.239	-0.076
-459.055	19.043	0.279	-0.294
-458.040	-127.328	0.397	-0.075
-457.026	-200.000	-0.043	-0.253
-456.011	25.003	-0.075	0.082
-454.997	246.166	-0.293	0.651
-453.982	-52.608	0.343	0.207
-452.968	-200.000	-0.019	-0.251
-451.953	29.734	-0.173	-0.194
-450.938	82.899	-0.177	-0.253
-449.924	-56.744	0.314	-0.182
-448.909	36.062	0.101	-0.117
-447.895	-85.127	-0.446	-0.182
-446.880	30.259	-0.132	-0.148
-445.865	-71.181	0.237	-0.116
-444.851	-107.618	0.284	-0.081
-443.836	-165.116	-0.131	0.008
-442.822	-109.063	-0.180	-0.050
-441.807	708.957	0.099	-0.344
-440.792	273.643	-0.193	0.450
-439.778	-154.757	0.147	-0.013
-438.763	-99.659	0.202	0.066
-437.749	-142.128	0.281	0.036
-436.734	800.000	-0.091	0.380
-435.719	-200.000	-0.005	-0.154
-434.705	779.136	-0.037	0.133
-433.690	602.795	-0.023	-0.076
-432.676	5.378	0.220	-0.213
-431.661	426.669	0.134	0.381
-430.646	-53.298	0.323	0.194
-429.632	-9.740	0.127	-0.111
-428.617	-200.000	-0.050	0.343
-427.603	800.000	-0.010	-0.051
-426.588	-102.626	0.398	-0.124
-425.573	518.870	0.032	-0.098
-424.559	14.562	0.075	0.077
-423.544	25.160	-0.339	0.369
-422.530	-200.000	-0.065	-0.481
-421.515	800.000	0.059	-0.220
-420.500	154.845	-0.225	0.406
-419.486	7.318	-0.224	0.219
-418.471	-200.000	-0.000	0.262
-417.457	34.401	0.260	0.298
-416.442	-105.298	0.611	-0.181
-415.428	800.000	0.055	0.310
-414.413	-108.800	-0.461	-0.128
-413.398	251.453	-0.147	0.328
-412.384	-199.462	0.309	-0.002
-411.369	-79.830	0.140	0.061
-410.355	-29.623	0.347	-0.259
-409.340	-115.159	0.273	-0.067
-408.325	-200.000	-0.041	0.353
-407.311	-26.620	-0.191	-0.146
-406.296	-200.000	0.046	-0.579
-405.282	164.546	0.063	-0.117
-404.267	-120.336	-0.323	-0.072
-403.252	-188.563	0.160	-0.003
-402.238	40.162	-0.141	-0.166
-401.223	92.243	-0.198	0.293
-400.209	-104.737	-0.427	-0.128
-399.194	36.954	-0.073	-0.085
-398.179	-75.013	-0.122	0.057
-397.165	21.236	0.317	0.337
-396.150	-62.038	0.349	0.190
-395.136	-40.254	-0.320	0.217
-394.121	-62.540	-0.277	-0.150
-393.106	-200.000	-0.059	-0.425
-392.092	269.758	0.179	-0.414
-391.077	28.327	-0.140	-0.155
-390.063	-12.093	-0.192	-0.164
-389.048	-1.345	-0.119	0.110
-388.033	-200.000	-0.008	0.229
-387.019	765.610	-0.014	-0.051
-386.004	-29.965	-0.103	-0.077
-384.990	-150.249	0.111	-0.011
-383.975	-84.966	0.441	0.180
-382.960	24.978	-0.319	0.346
-381.946	-82.512	-0.586	0.248
-380.931	-131.615	0.070	-0.012
-379.917	-15.066	0.235	0.197
-378.902	-67.925	-0.149	0.076
-377.888	-200.000	0.030	-0.221
-376.873	619.033	0.085	-0.280
-375.858	-200.000	-0.011	-0.109
-374.844	-181.312	0.367	-0.009
-373.829	343.154	-0.141	0.364
-372.815	-143.558	-0.510	0.063
-371.800	800.000	0.095	-0.451
-370.785	79.393	-0.109	-0.153
-369.771	-200.000	0.008	0.198
-368.756	133.196	0.218	-0.369
-367.742	-200.000	0.063	-0.368
-366.727	101.376	-0.073	0.112
-365.712	-57.987	0.530	-0.301
-364.698	117.726	-0.267	-0.430
-363.683	-41.303	0.409	0.275
-362.669	-200.000	-0.032	0.411
-361.654	-13.230	0.297	-0.252
-360.639	-31.118	0.300	0.220
-359.625	68.038	-0.118	-0.158
-358.610	-83.758	0.368	-0.153
-357.596	-200.000	-0.025	-0.260
-356.581	-81.023	-0.560	0.241
-355.566	-19.284	-0.315	-0.255
-354.552	-180.607	-0.090	-0.002
-353.537	212.796	-0.119	-0.245
-352.523	-175.868	0.598	-0.020
-351.508	-135.522	0.427	-0.066
-350.493	-58.245	-0.310	-0.176
-349.479	-26.597	-0.266	-0.203
-348.464	-56.048	-0.083	-0.048
-347.450	-58.976	0.123	-0.069
-346.435	33.159	-0.359	0.407
-345.420	-200.000	0.017	0.574
-344.406	-28.349	0.183	0.138
-343.391	411.270	0.165	-0.460
-342.377	-200.000	0.020	0.150
-341.362	-55.706	-0.240	-0.140
-340.348	-148.508	-0.268	0.028
-339.333	24.050	-0.161	-0.174
-338.318	-177.293	0.511	0.016
-337.304	-90.958	0.392	-0.146
-336.289	-200.000	-0.028	-0.212
-335.275	166.735	0.255	0.473
-334.260	-168.783	0.083	-0.004
-333.245	200.832	0.116	0.234
-332.231	6.337	0.447	-0.433
-331.216	261.490	0.172	0.391
-330.202	47.143	0.206	0.251
-329.187	-54.984	0.319	-0.187
-328.172	5.380	-0.175	-0.169
-327.158	-108.131	0.225	0.063
-326.143	-50.981	0.027	-0.017
-325.129	59.921	0.302	-0.389
-324.114	-14.772	0.479	-0.401
-323.099	451.537	0.131	0.379
-322.085	66.132	-0.036	0.047
-321.070	800.000	-0.089	0.376
-320.056	273.146	-0.060	-0.140
-319.041	-78.142	0.352	-0.158
-318.026	-135.731	-0.166	0.025
-317.012	800.000	-0.077	-0.394
-315.997	-57.906	0.217	-0.123
-314.983	-89.998	-0.269	-0.102
-313.968	-200.000	-0.027	0.265
-312.953	-104.475	-0.104	-0.031
-311.939	-200.000	-0.013	-0.196
-310.924	-23.426	0.286	-0.224
-309.910	-41.363	0.197	0.132
-308.895	70.417	0.184	-0.249
-307.880	-56.036	-0.331	-0.192
-306.866	800.000	-0.047	-0.191
-305.851	-85.897	-0.415	-0.167
-304.837	137.212	-0.070	0.119
-303.822	-200.000	-0.001	0.137
-302.807	147.183	0.082	-0.145
-301.793	-198.746	-0.313	-0.002
-300.778	-177.749	-0.131	0.004
-299.764	32.243	0.170	0.191
-298.749	-101.528	-0.371	-0.117
-297.735	-69.219	-0.182	-0.091
-296.720	-200.000	-0.006	-0.101
-295.705	-200.000	0.001	0.110
-294.691	425.849	0.196	-0.554
-293.676	800.000	0.053	0.198
-292.662	-57.503	-0.222	-0.127
-291.647	49.180	0.150	-0.183
-290.632	800.000	-0.144	0.542
-289.618	-200.000	-0.011	-0.105
-288.603	-41.803	0.401	0.267
-287.589	-31.668	0.512	-0.374
-286.574	-200.000	-0.042	-0.605
-285.559	33.765	0.057	-0.065
-284.545	146.997	-0.312	0.549
-283.530	-74.475	-0.218	0.102
-282.516	498.002	-0.060	0.180
-281.501	-157.576	-0.089	0.007
-280.486	-121.252	0.092	-0.020
-279.472	95.292	-0.281	-0.418
-278.457	-150.873	-0.572	0.056
-277.443	800.000	0.132	-0.496
-276.428	-182.514	-0.102	-0.002
-275.413	800.000	-0.045	0.182
-274.399	-117.327	-0.344	-0.081
-273.384	-143.352	-0.558	-0.069
-272.370	134.247	0.318	0.538
-271.355	-14.223	0.241	0.202
-270.340	-200.000	0.051	0.490
-269.326	-40.063	0.551	0.373
-268.311	716.174	0.111	0.386
-267.297	-153.554	-0.279	-0.025
-266.282	800.000	0.098	0.391
-265.267	48.029	-0.172	0.210
-264.253	-110.443	0.195	0.052
-263.238	-112.323	-0.239	0.062
-262.224	800.000	0.077	-0.430
-261.209	-200.000	0.140	-0.942
-260.195	-200.000	0.017	-0.103
-259.180	-87.734	0.145	0.057
-258.165	140.177	0.260	0.448
-257.151	-148.194	-0.577	0.061
-256.136	408.836	0.087	0.242
-255.122	-133.813	0.423	0.068
-254.107	-110.344	-0.253	-0.068
-253.092	-84.571	0.407	-0.166
-252.078	-96.522	-0.572	-0.195
-251.063	-200.000	-0.023	-0.178
-250.049	103.630	0.221	0.338
-249.034	32.173	-0.354	-0.397
-248.019	1.764	0.098	-0.092
-247.005	-200.000	0.004	-0.554
-245.990	526.100	-0.006	-0.019
-244.976	-12.169	0.119	0.101
-243.961	-152.142	0.098	-0.009
-242.946	181.869	-0.124	-0.238
-241.932	196.495	0.207	-0.411
-240.917	-179.826	-0.255	-0.007
-239.903	-45.749	-0.108	0.069
-238.888	-200.000	0.014	-0.169
-237.873	-85.008	-0.514	0.209
-236.859	-42.629	-0.274	-0.181
-235.844	50.649	-0.085	0.104
-234.830	-200.000	0.017	0.149
-233.815	378.496	0.081	0.217
-232.800	-12.386	-0.116	-0.099
-231.786	800.000	-0.076	0.310
-230.771	-175.840	0.301	-0.010
-229.757	87.175	0.136	0.195
-228.742	-31.003	0.325	0.238
-227.727	800.000	-0.101	0.372
-226.713	33.584	-0.019	-0.022
-225.698	34.331	0.119	0.135
-224.684	-100.193	0.365	0.117
-223.669	-43.989	-0.122	0.079
-222.655	239.904	0.195	0.423
-221.640	68.041	-0.043	0.057
-220.625	-87.592	-0.615	0.240
-219.611	396.487	0.087	0.239
-218.596	493.062	0.128	0.385
-217.582	135.637	-0.167	0.284
-216.567	21.036	-0.322	0.340
-215.552	-69.868	0.122	0.060
-214.538	-172.727	-0.385	-0.015
-213.523	-56.989	-0.147	-0.084
-212.509	544.350	0.116	-0.363
-211.494	-132.664	0.316	0.052
-210.479	-200.000	0.030	0.202
-209.465	31.392	0.335	0.374
-208.450	-14.047	-0.200	0.167
-207.436	-68.038	0.294	-0.148
-206.421	-4.383	0.033	-0.030
-205.406	-200.000	0.017	0.453
-204.392	-200.000	0.008	0.150
-203.377	7.086	-0.113	0.110
-202.363	-127.051	-0.393	0.074
-201.348	98.484	-0.111	-0.167
-200.333	-87.893	-0.059	-0.023
-199.319	-200.000	-0.086	0.526
-198.304	52.381	-0.292	0.362
-197.290	75.481	0.191	-0.262
-196.275	-18.492	-0.133	0.108
-195.260	217.372	-0.084	-0.175
-194.246	-84.125	-0.252	-0.104
-193.231	2.239	-0.173	0.162
-192.217	-120.178	0.469	0.103
-191.202	309.697	-0.143	0.350
-190.187	-119.148	0.264	0.059
-189.173	-67.576	-0.137	0.069
-188.158	-105.278	0.297	0.087
-187.144	-111.086	-0.321	0.085
-186.129	-26.781	0.491	-0.372
-185.114	165.205	-0.126	-0.231
-184.100	39.915	0.074	0.086
-183.085	388.377	0.111	-0.301
-182.071	600.091	-0.073	-0.238
-181.056	-197.782	0.162	0.001
-180.042	-163.200	0.414	-0.025
-179.027	711.940	0.098	-0.341
-178.012	-163.225	0.425	-0.026
-176.998	69.264	0.062	-0.083
-175.983	-200.000	0.030	0.215
-174.969	-69.167	0.347	-0.172
-173.954	-84.794	0.089	-0.036
-172.939	15.196	-0.485	0.493
-171.925	800.000	-0.084	-0.414
-170.910	-4.489	0.322	0.288
-169.896	25.711	-0.113	0.122
-168.881	28.142	-0.090	0.099
-167.866	-22.446	-0.422	-0.331
-166.852	-16.863	-0.519	-0.425
-165.837	-200.000	0.019	-0.366
-164.823	-84.217	0.228	-0.093
-163.808	800.000	0.055	0.246
-162.793	-200.000	0.009	-0.071
-161.779	-19.144	-0.304	-0.245
-160.764	-119.060	0.186	-0.042
-159.750	16.626	0.250	-0.257
-158.735	-22.767	0.174	0.136
-157.720	137.745	0.238	0.405
-156.706	-131.440	-0.467	0.079
-155.691	382.327	-0.067	-0.179
-154.677	20.759	-0.185	-0.194
-153.662	12.207	0.297	0.297
-152.647	21.618	-0.126	0.133
-151.633	185.654	-0.199	-0.385
-150.618	51.894	0.052	-0.064
-149.604	-200.000	0.034	0.265
-148.589	-200.000	0.004	0.034
-147.574	-200.000	0.018	-0.313
-146.560	800.000	0.111	-0.440
-145.545	-200.000	-0.026	-0.154
-144.531	150.209	-0.169	-0.299
-143.516	800.000	-0.063	-0.236
-142.502	650.766	0.082	0.272
-141.487	-89.636	0.178	0.067
-140.472	-32.091	0.377	0.273
-139.458	-93.113	-0.223	0.080
-138.443	-29.178	0.106	-0.079
-137.429	-153.164	0.277	0.025
-136.414	226.413	0.061	0.128
-135.399	78.957	0.260	0.361
-134.385	-113.325	0.579	-0.146
-133.370	-200.000	-0.044	-0.464
-132.356	-180.819	-0.360	-0.009
-131.341	-102.767	-0.056	0.017
-130.326	-6.638	0.213	-0.188
-129.312	-200.000	-0.026	-0.636
-128.297	-48.006	-0.225	0.141
-127.283	124.097	-0.192	-0.314
-126.268	-1.266	0.527	0.482
-125.253	-128.824	0.208	0.038
-124.239	-42.274	-0.180	-0.119
-123.224	-149.715	-0.786	0.079
-122.210	800.000	0.105	-0.418
-121.195	30.824	-0.317	0.351
