DTS Sentinel unit serial number:	SN409020Multiplexer serial number:	ORYXHardware model number:	OX4-SRSoftware version number:	ORYX F/W v3.00 Oryx Data Collector v3.7.2.0data status	okinstallation	HaddamTimeLapsedifferential loss correction	single-endedforward channel	channel 3reverse channel	N/Adate	2011/06/21time	19:11:17forward acquisition time	30.00reverse acquisition time	0.00gamma	498.7831k internal	0.1801k external	0.1801temperature offset calibration	1.0074default loss term (dB/km)	0.3790temperature slope calibration	1.3530multiplexer offset coefficient	1.0000multiplexer slope coefficient	1.0000fibre end	0.00T internal ref (°C)	34.50T ext. ref 1 (°C)	26.04T ext. ref 2 (°C)	0.23length (m)	temperature (°C)	Stokes	anti-Stokes-747.200	-72.556	0.418	-0.199
-746.185	-4.254	-0.119	0.106
-745.171	46.144	-0.142	-0.171
-744.156	383.643	-0.091	0.242
-743.142	-200.000	-0.057	-0.339
-742.127	-40.954	0.234	0.156
-741.112	-200.000	-0.082	-0.473
-740.098	85.918	-0.460	0.654
-739.083	-56.359	-0.528	-0.302
-738.069	103.988	-0.190	0.289
-737.054	-91.801	0.043	-0.016
-736.039	4.251	-0.601	0.568
-735.025	14.076	-0.175	0.175
-734.010	-7.656	-0.181	0.158
-732.996	-148.555	0.073	0.008
-731.981	-118.117	0.550	-0.126
-730.966	8.208	0.399	0.386
-729.952	-101.055	-0.836	0.263
-728.937	-105.955	-0.316	0.091
-727.923	-86.752	0.237	0.093
-726.908	-138.722	0.109	-0.015
-725.894	-141.207	0.507	-0.066
-724.879	-108.382	0.229	0.063
-723.864	-40.920	-0.230	0.153
-722.850	229.538	-0.101	-0.214
-721.835	-67.375	0.031	0.016
-720.821	-32.411	-0.214	0.154
-719.806	55.601	-0.138	-0.172
-718.791	330.874	0.024	-0.060
-717.777	-81.962	0.196	-0.082
-716.762	-67.280	-0.376	0.190
-715.748	800.000	0.114	-0.613
-714.733	335.408	0.220	-0.554
-713.718	226.696	0.082	-0.173
-712.704	-51.402	0.620	-0.373
-711.689	-156.180	-0.304	-0.024
-710.675	-59.349	-0.082	0.045
-709.660	-118.840	0.323	0.073
-708.645	-94.148	0.136	-0.048
-707.631	-118.256	-0.396	-0.090
-706.616	173.431	-0.091	-0.171
-705.602	-112.169	0.458	-0.118
-704.587	-200.000	-0.021	0.181
-703.572	-200.000	-0.015	0.154
-702.558	88.174	0.218	0.313
-701.543	-91.378	0.260	-0.095
-700.529	-46.346	-0.216	0.137
-699.514	800.000	-0.048	0.232
-698.499	129.007	-0.215	-0.354
-697.485	-69.360	0.222	0.110
-696.470	-169.629	-0.678	-0.031
-695.456	-21.480	-0.567	0.445
-694.441	-102.238	-0.328	0.101
-693.426	289.989	0.081	0.189
-692.412	-83.530	0.202	0.083
-691.397	-118.627	-0.249	-0.056
-690.383	-48.421	-0.280	-0.173
-689.368	88.270	-0.124	0.178
-688.354	92.812	-0.166	-0.242
-687.339	-153.595	-0.538	0.047
-686.324	-6.295	0.082	-0.072
-685.310	-200.000	0.025	-0.270
-684.295	66.767	-0.212	-0.278
-683.281	-200.000	0.241	0.001
-682.266	-102.476	-0.436	0.133
-681.251	267.730	0.094	-0.213
-680.237	214.954	-0.061	0.125
-679.222	-2.887	0.257	0.231
-678.208	-35.438	0.462	-0.323
-677.193	-100.756	0.257	0.081
-676.178	-33.964	0.225	0.159
-675.164	-85.610	-0.267	-0.106
-674.149	231.219	0.209	0.443
-673.135	-200.000	0.048	0.481
-672.120	-85.608	-0.330	-0.131
-671.105	76.812	-0.251	-0.344
-670.091	85.175	0.263	0.371
-669.076	482.043	0.069	0.203
-668.062	262.258	0.071	-0.160
-667.047	-114.681	0.488	0.119
-666.032	67.880	0.268	-0.354
-665.018	120.116	0.173	0.277
-664.003	-138.556	-0.172	0.024
-662.989	40.675	-0.319	0.370
-661.974	-135.379	-0.753	-0.115
-660.959	-200.000	0.073	-0.574
-659.945	800.000	-0.062	-0.256
-658.930	198.590	0.238	-0.471
-657.916	-200.000	-0.009	-0.265
-656.901	-132.000	0.202	0.034
-655.886	-86.652	-0.273	-0.107
-654.872	-167.928	-0.176	0.009
-653.857	-200.000	-0.010	-0.238
-652.843	98.165	-0.161	0.239
-651.828	-200.000	-0.008	-0.365
-650.814	-200.000	-0.053	-0.428
-649.799	300.466	-0.041	-0.097
-648.784	-34.636	0.125	0.088
-647.770	60.812	0.147	-0.188
-646.755	35.234	-0.144	0.162
-645.741	13.707	-0.393	-0.393
-644.726	433.927	-0.033	0.092
-643.711	85.155	-0.187	0.264
-642.697	-31.233	-0.208	0.150
-641.682	-55.520	-0.205	-0.118
-640.668	-200.000	0.018	0.118
-639.653	-200.000	0.019	-0.407
-638.638	323.424	0.078	0.192
-637.624	746.207	-0.152	0.530
-636.609	4.520	0.151	0.142
-635.595	141.482	0.123	0.210
-634.580	92.128	-0.287	0.417
-633.565	800.000	-0.096	0.418
-632.551	161.456	0.228	-0.411
-631.536	-200.000	-0.078	-0.524
-630.522	-69.098	0.169	-0.083
-629.507	-121.569	0.331	-0.070
-628.492	-110.290	0.225	-0.060
-627.478	-102.004	0.097	0.030
-626.463	64.261	0.278	-0.360
-625.449	-88.090	0.150	-0.058
-624.434	800.000	0.081	-0.453
-623.419	39.152	0.156	0.179
-622.405	219.797	-0.181	0.373
-621.390	-139.069	0.495	0.068
-620.376	26.518	0.114	-0.122
-619.361	-153.734	0.458	0.040
-618.346	-200.000	-0.067	0.509
-617.332	-37.197	0.154	0.106
-616.317	-14.876	0.086	-0.071
-615.303	800.000	0.079	-0.293
-614.288	-18.161	0.208	-0.167
-613.273	299.773	-0.105	-0.249
-612.259	-200.000	0.037	-0.514
-611.244	-200.000	0.057	0.418
-610.230	-116.074	0.133	0.031
-609.215	-146.616	0.164	0.018
-608.201	-51.547	-0.322	0.192
-607.186	-121.673	-0.115	0.024
-606.171	-94.820	0.237	-0.082
-605.157	-65.115	0.414	-0.214
-604.142	-49.665	0.029	-0.017
-603.128	-96.785	-0.361	0.121
-602.113	261.032	-0.048	0.106
-601.098	101.607	-0.340	-0.511
-600.084	77.165	-0.209	-0.286
-599.069	509.739	-0.128	-0.386
-598.055	-95.824	0.266	-0.091
-597.040	-102.311	0.131	0.040
-596.025	800.000	0.060	-0.277
-595.011	-59.878	-0.059	-0.032
-593.996	1.566	-0.550	-0.508
-592.982	-139.431	0.176	-0.024
-591.967	49.357	-0.389	0.470
-590.952	-107.038	-0.860	-0.242
-589.938	-108.936	-0.355	-0.097
-588.923	148.409	0.054	-0.093
-587.909	-59.451	0.106	0.058
-586.894	-185.849	0.189	-0.004
-585.879	21.694	0.161	-0.168
-584.865	-200.000	0.002	0.033
-583.850	-42.935	-0.424	0.276
-582.836	-200.000	-0.014	0.228
-581.821	3.156	-0.066	-0.062
-580.806	99.114	0.233	0.346
-579.792	665.739	-0.039	-0.131
-578.777	-65.029	-0.551	-0.284
-577.763	-139.566	0.209	-0.028
-576.748	467.597	-0.113	-0.326
-575.733	-102.955	0.131	0.040
-574.719	108.979	-0.363	0.558
-573.704	-142.592	-0.319	-0.040
-572.690	-44.910	-0.250	-0.160
-571.675	-133.939	-0.348	-0.055
-570.661	53.970	-0.243	-0.300
-569.646	-42.742	-0.290	-0.189
-568.631	-166.080	-0.253	0.014
-567.617	-177.921	0.667	0.020
-566.602	-23.390	-0.471	-0.362
-565.588	129.096	-0.214	-0.352
-564.573	-2.886	0.171	-0.153
-563.558	-200.000	0.034	-0.302
-562.544	296.244	0.247	-0.584
-561.529	372.610	0.116	0.305
-560.515	74.083	-0.205	-0.276
-559.500	-200.000	0.036	-0.281
-558.485	-11.456	0.329	-0.277
-557.471	-134.611	0.671	0.104
-556.456	800.000	-0.053	0.261
-555.442	7.134	0.217	0.208
-554.427	223.380	-0.021	-0.043
-553.412	96.003	0.070	-0.103
-552.398	-106.141	-0.251	0.072
-551.383	-199.482	-0.026	-0.000
-550.369	-78.050	0.358	0.157
-549.354	82.123	-0.173	0.241
-548.339	313.890	-0.038	0.093
-547.325	-68.065	-0.431	0.214
-546.310	0.092	0.460	0.420
-545.296	18.638	0.118	0.121
-544.281	-131.226	-0.138	0.023
-543.266	-162.232	0.277	0.017
-542.252	120.812	-0.126	0.201
-541.237	-200.000	-0.023	-0.165
-540.223	-163.002	0.020	0.001
-539.208	9.401	-0.385	-0.373
-538.193	-136.392	0.237	-0.035
-537.179	64.834	0.228	-0.295
-536.164	-200.000	-0.028	0.355
-535.150	-18.135	-0.376	0.301
-534.135	-42.384	-0.412	0.269
-533.121	366.556	-0.176	0.458
-532.106	-61.859	0.236	0.126
-531.091	-113.814	0.319	0.079
-530.077	-88.762	-0.498	0.189
-529.062	-27.754	-0.304	0.225
-528.048	-96.853	-0.243	0.081
-527.033	-81.857	-0.088	-0.037
-526.018	217.759	-0.011	0.023
-525.004	-44.920	0.100	0.063
-523.989	-200.000	-0.014	-0.327
-522.975	800.000	-0.120	-0.477
-521.960	59.542	-0.191	0.241
-520.945	622.553	0.157	0.511
-519.931	800.000	-0.170	0.697
-518.916	97.137	0.181	0.266
-517.902	51.753	-0.137	-0.166
-516.887	-53.073	-0.426	0.250
-515.872	20.830	-0.286	0.297
-514.858	-117.408	-0.115	-0.027
-513.843	-8.970	-0.246	0.211
-512.829	-113.891	-0.169	-0.042
-511.814	86.149	0.275	0.388
-510.799	800.000	0.075	0.420
-509.785	195.117	0.149	0.290
-508.770	-160.324	-0.434	-0.029
-507.756	-74.941	0.194	-0.089
-506.741	-105.268	0.243	0.070
-505.726	536.953	-0.090	0.275
-504.712	-200.000	0.045	0.384
-503.697	34.115	-0.112	0.125
-502.683	-138.852	-0.136	-0.019
-501.668	147.376	-0.199	-0.344
-500.653	-108.114	0.154	0.042
-499.639	-174.024	-0.114	-0.004
-498.624	-200.000	-0.013	-0.107
-497.610	-133.222	0.722	-0.116
-496.595	800.000	0.094	-0.486
-495.581	800.000	-0.047	-0.221
-494.566	800.000	0.038	-0.201
-493.551	13.719	0.315	-0.313
-492.537	38.988	0.092	0.105
-491.522	-45.362	0.067	-0.042
-490.508	142.748	0.146	-0.248
-489.493	17.380	0.146	-0.148
-488.478	-119.988	0.212	0.046
-487.464	-200.000	0.017	-0.226
-486.449	-177.877	-0.498	0.015
-485.435	800.000	0.101	0.358
-484.420	-200.000	0.019	0.333
-483.405	-200.000	-0.023	0.220
-482.391	-27.529	-0.246	0.182
-481.376	800.000	-0.050	-0.192
-480.362	-95.368	0.429	-0.146
-479.347	800.000	-0.048	-0.206
-478.332	-101.236	-0.509	0.158
-477.318	-79.371	-0.120	-0.052
-476.303	-46.707	0.259	0.162
-475.289	-137.181	-0.258	0.037
-474.274	-200.000	0.001	-0.129
-473.259	495.287	-0.043	-0.126
-472.245	-28.748	-0.239	-0.176
-471.230	-87.678	-0.328	-0.126
-470.216	-200.000	-0.051	0.435
-469.201	-188.765	-0.092	-0.001
-468.186	87.468	-0.195	0.276
-467.172	-200.000	-0.030	-0.232
-466.157	-54.518	0.329	-0.190
-465.143	-63.443	0.303	-0.159
-464.128	-22.814	-0.155	-0.119
-463.113	-200.000	0.016	0.182
-462.099	505.397	-0.173	0.516
-461.084	38.406	-0.183	-0.209
-460.070	800.000	-0.047	-0.239
-459.055	-132.956	-0.316	0.051
-458.040	800.000	0.078	0.391
-457.026	-200.000	-0.038	0.426
-456.011	-161.052	-0.175	0.012
-454.997	-86.073	0.373	-0.147
-453.982	-55.885	0.567	0.322
-452.968	-2.055	0.165	0.148
-451.953	-200.000	0.010	-0.254
-450.938	-91.580	0.191	0.069
-449.924	-71.619	0.105	0.050
-448.909	-180.334	0.406	-0.011
-447.895	9.923	0.439	0.426
-446.880	-168.139	0.244	0.012
-445.865	-157.368	-0.232	-0.018
-444.851	-98.528	-0.428	-0.139
-443.836	210.073	0.117	0.236
-442.822	800.000	0.040	0.206
-441.807	18.153	-0.337	-0.343
-440.792	25.715	-0.364	-0.387
-439.778	-109.594	0.143	0.038
-438.763	77.574	0.305	0.415
-437.749	-200.000	-0.032	0.406
-436.734	120.865	-0.272	0.432
-435.719	20.313	-0.305	0.314
-434.705	36.517	0.064	0.073
-433.690	497.161	-0.068	0.202
-432.676	724.165	-0.079	-0.269
-431.661	-163.053	0.201	-0.012
-430.646	140.189	0.157	0.265
-429.632	-152.657	-0.101	0.009
-428.617	-121.975	0.115	0.024
-427.603	-173.840	0.523	0.019
-426.588	-94.427	0.033	-0.011
-425.573	-159.655	0.435	0.030
-424.559	800.000	-0.100	0.379
-423.544	-66.027	-0.362	-0.184
-422.530	13.286	0.327	0.323
-421.515	-106.970	0.043	0.012
-420.500	112.098	0.291	0.450
-419.486	495.496	0.064	0.188
-418.471	-11.884	0.145	0.121
-417.457	-134.014	-0.471	-0.074
-416.442	-40.960	0.137	-0.090
-415.428	2.794	0.055	-0.050
-414.413	-5.037	-0.498	0.436
-413.398	800.000	0.119	0.454
-412.384	383.291	-0.137	0.361
-411.369	-125.489	-0.213	0.041
-410.355	-142.549	0.451	0.056
-409.340	-86.472	0.266	0.104
-408.325	205.019	-0.018	0.036
-407.311	651.778	-0.103	-0.337
-406.296	-18.471	-0.049	0.039
-405.282	-115.194	0.283	-0.068
-404.267	177.799	-0.105	0.195
-403.252	91.342	0.352	-0.505
-402.238	12.454	-0.135	-0.133
-401.223	-83.542	0.418	0.169
-400.209	-38.122	-0.072	0.048
-399.194	398.462	0.247	-0.661
-398.179	96.349	-0.197	-0.287
-397.165	222.816	0.110	0.226
-396.150	256.576	0.203	0.445
-395.136	-62.128	-0.625	0.331
-394.121	-116.319	-0.019	0.004
-393.106	-59.795	-0.451	-0.245
-392.092	-200.000	-0.004	0.327
-391.077	29.405	-0.151	-0.164
-390.063	800.000	-0.037	-0.188
-389.048	800.000	0.078	0.307
-388.033	3.100	-0.361	-0.334
-387.019	-75.146	0.252	-0.114
-386.004	-111.978	0.260	-0.066
-384.990	800.000	0.109	0.436
-383.975	8.676	0.363	0.348
-382.960	251.868	-0.029	0.063
-381.946	185.026	0.104	0.198
-380.931	-98.654	0.481	-0.155
-379.917	-107.608	0.199	-0.055
-378.902	-63.686	0.212	-0.110
-377.888	68.925	-0.279	-0.365
-376.873	-45.284	0.320	0.202
-375.858	0.963	-0.299	-0.273
-374.844	-97.322	-0.296	-0.098
-373.829	225.480	0.130	-0.269
-372.815	549.348	0.044	0.134
-371.800	23.557	0.307	-0.322
-370.785	428.248	-0.067	-0.184
-369.771	-42.063	0.109	0.071
-368.756	-200.000	-0.017	-0.203
-367.742	175.268	0.139	-0.258
-366.727	273.201	0.115	-0.260
-365.712	-105.001	-0.546	0.158
-364.698	280.967	0.186	0.426
-363.683	-33.151	-0.421	-0.297
-362.669	-200.000	-0.016	-0.191
-361.654	82.290	0.123	-0.170
-360.639	-12.895	-0.322	-0.266
-359.625	28.866	0.136	-0.146
-358.610	10.957	0.215	0.209
-357.596	79.180	0.245	0.334
-356.581	-61.621	-0.360	0.192
-355.566	203.267	-0.097	0.192
-354.552	119.828	0.116	0.183
-353.537	-200.000	0.043	0.474
-352.523	800.000	-0.056	0.281
-351.508	-200.000	-0.002	0.101
-350.493	-30.500	-0.219	-0.157
-349.479	-166.085	-0.428	-0.023
-348.464	312.150	0.069	-0.165
-347.450	109.952	-0.196	0.300
-346.435	-200.000	-0.001	0.427
-345.420	-200.000	-0.006	-0.159
-344.406	-84.900	0.228	0.090
-343.391	-111.443	-0.109	0.028
-342.377	800.000	0.077	0.301
-341.362	309.900	0.061	-0.146
-340.348	19.293	-0.237	0.242
-339.333	88.889	-0.308	0.437
-338.318	381.598	0.092	0.241
-337.304	800.000	0.070	0.382
-336.289	-36.122	-0.212	0.145
-335.275	38.260	-0.076	0.087
-334.260	800.000	-0.027	-0.129
-333.245	-200.000	-0.149	-0.000
-332.231	-17.661	-0.245	0.195
-331.216	17.807	0.262	0.265
-330.202	800.000	0.047	0.233
-329.187	-64.544	-0.478	-0.246
-328.172	-107.019	-0.500	0.140
-327.158	373.072	0.182	-0.472
-326.143	-69.679	0.298	-0.144
-325.129	-154.032	0.453	0.039
-324.114	-60.216	0.258	0.139
-323.099	101.652	0.133	-0.197
-322.085	407.937	-0.114	0.308
-321.070	-72.756	-0.204	0.095
-320.056	-191.336	-0.639	-0.008
-319.041	-200.000	0.038	-0.448
-318.026	353.398	0.182	-0.461
-317.012	800.000	-0.038	0.172
-315.997	97.281	0.260	0.380
-314.983	-200.000	0.056	0.375
-313.968	-110.663	0.085	-0.022
-312.953	31.270	0.105	-0.114
-311.939	-14.445	-0.230	-0.187
-310.924	190.412	0.098	0.188
-309.910	55.624	0.172	-0.211
-308.895	-200.000	0.044	-0.392
-307.880	-200.000	-0.038	-0.220
-306.866	-152.587	0.290	-0.026
-305.851	-200.000	0.019	-0.313
-304.837	-200.000	-0.218	0.000
-303.822	800.000	-0.027	-0.111
-302.807	50.771	0.164	0.198
-301.793	-98.887	0.539	-0.173
-300.778	66.378	0.247	-0.319
-299.764	-122.076	0.235	-0.049
-298.749	-200.000	0.016	-0.146
-297.735	130.135	0.309	-0.503
-296.720	97.150	0.183	0.267
-295.705	60.724	0.084	0.106
-294.691	250.682	0.211	0.456
-293.676	119.283	0.015	-0.023
-292.662	15.370	-0.503	-0.501
-291.647	-18.715	0.128	0.101
-290.632	361.140	0.199	-0.510
-289.618	-47.127	0.184	-0.114
-288.603	-10.566	-0.033	-0.028
-287.589	-11.560	-0.483	-0.402
-286.574	-186.888	0.377	-0.007
-285.559	-113.229	0.384	-0.095
-284.545	210.122	-0.035	-0.071
-283.530	179.100	-0.121	0.225
-282.516	-107.377	0.644	-0.178
-281.501	46.891	-0.157	0.186
-280.486	-57.055	0.182	0.101
-279.472	366.385	0.058	-0.149
-278.457	99.470	0.199	-0.293
-277.443	-88.596	0.487	-0.183
-276.428	235.342	0.365	-0.767
-275.413	-193.703	-0.266	-0.003
-274.399	-142.396	-0.438	-0.054
-273.384	227.549	-0.054	0.112
-272.370	72.142	0.192	-0.254
-271.355	17.315	0.104	0.105
-270.340	-22.533	0.270	0.207
-269.326	-152.625	-0.328	-0.029
-268.311	254.980	-0.182	-0.396
-267.297	74.003	0.327	-0.436
-266.282	170.377	0.099	0.180
-265.267	405.971	0.124	0.332
-264.253	206.352	0.102	0.202
-263.238	-58.628	-0.143	-0.078
-262.224	-106.288	0.229	0.065
-261.209	-62.712	0.231	-0.121
-260.195	97.785	0.123	0.180
-259.180	213.757	-0.104	0.209
-258.165	-37.866	0.590	0.397
-257.151	-10.756	0.324	-0.271
-256.136	-137.897	-0.393	0.055
-255.122	55.669	-0.134	0.165
-254.107	-26.620	-0.153	0.114
-253.092	-154.571	0.272	-0.023
-252.078	138.799	-0.158	-0.263
-251.063	-99.046	-0.530	0.169
-250.049	23.004	-0.308	0.320
-249.034	-150.582	0.494	-0.047
-248.019	-167.738	0.670	-0.033
-247.005	334.439	0.115	-0.284
-245.990	-87.926	-0.222	0.084
-244.976	-49.611	-0.353	0.212
-243.961	-103.905	-0.364	-0.107
-242.946	370.062	-0.224	-0.578
-241.932	-14.604	-0.343	0.279
-240.917	-53.035	0.362	0.210
-239.903	393.244	-0.061	-0.161
-238.888	-200.000	0.005	-0.195
-237.873	-200.000	0.027	-0.356
-236.859	46.015	-0.476	-0.558
-235.844	-54.853	0.192	0.109
-234.830	544.593	-0.064	-0.196
-233.815	-67.121	-0.085	-0.042
-232.800	258.238	-0.213	0.466
-231.786	-200.000	-0.015	-0.130
-230.771	56.788	0.043	-0.053
-229.757	-200.000	-0.010	0.202
-228.742	-34.603	-0.222	0.154
-227.727	28.922	0.109	0.117
-226.713	-108.617	0.363	-0.098
-225.698	-114.303	0.396	-0.096
-224.684	212.646	-0.136	-0.273
-223.669	26.872	0.309	0.328
-222.655	129.492	0.085	0.137
-221.640	37.986	-0.201	0.226
-220.625	-48.388	0.335	0.204
-219.611	800.000	0.034	0.132
-218.596	-13.467	-0.466	-0.382
-217.582	-133.491	0.094	0.015
-216.567	-200.000	0.005	-0.122
-215.552	-55.541	-0.359	0.203
-214.538	329.501	0.056	-0.136
-213.523	-47.025	-0.399	-0.246
-212.509	-171.703	0.157	0.006
-211.494	-162.013	-0.531	-0.033
-210.479	-52.439	0.352	-0.206
-209.465	-200.000	-0.028	-0.207
-208.450	-92.318	-0.461	-0.163
-207.436	-135.979	-0.202	0.030
-206.421	-107.967	0.268	-0.073
-205.406	-69.366	-0.130	-0.063
-204.392	14.517	0.319	0.315
-203.377	-41.166	-0.338	-0.220
-202.363	462.717	-0.099	-0.282
-201.348	-146.114	-0.395	0.044
-200.333	-200.000	-0.006	0.197
-199.319	-200.000	-0.021	0.630
-198.304	800.000	0.154	-0.602
-197.290	800.000	-0.056	-0.280
-196.275	29.411	0.170	0.182
-195.260	-113.576	-0.248	0.061
-194.246	-200.000	-0.001	0.256
-193.231	51.464	0.337	0.405
-192.217	800.000	-0.075	0.330
-191.202	800.000	0.025	-0.114
-190.187	-43.603	-0.236	-0.150
-189.173	-95.688	-0.071	-0.024
-188.158	31.842	0.067	-0.073
-187.144	-200.000	-0.036	-0.717
-186.129	100.378	-0.226	-0.332
-185.114	-89.399	0.170	-0.063
-184.100	-90.772	0.241	-0.087
-183.085	-160.777	0.111	0.007
-182.071	318.361	-0.070	0.168
-181.056	-105.555	-0.396	-0.113
-180.042	-47.856	0.133	-0.081
-179.027	53.387	-0.248	-0.301
-178.012	22.586	-0.438	0.453
-176.998	224.022	0.009	-0.019
-175.983	-17.422	0.323	-0.256
-174.969	394.214	-0.133	-0.352
-173.954	-71.083	-0.363	0.172
-172.939	-22.305	0.330	0.252
-171.925	589.271	0.150	-0.470
-170.910	228.801	-0.115	0.237
-169.896	-45.080	0.397	0.249
-168.881	764.280	0.043	-0.149
-167.866	-78.149	-0.478	0.207
-166.852	92.071	-0.123	0.175
-165.837	-6.966	-0.457	-0.392
-164.823	-8.885	0.440	-0.372
-163.808	-23.717	-0.261	0.197
-162.793	9.299	-0.085	0.081
-161.779	-66.240	-0.278	0.139
-160.764	-177.714	0.167	0.005
-159.750	-200.000	0.033	-0.456
-158.735	-31.991	0.337	-0.237
-157.720	-58.222	-0.153	-0.084
-156.706	-63.505	0.255	0.132
-155.691	800.000	-0.035	-0.137
-154.677	9.394	0.401	-0.383
-153.662	-200.000	0.008	-0.268
-152.647	40.529	0.242	-0.275
-151.633	-200.000	0.007	-0.039
-150.618	-164.284	-0.146	-0.008
-149.604	-94.549	-0.297	-0.102
-148.589	-130.102	0.205	0.035
-147.574	-34.193	-0.385	-0.266
-146.560	-170.508	-0.421	-0.018
-145.545	-85.733	0.160	-0.062
-144.531	800.000	0.066	-0.247
-143.516	180.236	-0.211	-0.392
-142.502	48.732	-0.184	-0.218
-141.487	-105.276	-0.532	-0.152
-140.472	800.000	-0.118	-0.452
-139.458	-200.000	0.010	-0.162
-138.443	-127.435	0.251	0.046
-137.429	-150.690	-0.279	0.027
-136.414	262.041	-0.154	-0.338
-135.399	2.420	-0.184	-0.168
-134.385	-58.774	0.481	-0.262
-133.370	800.000	-0.056	0.284
-132.356	-200.000	-0.021	0.141
-131.341	-200.000	-0.003	0.187
-130.326	-140.656	0.201	0.026
-129.312	200.375	-0.217	0.421
-128.297	19.762	-0.233	-0.237
-127.283	-200.000	0.029	0.272
-126.268	-89.154	-0.351	0.130
-125.253	-184.209	0.209	0.004
-124.239	22.513	-0.092	0.095
-123.224	336.247	0.078	0.191
-122.210	635.316	0.075	0.240
-121.195	-116.808	-0.292	-0.067
