DTS Sentinel unit serial number:	SN409020Multiplexer serial number:	ORYXHardware model number:	OX4-SRSoftware version number:	ORYX F/W v3.00 Oryx Data Collector v3.7.2.0data status	okinstallation	HaddamTimeLapsedifferential loss correction	single-endedforward channel	channel 3reverse channel	N/Adate	2011/06/21time	23:36:17forward acquisition time	30.00reverse acquisition time	0.00gamma	498.7831k internal	0.1753k external	0.1753temperature offset calibration	1.0074default loss term (dB/km)	0.3790temperature slope calibration	1.3530multiplexer offset coefficient	1.0000multiplexer slope coefficient	1.0000fibre end	0.00T internal ref (°C)	23.19T ext. ref 1 (°C)	18.42T ext. ref 2 (°C)	0.05length (m)	temperature (°C)	Stokes	anti-Stokes-747.200	123.740	-0.097	0.163
-746.185	103.221	-0.179	0.279
-745.171	380.416	0.067	-0.184
-744.156	527.658	0.128	0.402
-743.142	-33.150	0.271	0.199
-742.127	16.471	-0.225	0.235
-741.112	-61.623	-0.353	-0.196
-740.098	348.437	-0.045	0.117
-739.083	152.313	-0.186	-0.337
-738.069	800.000	0.154	0.588
-737.054	172.654	-0.144	-0.276
-736.039	-128.467	0.420	0.078
-735.025	800.000	0.086	-0.356
-734.010	14.546	0.136	-0.141
-732.996	-35.499	-0.196	-0.141
-731.981	-42.246	-0.543	-0.367
-730.966	800.000	0.030	-0.142
-729.952	800.000	0.108	-0.493
-728.937	737.914	0.103	-0.368
-727.923	-200.000	-0.016	-0.273
-726.908	-200.000	0.014	-0.599
-725.894	-42.328	0.329	0.222
-724.879	-9.150	-0.482	-0.427
-723.864	15.366	-0.275	-0.286
-722.850	111.895	0.331	0.531
-721.835	800.000	0.013	0.050
-720.821	-127.215	-0.469	0.090
-719.806	-57.763	0.637	-0.368
-718.791	-200.000	-0.024	0.888
-717.777	800.000	0.083	-0.472
-716.762	800.000	0.017	-0.096
-715.748	449.183	0.146	-0.428
-714.733	2.850	0.100	-0.096
-713.718	18.383	0.221	0.234
-712.704	-133.727	0.545	0.089
-711.689	-200.000	0.012	0.251
-710.675	412.111	-0.043	-0.121
-709.660	-200.000	0.006	0.468
-708.645	-74.004	-0.316	0.151
-707.631	-147.616	-0.712	0.078
-706.616	-150.704	0.476	0.047
-705.602	-189.711	-0.221	-0.003
-704.587	-200.000	-0.048	-0.532
-703.572	-123.226	0.268	-0.056
-702.558	97.243	-0.110	-0.168
-701.543	214.048	-0.087	0.184
-700.529	25.277	0.240	0.264
-699.514	282.118	-0.214	-0.511
-698.499	-52.176	-0.357	0.219
-697.485	-113.881	0.242	-0.062
-696.470	-79.616	-0.520	-0.231
-695.456	-18.027	0.209	-0.173
-694.441	-73.585	-0.324	-0.156
-693.426	-21.482	-0.243	0.196
-692.412	9.602	-0.235	-0.236
-691.397	-86.919	-0.104	0.042
-690.383	161.551	0.089	-0.166
-689.368	-135.926	-0.586	-0.090
-688.354	279.626	-0.166	0.393
-687.339	-200.000	-0.055	0.429
-686.324	125.206	-0.166	-0.277
-685.310	377.708	-0.058	0.157
-684.295	-200.000	0.011	0.201
-683.281	17.697	0.166	-0.175
-682.266	87.076	-0.026	0.039
-681.251	753.653	0.035	-0.124
-680.237	-35.893	0.139	-0.099
-679.222	-20.050	0.578	0.471
-678.208	-44.778	-0.261	0.172
-677.193	-200.000	0.000	-0.279
-676.178	800.000	-0.067	-0.257
-675.164	-144.926	-0.226	0.027
-674.149	-58.724	0.325	0.186
-673.135	-103.056	0.240	0.075
-672.120	-200.000	-0.055	0.395
-671.105	28.151	-0.237	0.264
-670.091	-71.422	-0.122	-0.060
-669.076	-72.408	0.348	0.169
-668.062	-138.893	0.357	-0.051
-667.047	-65.055	-0.367	-0.195
-666.032	58.864	0.330	-0.429
-665.018	121.030	-0.047	0.077
-664.003	37.388	-0.302	-0.354
-662.989	511.552	-0.263	-0.813
-661.974	562.447	-0.077	-0.247
-660.959	-200.000	0.024	0.564
-659.945	-156.110	-0.458	-0.038
-658.930	-127.747	-0.384	0.073
-657.916	800.000	-0.012	-0.060
-656.901	-11.883	-0.263	0.228
-655.886	-103.848	-0.152	-0.047
-654.872	-200.000	0.014	-0.098
-653.857	-64.015	0.067	0.036
-652.843	-200.000	-0.026	0.208
-651.828	129.450	0.176	-0.298
-650.814	38.876	0.156	-0.185
-649.799	-68.662	0.469	-0.239
-648.784	-73.118	0.047	-0.023
-647.770	150.532	-0.265	-0.476
-646.755	163.568	0.058	0.107
-645.741	-122.449	0.356	-0.076
-644.726	-81.131	-0.276	-0.120
-643.711	-200.000	-0.057	-0.425
-642.697	-200.000	0.002	0.303
-641.682	102.484	-0.224	-0.347
-640.668	-173.216	0.274	-0.011
-639.653	-92.930	0.543	-0.199
-638.638	-18.906	0.162	0.133
-637.624	-91.763	0.142	0.053
-636.609	290.956	0.116	-0.279
-635.595	-123.146	0.172	-0.036
-634.580	800.000	-0.032	-0.150
-633.565	-118.397	-0.216	-0.050
-632.551	186.883	-0.334	0.659
-631.536	-170.957	0.183	-0.008
-630.522	-36.115	0.099	-0.070
-629.507	209.205	-0.226	-0.469
-628.492	800.000	-0.011	0.044
-627.478	388.938	0.043	0.119
-626.463	25.991	-0.189	0.209
-625.449	746.926	-0.061	-0.220
-624.434	-95.047	-0.614	0.218
-623.419	-112.392	0.097	0.025
-622.405	87.202	0.155	-0.227
-621.390	-187.696	0.250	0.004
-620.376	-36.650	0.362	-0.256
-619.361	72.676	-0.236	0.325
-618.346	-173.333	-0.476	-0.019
-617.332	-173.410	0.440	0.017
-616.317	-158.417	0.668	0.050
-615.303	26.307	-0.263	0.290
-614.288	-123.996	-0.131	-0.027
-613.273	-68.364	-0.411	0.210
-612.259	153.508	0.198	0.358
-611.244	43.331	-0.258	-0.311
-610.230	-162.102	0.023	0.001
-609.215	-200.000	0.038	-0.336
-608.201	-104.942	0.112	0.034
-607.186	326.310	0.095	-0.242
-606.171	-94.218	-0.419	-0.151
-605.157	800.000	0.085	0.457
-604.142	-200.000	0.053	0.312
-603.128	-113.346	0.503	0.129
-602.113	-101.744	-0.130	0.041
-601.098	-43.013	-0.057	-0.038
-600.084	-159.837	-0.362	0.026
-599.069	333.512	-0.221	0.566
-598.055	-21.073	0.381	-0.307
-597.040	58.305	-0.403	-0.522
-596.025	-176.986	-0.237	-0.008
-595.011	-200.000	0.025	-0.306
-593.996	190.501	0.241	-0.479
-592.982	-32.520	-0.187	-0.137
-591.967	-58.554	-0.401	-0.229
-590.952	-139.205	0.372	0.052
-589.938	790.524	-0.080	0.290
-588.923	67.268	-0.252	-0.340
-587.909	-86.095	0.277	-0.112
-586.894	99.861	-0.332	0.507
-585.879	25.358	-0.374	0.410
-584.865	-152.697	0.228	-0.021
-583.850	232.044	0.084	0.183
-582.836	31.399	-0.208	-0.236
-581.821	-173.723	-0.235	0.009
-580.806	159.636	0.147	-0.270
-579.792	-108.105	0.048	0.014
-578.777	-72.427	-0.157	0.076
-577.763	-133.556	0.220	-0.036
-576.748	-53.133	-0.275	0.166
-575.733	800.000	0.200	0.755
-574.719	376.614	-0.157	0.425
-573.704	-126.385	-0.498	-0.097
-572.690	-135.741	-0.232	0.036
-571.675	400.703	0.072	-0.199
-570.661	17.106	0.411	0.430
-569.646	-200.000	-0.006	0.090
-568.631	-200.000	-0.009	-0.191
-567.617	-73.519	-0.070	0.033
-566.602	-200.000	0.001	-0.010
-565.588	-200.000	0.002	-0.446
-564.573	-200.000	-0.005	-0.168
-563.558	-200.000	-0.030	-0.394
-562.544	800.000	-0.069	0.262
-561.529	-92.842	0.214	-0.078
-560.515	61.886	-0.214	-0.281
-559.500	-200.000	0.000	0.156
-558.485	-91.375	-0.379	0.142
-557.471	-101.726	0.291	0.092
-556.456	-73.294	0.157	-0.075
-555.442	-43.666	-0.268	-0.177
-554.427	-10.352	-0.247	0.215
-553.412	-200.000	-0.065	0.521
-552.398	73.833	0.270	-0.373
-551.383	-42.114	-0.388	0.261
-550.369	-172.973	0.268	-0.011
-549.354	-118.746	-0.165	0.038
-548.339	-43.981	-0.243	0.160
-547.325	-29.689	-0.361	-0.270
-546.310	-4.122	-0.099	-0.090
-545.296	-149.251	0.246	-0.026
-544.281	337.473	-0.047	0.120
-543.266	-76.009	-0.739	-0.342
-542.252	-96.783	0.449	0.154
-541.237	-200.000	0.031	0.271
-540.223	-6.116	0.157	0.141
-539.208	355.541	0.076	0.199
-538.193	800.000	0.070	-0.395
-537.179	599.427	0.111	-0.365
-536.164	-146.028	0.023	-0.003
-535.150	800.000	-0.128	-0.572
-534.135	335.482	-0.154	0.395
-533.121	69.765	0.153	-0.208
-532.106	-43.396	0.112	-0.074
-531.091	-46.985	0.053	-0.034
-530.077	-134.557	-0.325	-0.052
-529.062	198.633	-0.095	-0.191
-528.048	7.560	0.259	0.255
-527.033	675.218	-0.150	0.515
-526.018	44.845	-0.129	0.156
-525.004	-200.000	0.048	0.349
-523.989	-86.119	-0.141	0.057
-522.975	-134.006	0.404	-0.065
-521.960	-139.588	-0.510	-0.071
-520.945	-31.083	-0.336	-0.249
-519.931	163.441	-0.024	-0.045
-518.916	746.220	-0.084	-0.299
-517.902	-200.000	0.010	-0.122
-516.887	371.719	-0.214	-0.575
-515.872	-22.948	0.270	-0.214
-514.858	-66.904	-0.242	-0.125
-513.843	-200.000	-0.048	0.324
-512.829	-127.249	-0.425	-0.081
-511.814	-73.184	-0.162	-0.078
-510.799	-80.499	0.542	0.237
-509.785	161.138	0.247	-0.455
-508.770	-90.164	-0.318	0.121
-507.756	-28.326	0.312	0.236
-506.741	-81.783	0.019	0.008
-505.726	800.000	0.098	0.453
-504.712	-25.751	0.353	-0.273
-503.697	-10.332	0.054	-0.047
-502.683	152.261	-0.144	0.259
-501.668	-200.000	-0.004	0.388
-500.653	800.000	0.019	-0.102
-499.639	-126.252	0.167	-0.032
-498.624	345.628	-0.204	0.529
-497.610	93.657	0.352	0.525
-496.595	158.905	0.121	0.222
-495.581	472.217	0.087	-0.259
-494.566	147.286	0.064	0.114
-493.551	-17.681	0.340	0.280
-492.537	55.594	0.146	-0.186
-491.522	-114.475	-0.473	0.118
-490.508	130.881	-0.158	0.267
-489.493	-9.793	0.133	0.116
-488.478	159.734	-0.170	-0.312
-487.464	-19.102	0.227	-0.185
-486.449	-196.708	-0.524	0.004
-485.435	77.306	-0.154	0.215
-484.420	-200.000	0.004	-0.347
-483.405	130.136	-0.300	-0.505
-482.391	542.802	0.126	-0.398
-481.376	706.953	-0.063	0.220
-480.362	-160.683	0.196	-0.013
-479.347	-200.000	0.030	0.346
-478.332	-13.821	-0.431	-0.366
-477.318	-95.675	0.207	0.072
-476.303	75.587	-0.287	-0.399
-475.289	119.730	-0.110	0.179
-474.274	11.363	-0.444	-0.446
-473.259	201.648	-0.184	-0.373
-472.245	-106.571	0.398	0.116
-471.230	-200.000	0.007	0.112
-470.216	-99.624	0.374	-0.123
-469.201	187.287	0.174	0.341
-468.186	-200.000	0.001	-0.028
-467.172	-0.982	-0.136	0.126
-466.157	190.861	0.037	0.072
-465.143	-200.000	-0.037	-0.508
-464.128	-122.291	-0.299	0.064
-463.113	-85.740	-0.268	-0.109
-462.099	800.000	-0.051	-0.193
-461.084	26.372	-0.115	0.126
-460.070	-10.507	-0.334	-0.290
-459.055	325.688	0.160	-0.404
-458.040	41.720	-0.065	0.077
-457.026	800.000	-0.039	-0.197
-456.011	-124.772	0.479	0.096
-454.997	384.687	-0.161	0.437
-453.982	800.000	0.033	-0.137
-452.968	-1.160	0.200	-0.185
-451.953	70.664	0.145	0.197
-450.938	33.996	-0.034	-0.039
-449.924	526.369	0.091	-0.282
-448.909	-62.394	0.307	0.167
-447.895	-200.000	0.010	0.231
-446.880	100.099	-0.090	-0.138
-445.865	-164.415	-0.050	0.003
-444.851	37.029	-0.225	0.261
-443.836	72.831	0.267	-0.365
-442.822	110.400	0.087	0.137
-441.807	-199.307	0.538	0.004
-440.792	-85.165	-0.231	-0.094
-439.778	-200.000	0.031	0.335
-438.763	27.190	0.163	-0.179
-437.749	-14.988	0.297	0.249
-436.734	572.405	-0.112	0.359
-435.719	-14.526	-0.408	0.343
-434.705	-116.714	-0.210	-0.050
-433.690	800.000	0.033	-0.125
-432.676	-26.205	-0.212	0.163
-431.661	-96.004	-0.254	0.088
-430.646	-85.566	-0.144	-0.058
-429.632	-91.862	0.050	0.019
-428.617	-169.226	-0.576	0.027
-427.603	467.740	0.169	0.500
-426.588	-3.944	-0.243	0.220
-425.573	321.996	-0.083	-0.208
-424.559	-110.417	0.046	0.012
-423.544	119.376	-0.276	0.449
-422.530	320.709	0.069	-0.174
-421.515	-12.820	-0.299	0.255
-420.500	43.696	-0.290	0.348
-419.486	20.528	-0.349	0.370
-418.471	579.443	0.098	-0.316
-417.457	-63.906	-0.183	0.098
-416.442	800.000	-0.034	0.142
-415.428	-200.000	0.013	-0.199
-414.413	94.073	-0.212	0.316
-413.398	197.703	-0.090	0.180
-412.384	208.411	0.101	0.208
-411.369	-100.033	0.053	0.017
-410.355	-200.000	-0.016	0.129
-409.340	27.603	0.100	-0.111
-408.325	-1.686	0.293	-0.270
-407.311	-24.553	0.149	0.116
-406.296	76.834	-0.159	0.221
-405.282	-5.158	-0.174	0.157
-404.267	-114.946	-0.249	-0.062
-403.252	359.182	0.031	0.081
-402.238	-173.285	-0.088	0.003
-401.223	-134.523	0.392	-0.062
-400.209	800.000	0.070	0.320
-399.194	800.000	0.059	-0.336
-398.179	-63.544	-0.244	0.131
-397.165	10.055	-0.363	-0.361
-396.150	-91.567	-0.124	-0.046
-395.136	217.664	-0.022	0.047
-394.121	-62.936	-0.839	-0.452
-393.106	324.786	0.067	0.167
-392.092	116.898	0.281	0.452
-391.077	-94.624	0.379	0.134
-390.063	-200.000	0.002	0.087
-389.048	-110.336	-0.338	-0.091
-388.033	-14.775	-0.248	0.208
-387.019	566.618	0.063	0.201
-386.004	-112.366	0.348	0.090
-384.990	-200.000	-0.059	0.549
-383.975	-97.772	0.317	0.107
-382.960	-200.000	-0.058	0.347
-381.946	679.894	-0.143	-0.491
-380.931	51.072	0.124	-0.153
-379.917	13.503	-0.371	-0.377
-378.902	227.588	0.106	0.226
-377.888	-200.000	-0.004	0.213
-376.873	-200.000	0.067	0.803
-375.858	800.000	0.062	-0.297
-374.844	-104.996	0.358	0.106
-373.829	-127.653	0.086	0.016
-372.815	800.000	-0.021	0.101
-371.800	-61.485	-0.286	-0.156
-370.785	-35.361	-0.221	-0.156
-369.771	-200.000	-0.028	-0.296
-368.756	-99.453	0.436	0.143
-367.742	-37.948	0.229	0.159
-366.727	14.892	-0.071	-0.072
-365.712	116.504	-0.214	-0.344
-364.698	800.000	0.132	-0.579
-363.683	-103.249	0.244	0.075
-362.669	70.152	-0.177	0.239
-361.654	105.711	-0.039	0.060
-360.639	-86.824	0.382	-0.152
-359.625	-51.553	0.503	0.306
-358.610	-79.637	0.336	-0.147
-357.596	33.674	-0.169	-0.192
-356.581	21.541	0.386	0.410
-355.566	-107.543	0.441	0.125
-354.552	-96.972	0.124	-0.042
-353.537	-47.759	-0.572	0.361
-352.523	-79.379	0.330	0.145
-351.508	84.992	-0.082	-0.118
-350.493	33.898	-0.094	0.107
-349.479	-90.358	0.237	0.089
-348.464	320.485	0.113	-0.281
-347.450	14.931	-0.268	-0.274
-346.435	700.681	-0.105	0.364
-345.420	221.234	0.119	0.249
-344.406	-151.784	0.236	-0.022
-343.391	379.623	-0.121	-0.325
-342.377	-120.868	0.155	-0.034
-341.362	14.619	-0.255	-0.260
-340.348	38.409	-0.266	0.309
-339.333	1.551	0.093	-0.088
-338.318	800.000	0.086	0.327
-337.304	88.435	-0.166	0.241
-336.289	-105.462	0.313	-0.092
-335.275	800.000	-0.021	0.087
-334.260	25.306	0.284	0.308
-333.245	450.761	0.054	-0.157
-332.231	800.000	-0.036	0.194
-331.216	-27.011	-0.164	-0.125
-330.202	378.802	-0.062	-0.166
-329.187	-34.167	0.411	0.294
-328.172	-176.299	-0.488	0.016
-327.158	254.902	-0.260	0.582
-326.143	-53.327	0.329	-0.196
-325.129	420.224	-0.166	0.467
-324.114	286.688	0.180	0.427
-323.099	573.737	0.144	0.459
-322.085	-126.672	-0.099	-0.019
-321.070	-200.000	-0.032	-0.394
-320.056	169.453	0.160	0.299
-319.041	149.065	-0.295	-0.522
-318.026	-71.249	-0.379	-0.185
-317.012	-200.000	-0.050	0.311
-315.997	-82.272	0.540	0.228
-314.983	80.744	0.213	-0.300
-313.968	-114.162	-0.596	-0.149
-312.953	151.421	-0.008	0.014
-311.939	127.602	-0.240	-0.399
-310.924	800.000	0.100	0.569
-309.910	-32.643	0.250	0.181
-308.895	800.000	0.047	0.214
-307.880	239.982	-0.070	0.152
-306.866	346.931	-0.031	-0.080
-305.851	-92.883	0.520	-0.188
-304.837	57.272	0.237	-0.302
-303.822	-168.865	0.021	0.001
-302.807	-72.859	0.473	-0.226
-301.793	137.250	0.240	0.410
-300.778	-49.518	-0.302	0.187
-299.764	-160.968	0.175	-0.012
-298.749	-200.000	0.035	-0.396
-297.735	-30.564	-0.221	0.163
-296.720	-200.000	0.049	-0.329
-295.705	-22.162	-0.126	-0.099
-294.691	-105.235	0.158	0.047
-293.676	-200.000	-0.042	-0.679
-292.662	-51.161	-0.422	0.257
-291.647	-33.368	-0.114	-0.082
-290.632	-200.000	-0.094	-0.700
-289.618	-67.639	0.068	-0.034
-288.603	17.656	0.070	-0.073
-287.589	-88.392	0.342	-0.133
-286.574	-37.168	0.321	0.224
-285.559	-200.000	-0.026	-0.297
-284.545	235.239	0.010	-0.022
-283.530	-114.902	-0.239	-0.059
-282.516	-78.999	0.418	0.185
-281.501	-41.352	-0.465	-0.311
-280.486	-58.338	-0.129	0.073
-279.472	21.150	-0.310	0.328
-278.457	38.546	-0.210	0.244
-277.443	-187.587	-0.505	-0.009
-276.428	-87.431	0.168	0.066
-275.413	153.864	-0.120	0.214
-274.399	800.000	-0.017	-0.062
-273.384	-120.883	-0.367	-0.080
-272.370	-11.990	-0.261	-0.223
-271.355	-76.255	0.086	-0.039
-270.340	-200.000	-0.011	-0.069
-269.326	-62.649	0.032	-0.017
-268.311	491.744	0.271	-0.813
-267.297	321.793	0.229	0.571
-266.282	-62.800	-0.239	0.128
-265.267	-80.192	0.133	0.058
-264.253	752.880	-0.091	-0.323
-263.238	-19.633	-0.099	0.079
-262.224	-200.000	-0.066	0.462
-261.209	-64.946	-0.380	0.199
-260.195	-6.141	0.501	-0.446
-259.180	61.878	0.276	-0.358
-258.165	-144.981	0.422	0.050
-257.151	-65.785	0.385	0.200
-256.136	453.394	0.139	0.402
-255.122	-72.329	-0.173	0.083
-254.107	14.013	-0.136	0.138
-253.092	71.460	0.105	0.142
-252.078	-198.867	0.775	0.005
-251.063	800.000	-0.018	-0.094
-250.049	105.193	-0.239	0.367
-249.034	-103.639	0.181	-0.055
-248.019	-200.000	-0.035	-0.367
-247.005	-200.000	-0.025	-0.157
-245.990	-8.082	0.239	0.209
-244.976	-179.111	0.558	-0.016
-243.961	476.095	-0.103	0.303
-242.946	566.527	0.073	-0.233
-241.932	9.230	-0.357	-0.351
-240.917	-111.303	0.320	-0.084
-239.903	-185.244	0.082	0.002
-238.888	-61.373	0.476	0.260
-237.873	-42.799	-0.160	-0.106
-236.859	9.366	0.508	-0.500
-235.844	319.659	0.154	-0.381
-234.830	-6.509	0.275	0.244
-233.815	-134.319	-0.218	-0.034
-232.800	-83.348	-0.532	-0.221
-231.786	-32.105	0.123	-0.089
-230.771	-0.499	0.611	0.564
-229.757	-29.831	0.251	0.185
-228.742	-44.205	0.210	-0.136
-227.727	-158.294	0.781	-0.058
-226.713	451.472	-0.072	-0.209
-225.698	-200.000	-0.033	-0.298
-224.684	-116.340	0.177	0.042
-223.669	483.999	0.189	-0.562
-222.655	-138.488	-0.183	0.026
-221.640	-200.000	-0.052	0.722
-220.625	125.190	-0.190	-0.312
-219.611	-158.079	-0.140	-0.011
-218.596	-127.614	0.201	-0.038
-217.582	232.508	-0.177	-0.379
-216.567	0.817	-0.128	-0.119
-215.552	-125.909	-0.185	0.036
-214.538	-194.888	-0.102	0.001
-213.523	327.047	-0.189	-0.472
-212.509	180.750	-0.167	-0.320
-211.494	-200.000	-0.027	-0.298
-210.479	-200.000	-0.014	-0.338
-209.465	-200.000	-0.017	-0.102
-208.450	-77.071	0.207	0.093
-207.436	-131.323	-0.214	-0.036
-206.421	12.579	-0.298	-0.299
-205.406	-143.594	-0.377	0.046
-204.392	800.000	-0.062	-0.281
-203.377	77.995	0.141	0.195
-202.363	-106.589	0.272	-0.078
-201.348	-146.992	0.487	0.054
-200.333	144.230	0.224	0.390
-199.319	-68.499	-0.100	-0.050
-198.304	-24.105	0.681	0.527
-197.290	13.764	-0.267	0.270
-196.275	169.618	-0.373	-0.695
-195.260	547.191	-0.123	-0.386
-194.246	-114.811	-0.305	-0.075
-193.231	-99.953	0.577	0.186
-192.217	172.035	0.280	-0.525
-191.202	-115.242	0.082	0.020
-190.187	-122.179	-0.406	0.085
-189.173	-169.844	0.385	-0.018
-188.158	27.196	-0.245	0.267
-187.144	-42.010	0.477	0.317
-186.129	-71.997	-0.285	0.137
-185.114	-200.000	-0.026	-0.402
-184.100	-38.876	0.095	-0.065
-183.085	-75.916	-0.466	-0.213
-182.071	-200.000	-0.051	-0.400
-181.056	-200.000	-0.214	-0.000
-180.042	-134.397	0.334	-0.053
-179.027	676.696	-0.066	-0.225
-178.012	618.122	0.078	-0.256
-176.998	800.000	0.107	-0.416
-175.983	-3.519	-0.104	-0.094
-174.969	147.122	-0.041	0.072
-173.954	-35.189	-0.261	0.184
-172.939	-92.901	0.260	-0.094
-171.925	603.970	0.244	-0.792
-170.910	110.190	0.204	0.319
-169.896	274.921	0.092	0.213
-168.881	-133.833	-0.204	-0.033
-167.866	0.195	-0.251	0.232
-166.852	-32.828	0.279	-0.201
-165.837	772.614	0.049	-0.174
-164.823	-200.000	-0.004	0.191
-163.808	-117.153	-0.016	0.004
-162.793	299.221	-0.192	0.460
-161.779	147.629	-0.093	0.163
-160.764	292.543	0.145	0.343
-159.750	-200.000	-0.014	-0.135
-158.735	-101.959	-0.096	0.030
-157.720	17.723	-0.140	-0.144
-156.706	89.771	0.319	0.462
-155.691	-122.381	0.126	-0.027
-154.677	63.528	0.020	-0.026
-153.662	-76.290	-0.388	0.176
-152.647	46.825	0.221	0.267
-151.633	-86.482	0.189	0.075
-150.618	-125.963	0.255	0.049
-149.604	229.437	0.347	-0.738
-148.589	-76.110	-0.240	-0.109
-147.574	247.584	0.154	0.339
-146.560	17.544	-0.280	-0.288
-145.545	-200.000	0.119	0.720
-144.531	109.953	-0.127	-0.198
-143.516	-200.000	-0.010	0.486
-142.502	12.589	0.214	-0.214
-141.487	-200.000	-0.021	-0.138
-140.472	61.581	-0.155	-0.200
-139.458	394.684	-0.096	-0.262
-138.443	-95.790	0.045	0.016
-137.429	207.640	-0.202	0.410
-136.414	-67.013	-0.242	0.123
-135.399	-150.427	-0.441	0.043
-134.385	39.745	0.371	0.431
-133.370	800.000	0.064	0.296
-132.356	39.221	-0.012	-0.014
-131.341	-37.782	0.416	-0.286
-130.326	-200.000	0.003	-0.625
-129.312	-98.344	-0.362	0.120
-128.297	62.478	-0.334	0.432
-127.283	-86.177	-0.241	-0.096
-126.268	-64.357	0.618	-0.324
-125.253	-72.268	0.524	-0.251
-124.239	-26.614	0.439	0.332
-123.224	17.207	0.227	-0.233
-122.210	-173.204	0.435	0.017
