DTS Sentinel unit serial number:	SN409020Multiplexer serial number:	ORYXHardware model number:	OX4-SRSoftware version number:	ORYX F/W v3.00 Oryx Data Collector v3.7.2.0data status	okinstallation	HaddamTimeLapsedifferential loss correction	single-endedforward channel	channel 3reverse channel	N/Adate	2011/06/22time	00:06:17forward acquisition time	30.00reverse acquisition time	0.00gamma	498.7831k internal	0.1752k external	0.1752temperature offset calibration	1.0074default loss term (dB/km)	0.3790temperature slope calibration	1.3530multiplexer offset coefficient	1.0000multiplexer slope coefficient	1.0000fibre end	0.00T internal ref (°C)	22.87T ext. ref 1 (°C)	18.14T ext. ref 2 (°C)	0.05length (m)	temperature (°C)	Stokes	anti-Stokes-747.200	68.587	0.514	0.700
-746.185	71.656	0.312	0.430
-745.171	-125.394	-0.152	0.030
-744.156	143.287	-0.347	0.615
-743.142	-200.000	0.016	0.352
-742.127	800.000	-0.033	-0.181
-741.112	-97.478	-0.487	-0.167
-740.098	331.784	-0.159	0.409
-739.083	424.799	0.016	0.047
-738.069	229.999	-0.079	-0.172
-737.054	-200.000	0.020	-0.166
-736.039	-179.292	-0.803	-0.023
-735.025	407.001	0.127	0.357
-734.010	31.735	-0.095	-0.109
-732.996	29.511	0.336	0.379
-731.981	24.963	-0.077	-0.085
-730.966	258.621	-0.123	-0.283
-729.952	150.754	-0.247	-0.446
-728.937	30.114	-0.208	-0.236
-727.923	298.925	-0.266	-0.652
-726.908	-32.192	0.035	0.026
-725.894	717.251	-0.015	0.053
-724.879	-157.344	-0.330	-0.026
-723.864	-166.996	-0.276	0.015
-722.850	-110.614	-0.220	-0.060
-721.835	-133.359	-0.260	0.043
-720.821	-133.873	-0.186	-0.030
-719.806	19.711	0.222	0.237
-718.791	-54.245	0.084	0.050
-717.777	53.693	-0.194	-0.247
-716.762	-8.209	0.243	-0.216
-715.748	-104.934	-0.289	0.087
-714.733	-68.091	-0.293	-0.151
-713.718	-140.892	0.181	0.024
-712.704	-88.196	-0.370	-0.146
-711.689	-125.559	-0.174	-0.035
-710.675	-72.824	0.156	-0.076
-709.660	-72.438	-0.342	-0.167
-708.645	114.057	-0.131	-0.212
-707.631	-123.274	-0.322	-0.068
-706.616	-18.405	-0.600	-0.496
-705.602	472.964	0.072	-0.217
-704.587	-96.602	-0.398	0.138
-703.572	-12.771	0.249	-0.215
-702.558	-200.000	-0.025	0.337
-701.543	-171.360	-0.369	-0.016
-700.529	634.352	0.145	-0.490
-699.514	-200.000	0.004	0.157
-698.499	21.818	0.135	0.146
-697.485	1.481	0.139	0.133
-696.470	104.504	-0.050	-0.078
-695.456	-52.259	0.234	0.143
-694.441	-82.910	0.299	-0.127
-693.426	507.938	-0.137	-0.424
-692.412	-64.631	-0.328	-0.176
-691.397	-160.608	0.373	-0.026
-690.383	79.662	0.150	0.213
-689.368	-113.163	-0.452	0.117
-688.354	41.337	0.419	0.502
-687.339	-200.000	0.020	0.142
-686.324	-140.920	0.209	0.028
-685.310	-59.226	0.281	-0.160
-684.295	499.767	-0.047	0.145
-683.281	-58.816	-0.288	-0.165
-682.266	23.322	0.269	0.293
-681.251	-200.000	-0.001	0.368
-680.237	-83.412	0.308	0.130
-679.222	37.890	0.441	0.519
-678.208	800.000	0.097	-0.528
-677.193	800.000	-0.108	-0.505
-676.178	800.000	0.072	0.266
-675.164	42.389	-0.099	-0.119
-674.149	-63.422	-0.029	0.016
-673.135	-181.490	-0.498	-0.013
-672.120	-75.261	-0.143	0.067
-671.105	800.000	-0.046	0.270
-670.091	-130.340	-0.305	0.054
-669.076	-68.049	0.195	0.100
-668.062	56.766	0.271	-0.350
-667.047	42.840	0.250	0.302
-666.032	-200.000	0.005	0.096
-665.018	275.853	-0.198	-0.468
-664.003	86.135	-0.042	-0.062
-662.989	29.140	-0.479	-0.538
-661.974	-136.108	-0.131	-0.020
-660.959	-66.592	0.311	-0.162
-659.945	205.913	0.160	0.331
-658.930	-147.855	-0.586	0.064
-657.916	-30.865	-0.348	0.260
-656.901	-175.150	0.190	-0.007
-655.886	-134.874	-0.636	-0.101
-654.872	-200.000	-0.011	-0.303
-653.857	4.770	0.399	-0.388
-652.843	16.492	-0.166	0.173
-651.828	-2.691	-0.200	0.185
-650.814	800.000	-0.087	0.334
-649.799	-58.148	-0.232	-0.133
-648.784	-200.000	-0.003	0.141
-647.770	-200.000	0.089	0.000
-646.755	685.319	0.026	0.090
-645.741	800.000	0.032	-0.149
-644.726	491.867	0.087	0.264
-643.711	-54.578	-0.249	0.149
-642.697	-40.282	0.255	0.175
-641.682	381.758	0.131	-0.357
-640.668	54.971	-0.233	0.298
-639.653	2.755	0.276	0.264
-638.638	96.809	-0.090	-0.137
-637.624	800.000	-0.081	-0.412
-636.609	-158.938	-0.321	0.024
-635.595	-200.000	-0.019	-0.315
-634.580	-117.370	-0.176	-0.042
-633.565	-43.492	0.410	-0.273
-632.551	190.561	0.076	-0.150
-631.536	-127.562	-0.582	-0.111
-630.522	205.295	-0.036	-0.073
-629.507	-99.008	-0.526	-0.175
-628.492	-69.443	-0.277	-0.140
-627.478	264.663	-0.239	-0.551
-626.463	-90.544	0.413	-0.157
-625.449	-52.011	-0.085	-0.052
-624.434	-129.667	0.269	0.049
-623.419	5.455	-0.239	0.233
-622.405	-59.448	0.230	-0.130
-621.390	-17.781	-0.170	-0.141
-620.376	-23.061	0.277	0.220
-619.361	-104.903	0.156	-0.047
-618.346	64.806	0.132	-0.176
-617.332	598.579	-0.020	-0.066
-616.317	218.853	0.167	-0.353
-615.303	48.972	0.211	0.262
-614.288	-47.393	-0.053	-0.034
-613.273	134.512	0.238	0.408
-612.259	-98.336	0.781	0.263
-611.244	87.428	0.157	-0.230
-610.230	497.587	-0.048	0.146
-609.215	554.664	-0.123	-0.394
-608.201	-116.165	-0.246	-0.060
-607.186	600.970	0.063	-0.209
-606.171	20.056	-0.249	0.265
-605.157	-84.838	-0.264	0.109
-604.142	-59.704	-0.282	-0.159
-603.128	-56.919	-0.089	-0.051
-602.113	209.045	0.108	-0.225
-601.098	3.893	-0.169	0.163
-600.084	208.841	-0.097	-0.201
-599.069	188.882	0.316	-0.627
-598.055	462.699	-0.213	-0.631
-597.040	-106.615	0.103	0.030
-596.025	117.019	0.252	-0.409
-595.011	-200.000	-0.049	-0.557
-593.996	13.200	0.066	0.068
-592.982	800.000	-0.084	0.470
-591.967	800.000	0.036	-0.203
-590.952	-128.659	0.307	0.057
-589.938	800.000	-0.035	-0.159
-588.923	207.079	-0.076	0.158
-587.909	151.225	-0.235	0.424
-586.894	-42.994	0.115	0.077
-585.879	800.000	0.074	-0.339
-584.865	-115.644	0.556	-0.137
-583.850	58.468	0.182	-0.236
-582.836	384.390	-0.109	0.298
-581.821	1.999	-0.105	0.100
-580.806	-142.639	0.324	0.041
-579.792	219.345	-0.159	-0.336
-578.777	-61.239	-0.580	-0.321
-577.763	-5.811	-0.021	-0.019
-576.748	-97.729	0.150	0.051
-575.733	-53.951	-0.072	0.043
-574.719	-38.276	-0.199	0.139
-573.704	-200.000	0.028	0.338
-572.690	47.856	-0.518	-0.639
-571.675	-48.035	0.370	-0.235
-570.661	-109.722	0.295	0.081
-569.646	57.060	0.223	0.287
-568.631	-200.000	0.048	-0.302
-567.617	111.151	0.163	-0.259
-566.602	-20.215	-0.286	-0.232
-565.588	-64.036	-0.700	0.375
-564.573	800.000	0.142	0.523
-563.558	57.020	-0.216	-0.277
-562.544	-21.740	-0.447	0.358
-561.529	-112.640	-0.127	-0.033
-560.515	146.016	0.067	-0.119
-559.500	-32.058	0.100	0.074
-558.485	66.790	0.151	0.203
-557.471	-81.864	0.119	-0.051
-556.456	-26.948	-0.596	-0.458
-555.442	800.000	0.049	0.218
-554.427	-88.459	0.142	-0.056
-553.412	88.812	0.227	-0.333
-552.398	-30.909	0.385	0.286
-551.383	61.107	-0.192	-0.251
-550.369	-120.875	0.476	0.105
-549.354	51.892	-0.388	-0.487
-548.339	-140.613	-0.254	0.034
-547.325	-112.697	0.477	-0.124
-546.310	-97.128	0.095	0.033
-545.296	-179.511	0.299	0.008
-544.281	-200.000	-0.009	-0.422
-543.266	-83.059	0.355	0.150
-542.252	-56.015	-0.080	-0.047
-541.237	137.574	0.196	0.339
-540.223	-62.176	-0.103	0.056
-539.208	18.057	-0.149	0.156
-538.193	800.000	0.077	0.309
-537.179	54.173	-0.183	-0.232
-536.164	-39.153	0.540	-0.373
-535.150	-7.047	-0.316	-0.283
-534.135	-77.409	0.365	-0.166
-533.121	-75.887	-0.478	0.222
-532.106	-200.000	0.035	0.340
-531.091	39.377	0.157	-0.185
-530.077	-89.541	0.193	0.074
-529.062	800.000	0.102	-0.390
-528.048	426.640	0.094	0.269
-527.033	58.691	0.220	-0.284
-526.018	6.530	-0.171	-0.167
-525.004	-200.000	-0.036	0.974
-523.989	-39.615	0.182	-0.125
-522.975	-56.029	-0.228	0.133
-521.960	78.105	0.149	-0.210
-520.945	-200.000	0.038	-0.321
-519.931	-54.336	0.168	-0.100
-518.916	-92.025	0.343	-0.127
-517.902	668.304	0.051	-0.176
-516.887	-200.000	0.007	-0.212
-515.872	16.535	0.286	0.297
-514.858	17.712	0.254	0.266
-513.843	-58.158	-0.627	0.359
-512.829	-200.000	0.015	-0.391
-511.814	-122.553	-0.413	0.088
-510.799	114.020	0.087	0.140
-509.785	-21.274	0.119	-0.096
-508.770	-200.000	-0.002	-0.121
-507.756	278.154	-0.065	-0.153
-506.741	800.000	0.094	-0.455
-505.726	-22.153	0.235	-0.187
-504.712	800.000	0.043	0.240
-503.697	-176.377	-0.433	-0.015
-502.683	-116.960	-0.170	-0.041
-501.668	19.196	0.092	-0.097
-500.653	-143.151	0.387	-0.049
-499.639	-42.954	-0.317	0.211
-498.624	-61.761	-0.558	0.306
-497.610	-55.722	-0.330	-0.194
-496.595	-200.000	-0.079	-0.505
-495.581	-54.552	-0.532	0.316
-494.566	-159.023	-0.400	0.029
-493.551	800.000	-0.058	0.335
-492.537	95.095	-0.104	-0.156
-491.522	-81.305	0.088	-0.038
-490.508	-87.708	-0.311	-0.122
-489.493	-145.424	-0.111	0.013
-488.478	800.000	-0.065	0.238
-487.464	-139.245	-0.546	0.077
-486.449	-131.624	0.174	0.030
-485.435	-150.999	0.256	-0.025
-484.420	-124.296	-0.591	0.120
-483.405	-66.147	-0.393	-0.205
-482.391	-135.782	-0.251	0.039
-481.376	117.161	0.263	0.425
-480.362	-31.374	-0.460	-0.339
-479.347	-65.642	-0.192	0.101
-478.332	-162.669	0.377	-0.024
-477.318	-191.573	0.517	-0.007
-476.303	-113.581	0.235	0.060
-475.289	-19.851	0.070	-0.056
-474.274	800.000	0.050	-0.252
-473.259	-83.792	0.202	0.084
-472.245	-200.000	0.084	-0.600
-471.230	87.241	0.305	-0.444
-470.216	-88.946	0.201	-0.078
-469.201	167.510	0.178	0.334
-468.186	-25.586	0.606	0.469
-467.172	-125.905	-0.093	-0.018
-466.157	-200.000	0.102	-0.001
-465.143	-200.000	0.099	0.987
-464.128	57.044	0.145	0.185
-463.113	386.035	-0.140	-0.381
-462.099	-118.589	0.516	0.119
-461.084	127.194	0.208	0.348
-460.070	-10.291	-0.224	0.195
-459.055	-44.925	-0.366	0.238
-458.040	-169.331	0.233	0.011
-457.026	19.232	-0.230	-0.243
-456.011	43.525	-0.221	0.265
-454.997	-63.714	0.347	0.186
-453.982	41.406	-0.034	-0.040
-452.968	-125.737	0.411	0.081
-451.953	-87.824	-0.203	0.080
-450.938	-104.105	-0.276	-0.084
-449.924	-200.000	-0.015	0.181
-448.909	-6.967	-0.046	0.041
-447.895	-111.337	-0.356	-0.095
-446.880	565.212	-0.147	0.470
-445.865	80.348	-0.088	-0.125
-444.851	-27.687	0.078	-0.059
-443.836	-62.253	0.167	-0.091
-442.822	-53.647	-0.169	0.101
-441.807	146.898	-0.154	-0.273
-440.792	-29.578	-0.150	-0.112
-439.778	165.707	0.147	-0.274
-438.763	1.120	-0.205	0.193
-437.749	-120.448	-0.211	0.047
-436.734	146.461	-0.088	-0.155
-435.719	-17.364	0.177	-0.146
-434.705	-187.456	-0.150	0.003
-433.690	495.475	-0.165	0.501
-432.676	-127.722	0.239	-0.045
-431.661	93.454	0.266	0.395
-430.646	-200.000	0.033	-0.211
-429.632	-101.890	0.270	0.085
-428.617	-128.718	-0.253	-0.046
-427.603	-93.972	-0.043	0.016
-426.588	-114.015	0.375	0.095
-425.573	171.733	-0.192	0.363
-424.559	-200.000	0.011	0.247
-423.544	-27.225	-0.396	0.302
-422.530	-38.496	-0.212	-0.147
-421.515	-200.000	-0.006	-0.148
-420.500	-81.003	0.616	0.266
-419.486	-106.966	0.148	-0.043
-418.471	-81.478	0.252	0.108
-417.457	28.663	-0.059	-0.065
-416.442	-162.630	0.645	0.041
-415.428	-35.745	-0.248	-0.176
-414.413	275.455	0.106	-0.247
-413.398	262.359	0.244	0.556
-412.384	18.381	-0.234	0.245
-411.369	32.232	0.346	0.391
-410.355	-79.346	0.395	0.174
-409.340	-118.833	-0.313	0.072
-408.325	-82.309	-0.355	-0.151
-407.311	155.614	0.025	-0.046
-406.296	115.315	-0.092	-0.148
-405.282	800.000	0.078	0.334
-404.267	-131.162	0.364	-0.063
-403.252	-55.257	-0.104	-0.061
-402.238	245.409	0.267	0.590
-401.223	132.982	0.201	-0.340
-400.209	10.025	-0.333	-0.332
-399.194	-141.355	-0.395	-0.052
-398.179	100.323	0.239	0.364
-397.165	-79.658	0.109	0.048
-396.150	-107.907	-0.328	-0.093
-395.136	397.203	0.114	0.314
-394.121	22.597	0.256	0.274
-393.106	-142.573	0.148	-0.019
-392.092	47.728	-0.252	0.308
-391.077	-200.000	0.003	-0.243
-390.063	-200.000	-0.012	0.190
-389.048	0.697	-0.410	0.384
-388.033	87.604	0.273	0.397
-387.019	121.616	-0.076	-0.123
-386.004	-59.871	-0.159	0.089
-384.990	393.451	0.095	0.260
-383.975	-152.125	-0.698	0.065
-382.960	-74.748	-0.569	0.267
-381.946	-25.350	0.097	-0.075
-380.931	257.574	-0.050	-0.113
-379.917	486.576	0.062	-0.185
-378.902	-130.265	-0.251	0.044
-377.888	-42.737	0.192	-0.127
-376.873	-48.685	0.275	0.173
-375.858	-82.997	0.600	0.252
-374.844	544.508	-0.013	-0.042
-373.829	-13.602	0.226	-0.191
-372.815	-83.203	0.630	0.264
-371.800	378.581	0.177	0.476
-370.785	800.000	0.060	-0.235
-369.771	-95.353	-0.143	0.050
-368.756	800.000	0.098	0.425
-367.742	-3.860	0.294	0.266
-366.727	240.893	-0.070	0.154
-365.712	-53.617	-0.354	-0.211
-364.698	-45.945	0.323	0.208
-363.683	61.730	0.220	0.287
-362.669	126.552	-0.259	0.431
-361.654	-200.000	-0.018	-0.173
-360.639	-111.971	0.252	-0.066
-359.625	539.189	-0.197	-0.617
-358.610	-30.575	-0.099	-0.073
-357.596	-40.034	0.171	0.117
-356.581	9.428	-0.348	0.344
-355.566	-42.781	0.369	0.245
-354.552	-200.000	0.013	-0.079
-353.537	-200.000	-0.009	0.408
-352.523	-200.000	-0.025	-0.581
-351.508	59.954	0.254	-0.328
-350.493	562.635	0.117	-0.371
-349.479	-187.737	0.581	-0.010
-348.464	-200.000	-0.004	-0.389
-347.450	285.095	0.064	0.152
-346.435	114.776	0.187	-0.298
-345.420	-99.263	0.458	0.150
-344.406	800.000	0.136	0.582
-343.391	140.351	-0.149	0.258
-342.377	22.609	-0.168	0.180
-341.362	109.106	-0.407	0.638
-340.348	-174.938	-0.232	-0.008
-339.333	-110.956	-0.146	0.039
-338.318	-66.593	0.169	0.087
-337.304	49.492	-0.368	0.453
-336.289	-150.445	0.259	-0.026
-335.275	-84.380	-0.414	0.170
-334.260	594.084	-0.048	0.158
-333.245	-103.566	0.178	0.054
-332.231	14.492	0.069	-0.070
-331.216	55.188	-0.354	-0.447
-330.202	-200.000	0.042	-0.495
-329.187	-79.591	-0.215	0.094
-328.172	53.449	-0.053	0.066
-327.158	-125.173	0.237	-0.047
-326.143	-78.535	-0.104	0.046
-325.129	-60.749	-0.238	-0.131
-324.114	-200.000	-0.080	0.789
-323.099	-200.000	0.023	-0.353
-322.085	800.000	-0.051	-0.203
-321.070	227.849	0.163	0.347
-320.056	-4.262	-0.218	-0.197
-319.041	-128.042	-0.477	-0.089
-318.026	130.976	-0.272	-0.457
-317.012	-200.000	0.005	-0.235
-315.997	-200.000	-0.012	-0.296
-314.983	66.876	-0.082	-0.109
-313.968	-36.838	-0.172	-0.120
-312.953	388.980	-0.062	-0.169
-311.939	60.204	-0.442	-0.572
-310.924	-30.786	0.531	-0.391
-309.910	292.904	0.229	-0.547
-308.895	-91.900	0.354	0.130
-307.880	-9.838	-0.493	0.427
-306.866	550.157	0.072	-0.226
-305.851	-55.390	-0.155	0.090
-304.837	125.184	0.290	0.479
-303.822	-200.000	-0.004	0.040
-302.807	366.578	0.144	-0.380
-301.793	-6.630	-0.371	-0.329
-300.778	-200.000	0.010	-0.320
-299.764	-57.741	-0.106	0.061
-298.749	-114.851	0.063	0.015
-297.735	124.450	-0.138	-0.227
-296.720	-200.000	-0.035	0.203
-295.705	291.123	0.256	0.611
-294.691	800.000	0.048	-0.207
-293.676	25.495	0.301	-0.326
-292.662	-200.000	0.006	-0.045
-291.647	-59.206	-0.201	0.112
-290.632	-70.489	-0.163	0.080
-289.618	612.985	-0.154	0.505
-288.603	-151.845	0.451	0.043
-287.589	127.238	-0.071	-0.118
-286.574	-87.051	0.605	-0.239
-285.559	-78.237	-0.315	-0.141
-284.545	40.803	-0.106	-0.125
-283.530	-85.197	0.564	-0.229
-282.516	378.041	0.061	0.163
-281.501	424.588	0.127	-0.359
-280.486	-7.056	0.108	0.095
-279.472	168.790	-0.069	0.129
-278.457	-51.491	-0.500	-0.304
-277.443	-100.704	0.227	0.072
-276.428	116.762	0.006	0.010
-275.413	49.223	-0.421	0.516
-274.399	-155.981	-0.587	0.048
-273.384	52.754	0.346	0.432
-272.370	-14.788	0.348	0.291
-271.355	-77.561	0.572	0.257
-270.340	-72.338	0.076	0.037
-269.326	-200.000	-0.014	-0.171
-268.311	-77.289	-0.629	-0.284
-267.297	-98.974	-0.396	0.130
-266.282	-200.000	0.049	-0.401
-265.267	-150.174	0.472	-0.047
-264.253	32.891	-0.208	0.235
-263.238	-200.000	0.020	0.194
-262.224	-82.250	0.089	-0.037
-261.209	-37.830	0.174	0.120
-260.195	-46.034	0.417	0.267
-259.180	-51.461	0.359	0.218
-258.165	37.465	-0.129	-0.149
-257.151	730.692	-0.107	0.373
-256.136	80.832	-0.216	-0.304
-255.122	-200.000	0.064	-0.397
-254.107	-54.774	-0.358	-0.210
-253.092	552.060	-0.089	0.280
-252.078	-53.766	0.253	0.150
-251.063	-86.926	0.195	0.077
-250.049	61.590	-0.277	-0.359
-249.034	-59.556	0.520	-0.290
-248.019	441.136	0.041	-0.117
-247.005	27.615	-0.246	-0.270
-245.990	-77.861	-0.399	-0.179
-244.976	17.471	0.245	0.254
-243.961	-187.319	-0.223	-0.004
-242.946	60.462	0.262	0.338
-241.932	-76.021	0.255	-0.117
-240.917	-121.444	0.123	0.026
-239.903	-94.528	-0.217	0.076
-238.888	32.835	0.115	0.130
-237.873	800.000	0.084	0.432
-236.859	440.780	-0.026	0.074
-235.844	-87.901	0.521	-0.203
-234.830	-200.000	0.021	-0.198
-233.815	-77.606	0.573	-0.257
-232.800	-174.084	-0.245	-0.009
-231.786	-200.000	0.022	0.227
-230.771	800.000	0.066	0.344
-229.757	-75.799	-0.240	-0.110
-228.742	-143.116	-0.461	-0.057
-227.727	-34.620	0.064	0.046
-226.713	193.881	-0.141	0.278
-225.698	187.670	0.188	-0.366
-224.684	-200.000	-0.033	0.267
-223.669	-200.000	0.015	-0.211
-222.655	53.445	0.283	0.353
-221.640	-142.495	0.399	-0.050
-220.625	173.860	-0.280	-0.527
-219.611	-200.000	0.029	0.182
-218.596	-200.000	0.088	-0.553
-217.582	-163.996	-0.223	0.013
-216.567	63.869	-0.126	0.165
-215.552	-107.617	0.201	-0.057
-214.538	-69.576	0.372	0.184
-213.523	-73.164	-0.427	0.202
-212.509	-194.420	-0.334	-0.003
-211.494	414.039	0.068	0.189
-210.479	-170.162	0.230	0.010
-209.465	97.870	-0.123	0.185
-208.450	37.594	0.072	-0.083
-207.436	44.781	0.255	0.305
-206.421	31.099	0.123	0.137
-205.406	776.090	0.090	-0.320
-204.392	-200.000	0.061	0.455
-203.377	-200.000	-0.081	-0.523
-202.363	249.135	-0.244	-0.538
-201.348	698.549	-0.112	-0.385
-200.333	49.361	-0.198	0.242
-199.319	-126.601	-0.394	-0.075
-198.304	-135.262	0.178	0.027
-197.290	-142.835	0.104	0.013
-196.275	119.882	0.160	-0.258
-195.260	212.553	-0.159	-0.327
-194.246	170.210	-0.295	-0.549
-193.231	-141.315	0.541	-0.071
-192.217	-200.000	0.029	-0.262
-191.202	-50.642	-0.159	-0.097
-190.187	43.712	0.160	-0.190
-189.173	87.902	-0.164	0.236
-188.158	170.244	0.060	-0.112
-187.144	188.727	0.040	0.078
-186.129	-20.826	-0.174	0.139
-185.114	-3.416	0.335	0.303
-184.100	-113.841	-0.549	-0.138
-183.085	32.755	0.263	-0.296
-182.071	-24.563	0.214	-0.165
-181.056	-19.152	-0.296	0.238
-180.042	44.205	-0.196	-0.233
-179.027	-200.000	-0.006	-0.348
-178.012	-29.284	-0.220	0.164
-176.998	196.973	0.192	0.382
-175.983	-8.755	0.205	0.179
-174.969	800.000	0.011	0.044
-173.954	-53.881	-0.167	-0.098
-172.939	-130.317	-0.185	0.032
-171.925	18.758	0.055	-0.057
-170.910	-130.238	-0.204	-0.036
-169.896	-147.928	-0.332	0.035
-168.881	-62.873	-0.321	-0.172
-167.866	25.212	-0.125	0.134
-166.852	118.877	0.096	0.154
-165.837	-43.724	0.160	0.104
-164.823	-48.030	-0.451	0.282
-163.808	359.978	-0.077	-0.200
-162.793	-62.751	-0.354	0.190
-161.779	-100.011	-0.481	0.155
-160.764	267.582	-0.185	-0.422
-159.750	2.425	0.204	0.191
-158.735	-132.512	-0.246	-0.041
-157.720	322.218	0.237	0.588
-156.706	67.492	0.205	0.272
-155.691	-170.268	0.354	-0.016
-154.677	-81.913	-0.531	0.224
-153.662	800.000	0.064	-0.296
-152.647	-7.378	0.137	-0.121
-151.633	-89.396	0.224	-0.085
-150.618	9.139	0.166	0.163
-149.604	93.986	-0.138	-0.204
-148.589	-200.000	0.012	-0.273
-147.574	144.475	-0.104	-0.181
-146.560	-34.391	0.325	0.231
-145.545	800.000	-0.104	0.398
-144.531	201.237	-0.105	0.211
-143.516	192.990	-0.194	0.381
-142.502	-200.000	0.002	-0.112
-141.487	29.734	0.288	0.318
-140.472	-160.053	-0.379	-0.026
-139.458	-35.996	-0.119	0.084
-138.443	63.924	-0.099	-0.130
-137.429	-200.000	0.022	0.190
-136.414	-114.851	0.385	-0.094
-135.399	-129.884	-0.306	-0.054
-134.385	800.000	0.062	-0.225
-133.370	113.051	-0.063	-0.099
-132.356	-140.603	-0.150	-0.020
-131.341	-200.000	0.100	0.670
-130.326	-123.522	0.529	0.108
-129.312	800.000	-0.036	0.134
-128.297	-146.398	0.190	-0.021
-127.283	-148.260	0.501	0.053
-126.268	-114.901	0.481	-0.118
-125.253	117.329	-0.114	0.182
-124.239	800.000	0.079	-0.297
-123.224	-200.000	0.024	0.456
-122.210	-78.181	-0.157	0.070
-121.195	-138.335	0.389	-0.055
