DTS Sentinel unit serial number:	SN409020Multiplexer serial number:	ORYXHardware model number:	OX4-SRSoftware version number:	ORYX F/W v3.00 Oryx Data Collector v3.7.2.0data status	okinstallation	HaddamTimeLapsedifferential loss correction	single-endedforward channel	channel 3reverse channel	N/Adate	2011/06/21time	14:31:17forward acquisition time	30.00reverse acquisition time	0.00gamma	498.7831k internal	0.1825k external	0.1825temperature offset calibration	1.0074default loss term (dB/km)	0.3790temperature slope calibration	1.3530multiplexer offset coefficient	1.0000multiplexer slope coefficient	1.0000fibre end	0.00T internal ref (°C)	38.78T ext. ref 1 (°C)	28.74T ext. ref 2 (°C)	0.25length (m)	temperature (°C)	Stokes	anti-Stokes-747.200	-200.000	-0.056	-0.437
-746.185	-200.000	0.021	-0.247
-745.171	197.753	-0.065	-0.126
-744.156	111.319	0.201	0.309
-743.142	26.303	-0.341	-0.363
-742.127	-200.000	-0.023	0.409
-741.112	-133.178	-0.132	-0.021
-740.098	445.008	0.082	0.229
-739.083	-106.804	-0.459	-0.129
-738.069	-129.004	0.199	0.035
-737.054	185.115	0.195	0.370
-736.039	178.023	0.241	0.450
-735.025	182.539	0.197	0.371
-734.010	-168.921	-0.222	-0.010
-732.996	-95.850	0.129	-0.044
-731.981	77.972	-0.189	0.257
-730.966	-40.003	0.035	0.023
-729.952	-111.062	0.174	0.045
-728.937	-200.000	-0.076	-0.437
-727.923	-149.995	-0.220	0.022
-726.908	-144.937	-0.166	-0.019
-725.894	-200.000	0.007	0.122
-724.879	-40.771	-0.278	-0.183
-723.864	618.417	-0.073	0.235
-722.850	-34.592	-0.051	0.036
-721.835	-39.639	0.378	0.251
-720.821	-44.266	-0.245	-0.156
-719.806	800.000	0.047	-0.173
-718.791	800.000	-0.038	-0.183
-717.777	-200.000	0.025	-0.220
-716.762	-44.140	0.212	-0.135
-715.748	-77.009	-0.427	-0.189
-714.733	100.564	0.182	0.269
-713.718	33.910	0.118	0.131
-712.704	-80.418	0.435	0.184
-711.689	82.045	0.147	0.203
-710.675	-85.235	-0.209	-0.083
-709.660	-75.619	0.334	-0.150
-708.645	314.942	-0.067	0.162
-707.631	-10.720	0.077	-0.065
-706.616	-92.603	0.080	-0.028
-705.602	-63.639	-0.503	0.262
-704.587	-200.000	-0.004	0.100
-703.572	215.329	0.032	0.064
-702.558	-129.078	-0.061	0.011
-701.543	800.000	-0.032	0.178
-700.529	134.776	0.222	0.367
-699.514	-10.204	-0.137	0.116
-698.499	-100.868	-0.126	-0.039
-697.485	-200.000	-0.026	0.214
-696.470	32.831	-0.328	0.361
-695.456	-12.317	0.187	0.155
-694.441	800.000	0.119	-0.436
-693.426	-58.315	0.432	-0.238
-692.412	-100.964	0.426	0.132
-691.397	-200.000	-0.004	0.089
-690.383	-168.655	-0.651	-0.031
-689.368	-200.000	-0.039	0.305
-688.354	160.661	0.126	-0.224
-687.339	-24.982	0.502	-0.378
-686.324	-93.627	0.237	-0.083
-685.310	-74.746	-0.491	-0.223
-684.295	-154.649	0.589	-0.049
-683.281	-72.471	0.225	-0.105
-682.266	214.045	0.045	-0.091
-681.251	800.000	0.070	-0.265
-680.237	251.571	0.036	-0.077
-679.222	-193.761	-0.396	-0.004
-678.208	800.000	-0.051	-0.213
-677.193	127.468	-0.115	-0.187
-676.178	-200.000	-0.005	0.158
-675.164	45.443	-0.205	-0.240
-674.149	-124.677	-0.483	0.094
-673.135	78.042	0.334	-0.454
-672.120	-62.015	-0.211	-0.112
-671.105	-51.306	0.375	-0.222
-670.091	91.029	0.191	-0.272
-669.076	-128.104	-0.294	-0.053
-668.062	-149.954	-0.375	0.037
-667.047	-143.654	-0.315	-0.038
-666.032	-37.363	0.242	0.164
-665.018	-26.079	0.656	-0.490
-664.003	-170.450	0.668	0.029
-662.989	-200.000	-0.006	0.095
-661.974	-200.000	-0.004	0.072
-660.959	800.000	0.067	-0.305
-659.945	82.088	0.195	-0.269
-658.930	-81.871	-0.144	0.060
-657.916	345.300	-0.120	-0.300
-656.901	-87.148	-0.563	0.217
-655.886	-67.490	-0.237	0.118
-654.872	321.413	-0.128	-0.311
-653.857	-200.000	-0.017	-0.127
-652.843	-108.478	-0.159	0.043
-651.828	-94.216	0.503	0.174
-650.814	-159.833	-0.101	-0.007
-649.799	41.399	-0.238	0.274
-648.784	-125.172	-0.342	-0.066
-647.770	29.529	-0.176	-0.191
-646.755	-46.322	0.263	-0.164
-645.741	110.904	0.129	-0.198
-644.726	428.193	0.113	-0.313
-643.711	-91.249	0.528	-0.191
-642.697	-200.000	0.040	0.321
-641.682	-1.435	0.354	0.317
-640.668	-200.000	0.017	0.569
-639.653	78.536	-0.038	-0.051
-638.638	-150.025	-0.374	0.037
-637.624	-52.111	0.152	-0.090
-636.609	30.511	0.179	0.194
-635.595	-5.368	0.162	-0.141
-634.580	-146.408	-0.293	0.032
-633.565	-157.411	-0.605	0.046
-632.551	-110.492	-0.248	0.065
-631.536	-13.864	-0.267	-0.219
-630.522	-72.624	-0.316	-0.147
-629.507	-70.577	-0.410	-0.196
-628.492	497.446	-0.164	-0.481
-627.478	123.105	-0.449	-0.716
-626.463	18.319	0.388	-0.393
-625.449	349.188	0.004	0.011
-624.434	251.986	0.240	-0.522
-623.419	616.435	0.037	0.117
-622.405	-101.592	-0.342	0.105
-621.390	-98.019	0.054	-0.017
-620.376	227.830	-0.086	0.179
-619.361	-164.563	-0.360	-0.020
-618.346	-200.000	0.017	-0.292
-617.332	-131.208	-0.173	0.029
-616.317	-129.555	-0.429	-0.074
-615.303	800.000	0.023	-0.100
-614.288	-94.759	0.009	0.003
-613.273	-200.000	-0.012	0.251
-612.259	36.104	-0.150	0.168
-611.244	800.000	0.057	0.205
-610.230	250.014	0.133	-0.288
-609.215	566.373	0.087	-0.268
-608.201	-163.039	0.500	-0.030
-607.186	592.672	-0.030	-0.096
-606.171	-200.000	-0.023	-0.186
-605.157	-159.321	-0.200	0.014
-604.142	-101.609	-0.354	0.108
-603.128	-200.000	-0.019	-0.318
-602.113	92.000	-0.218	-0.311
-601.098	-138.989	0.661	0.090
-600.084	800.000	-0.067	0.344
-599.069	800.000	0.038	0.201
-598.055	88.166	0.169	0.238
-597.040	118.749	0.092	0.144
-596.025	-19.805	-0.082	0.064
-595.011	-20.177	0.300	0.234
-593.996	201.683	-0.076	-0.149
-592.982	-187.920	-0.441	0.007
-591.967	-104.575	-0.167	0.048
-590.952	-200.000	-0.020	-0.200
-589.938	-200.000	0.026	-0.217
-588.923	306.325	-0.192	-0.455
-587.909	29.925	-0.177	0.191
-586.894	34.987	0.095	0.106
-585.879	800.000	0.079	0.374
-584.865	-79.204	-0.278	-0.119
-583.850	-49.895	-0.131	-0.079
-582.836	-200.000	-0.099	-0.560
-581.821	223.283	-0.140	-0.286
-580.806	-56.159	-0.364	0.205
-579.792	426.196	0.104	0.285
-578.777	-40.833	0.087	-0.057
-577.763	151.840	-0.222	-0.384
-576.748	-200.000	-0.228	-0.000
-575.733	-10.336	0.360	-0.302
-574.719	-146.519	-0.476	0.052
-573.704	631.781	-0.009	0.029
-572.690	-200.000	-0.046	0.456
-571.675	-131.727	0.168	0.028
-570.661	-90.024	0.108	0.040
-569.646	-200.000	0.020	0.331
-568.631	158.732	0.116	0.205
-567.617	280.754	0.151	0.344
-566.602	-35.622	-0.352	-0.241
-565.588	81.545	0.517	0.709
-564.573	-39.850	-0.272	-0.180
-563.558	39.638	-0.208	0.236
-562.544	48.091	-0.124	-0.147
-561.529	166.628	0.298	-0.537
-560.515	-54.739	0.262	-0.150
-559.500	148.212	-0.078	0.134
-558.485	12.480	-0.223	-0.218
-557.471	-27.341	-0.258	-0.190
-556.456	-86.092	-0.828	-0.322
-555.442	669.065	0.102	-0.336
-554.427	-57.074	-0.210	-0.117
-553.412	207.377	0.205	-0.405
-552.398	-60.536	0.151	-0.081
-551.383	-68.809	0.222	-0.108
-550.369	-33.102	0.390	0.273
-549.354	-133.420	0.088	0.014
-548.339	24.584	0.197	-0.206
-547.325	180.951	0.273	0.509
-546.310	54.443	-0.257	0.314
-545.296	30.130	0.140	-0.151
-544.281	45.078	-0.185	0.215
-543.266	-166.258	-0.143	0.008
-542.252	-63.497	-0.144	0.075
-541.237	79.141	0.118	0.160
-540.223	-127.865	0.474	-0.085
-539.208	800.000	-0.074	-0.402
-538.193	157.094	0.154	0.271
-537.179	-200.000	0.009	-0.074
-536.164	443.124	0.121	0.338
-535.150	-200.000	-0.044	0.517
-534.135	-200.000	-0.017	0.363
-533.121	-85.705	-0.182	-0.071
-532.106	-147.297	-0.219	-0.023
-531.091	141.982	0.157	-0.263
-530.077	800.000	0.132	-0.589
-529.062	32.006	0.152	-0.165
-528.048	158.906	0.127	-0.223
-527.033	-200.000	0.013	-0.089
-526.018	800.000	-0.021	-0.104
-525.004	-200.000	0.089	0.517
-523.989	-74.689	0.148	0.067
-522.975	-7.734	0.190	0.162
-521.960	-200.000	-0.005	-0.233
-520.945	-200.000	0.037	0.479
-519.931	-88.970	0.095	0.035
-518.916	49.972	-0.115	-0.138
-517.902	-37.014	0.518	0.350
-516.887	-61.040	-0.183	0.097
-515.872	-40.019	-0.191	0.126
-514.858	-200.000	0.071	-0.422
-513.843	667.257	0.124	-0.409
-512.829	466.685	0.108	-0.306
-511.814	67.364	0.190	-0.245
-510.799	246.325	-0.106	0.227
-509.785	425.079	-0.086	-0.235
-508.770	537.069	0.090	-0.271
-507.756	-37.434	0.495	0.333
-506.741	-74.684	-0.120	0.054
-505.726	-124.305	-0.521	0.102
-504.712	-30.873	0.356	-0.253
-503.697	-200.000	-0.002	0.136
-502.683	154.044	0.107	0.186
-501.668	549.051	0.092	0.279
-500.653	-200.000	0.012	0.231
-499.639	614.979	0.180	0.574
-498.624	-123.020	-0.534	-0.107
-497.610	-76.479	0.071	-0.031
-496.595	783.998	-0.044	-0.153
-495.581	18.471	0.043	0.043
-494.566	-98.707	-0.136	0.044
-493.551	0.148	-0.278	-0.250
-492.537	82.740	0.197	-0.271
-491.522	157.944	-0.127	-0.222
-490.508	743.471	0.099	0.339
-489.493	61.175	0.216	-0.271
-488.478	-200.000	-0.015	0.284
-487.464	-26.357	-0.255	0.188
-486.449	-150.567	-0.154	-0.015
-485.435	345.244	-0.018	0.045
-484.420	-75.805	0.386	-0.172
-483.405	-200.000	-0.339	0.001
-482.391	-200.000	-0.114	-0.639
-481.376	46.163	0.197	0.230
-480.362	18.108	0.319	-0.321
-479.347	-15.184	-0.299	-0.241
-478.332	414.261	0.134	-0.362
-477.318	-78.328	0.042	0.018
-476.303	154.133	-0.119	-0.206
-475.289	54.301	0.128	-0.155
-474.274	-200.000	-0.048	-0.359
-473.259	800.000	-0.039	-0.191
-472.245	-87.994	-0.780	-0.294
-471.230	2.784	-0.114	-0.104
-470.216	-163.768	-0.204	-0.012
-469.201	71.712	0.346	-0.454
-468.186	177.096	0.147	0.270
-467.172	-141.658	-0.161	-0.020
-466.157	178.496	-0.217	0.400
-465.143	51.356	-0.400	-0.479
-464.128	-200.000	-0.015	-0.293
-463.113	-142.510	0.311	0.038
-462.099	-140.073	0.187	-0.025
-461.084	396.872	0.067	0.177
-460.070	32.251	0.165	-0.180
-459.055	-200.000	0.052	-0.366
-458.040	248.025	-0.154	0.330
-457.026	-188.747	0.228	-0.003
-456.011	800.000	0.042	0.186
-454.997	114.518	0.340	0.523
-453.982	250.619	0.133	0.285
-452.968	-178.598	0.248	-0.007
-451.953	-93.897	0.709	-0.244
-450.938	260.287	-0.040	-0.088
-449.924	108.251	0.137	-0.206
-448.909	29.756	-0.176	0.189
-447.895	-60.097	0.163	0.087
-446.880	30.700	-0.099	0.106
-445.865	387.077	0.068	0.177
-444.851	52.796	-0.185	-0.223
-443.836	-27.609	-0.386	-0.282
-442.822	45.440	0.244	0.284
-441.807	251.942	0.180	0.387
-440.792	2.758	0.202	0.185
-439.778	-20.965	-0.290	-0.224
-438.763	50.973	-0.162	0.193
-437.749	379.718	0.157	0.408
-436.734	-163.809	0.712	0.041
-435.719	-100.581	0.672	-0.208
-434.705	79.623	0.168	0.228
-433.690	-82.376	0.125	0.051
-432.676	-165.597	0.201	-0.011
-431.661	-177.116	0.113	-0.003
-430.646	800.000	0.124	0.681
-429.632	-84.364	-0.124	-0.049
-428.617	-133.280	0.021	0.003
-427.603	-200.000	0.018	0.140
-426.588	11.176	-0.049	0.047
-425.573	-85.664	0.105	0.041
-424.559	-32.773	0.388	-0.271
-423.544	62.648	0.084	0.106
-422.530	35.804	-0.185	0.204
-421.515	-72.368	-0.198	-0.092
-420.500	100.588	0.246	0.361
-419.486	-167.452	0.225	0.011
-418.471	-200.000	0.090	-0.508
-417.457	-200.000	0.021	0.221
-416.442	7.857	-0.199	-0.187
-415.428	344.383	0.153	0.381
-414.413	-153.256	-0.065	0.006
-413.398	47.263	0.064	0.075
-412.384	46.579	0.154	-0.180
-411.369	-200.000	0.018	0.131
-410.355	27.982	-0.177	-0.188
-409.340	757.517	-0.044	-0.152
-408.325	588.582	-0.093	-0.289
-407.311	800.000	0.043	-0.169
-406.296	-200.000	0.042	-0.269
-405.282	-55.213	0.138	0.078
-404.267	13.332	-0.085	0.082
-403.252	-200.000	-0.005	0.449
-402.238	-48.367	0.167	0.101
-401.223	-31.099	0.233	-0.165
-400.209	31.155	-0.299	-0.323
-399.194	-110.403	0.450	-0.117
-398.179	-17.110	-0.284	-0.225
-397.165	-113.830	-0.109	0.026
-396.150	92.897	0.214	-0.304
-395.136	-90.455	-0.261	0.095
-394.121	-200.000	0.107	-0.612
-393.106	-101.918	-0.129	0.039
-392.092	78.508	0.244	0.329
-391.077	800.000	0.058	-0.205
-390.063	-80.596	0.496	-0.207
-389.048	721.949	0.090	0.302
-388.033	661.869	0.124	0.404
-387.019	-152.282	-0.305	0.027
-386.004	-120.844	0.492	0.103
-384.990	-137.262	0.432	-0.061
-383.975	800.000	0.051	-0.270
-382.960	-57.961	0.147	0.080
-381.946	-173.991	0.580	-0.021
-380.931	638.043	-0.091	0.292
-379.917	-77.382	0.216	0.094
-378.902	800.000	-0.008	-0.030
-377.888	233.143	0.113	0.234
-376.873	320.494	-0.038	0.090
-375.858	800.000	-0.132	0.615
-374.844	800.000	-0.100	0.506
-373.829	65.689	0.192	-0.245
-372.815	-200.000	-0.005	0.104
-371.800	-119.463	0.532	-0.115
-370.785	800.000	0.087	0.451
-369.771	528.122	0.098	0.291
-368.756	-72.144	0.245	0.114
-367.742	-29.872	-0.497	-0.355
-366.727	-66.994	-0.263	-0.130
-365.712	-23.779	-0.122	0.091
-364.698	586.836	0.133	-0.412
-363.683	4.498	0.284	-0.262
-362.669	-34.771	-0.401	-0.275
-361.654	125.768	0.283	-0.449
-360.639	-200.000	-0.012	0.239
-359.625	-110.647	-0.421	0.109
-358.610	800.000	-0.049	-0.242
-357.596	500.138	-0.123	-0.359
-356.581	0.305	-0.293	-0.262
-355.566	800.000	0.034	-0.175
-354.552	-162.482	0.071	-0.004
-353.537	-62.941	0.146	0.075
-352.523	-200.000	0.038	-0.437
-351.508	278.705	0.286	-0.643
-350.493	102.794	0.249	-0.367
-349.479	800.000	0.159	-0.561
-348.464	2.611	-0.279	0.254
-347.450	-56.883	-0.169	0.094
-346.435	-61.884	0.063	0.033
-345.420	-89.271	-0.619	-0.228
-344.406	184.123	0.070	0.130
-343.391	-200.000	0.026	-0.150
-342.377	-88.161	-0.427	0.160
-341.362	-200.000	0.219	-0.000
-340.348	-7.588	0.429	-0.363
-339.333	-200.000	0.023	0.424
-338.318	-200.000	0.005	-0.035
-337.304	-200.000	0.018	0.403
-336.289	-42.868	0.243	0.154
-335.275	477.328	-0.083	0.236
-334.260	37.190	-0.327	0.363
-333.245	302.376	-0.184	0.429
-332.231	800.000	-0.017	0.074
-331.216	-115.842	-0.068	0.016
-330.202	-6.424	-0.155	-0.132
-329.187	18.349	-0.335	-0.336
-328.172	-17.122	0.280	-0.222
-327.158	58.283	0.296	0.364
-326.143	800.000	-0.070	-0.347
-325.129	800.000	0.148	0.701
-324.114	733.888	0.090	0.304
-323.099	-200.000	0.020	0.426
-322.085	-139.343	-0.583	0.078
-321.070	2.125	-0.286	0.259
-320.056	-31.748	0.149	0.105
-319.041	533.272	0.038	0.114
-318.026	578.924	0.103	0.317
-317.012	800.000	0.006	-0.023
-315.997	-138.684	-0.395	-0.054
-314.983	11.211	-0.169	-0.162
-313.968	-140.336	-0.641	-0.083
-312.953	-68.691	0.396	0.191
-311.939	-146.676	0.524	-0.056
-310.924	284.552	0.135	-0.305
-309.910	127.197	0.130	0.207
-308.895	-81.338	0.252	-0.104
-307.880	187.980	-0.196	0.367
-306.866	193.814	-0.113	-0.214
-305.851	-58.487	0.430	0.233
-304.837	-62.042	-0.154	0.080
-303.822	-29.918	-0.193	-0.137
-302.807	-101.977	0.304	-0.091
-301.793	-10.784	-0.215	-0.178
-300.778	-25.233	0.469	0.347
-299.764	35.044	0.106	0.117
-298.749	21.795	-0.364	0.371
-297.735	-12.371	0.275	0.224
-296.720	-34.250	0.073	-0.050
-295.705	-19.175	-0.075	-0.058
-294.691	-103.311	0.231	0.068
-293.676	-65.611	-0.440	0.220
-292.662	-200.000	0.014	0.248
-291.647	462.949	0.140	-0.394
-290.632	800.000	0.093	0.335
-289.618	-200.000	0.074	-0.604
-288.603	-162.774	0.473	0.029
-287.589	215.729	-0.271	0.541
-286.574	-200.000	-0.054	0.000
-285.559	16.844	-0.401	0.397
-284.545	-71.350	0.282	-0.132
-283.530	27.663	-0.130	0.137
-282.516	-70.394	0.150	0.071
-281.501	-115.197	0.596	-0.140
-280.486	-108.943	0.314	0.083
-279.472	-91.734	-0.176	-0.062
-278.457	39.431	0.481	-0.539
-277.443	-157.049	0.350	-0.026
-276.428	-155.562	-0.234	-0.019
-275.413	19.384	-0.283	-0.284
-274.399	-130.258	-0.609	0.103
-273.384	-63.897	0.170	-0.087
-272.370	-25.223	-0.357	0.264
-271.355	371.550	0.242	-0.617
-270.340	-6.992	-0.320	-0.271
-269.326	164.120	-0.265	0.468
-268.311	800.000	0.048	-0.214
-267.297	489.941	-0.129	-0.371
-266.282	27.563	-0.121	-0.128
-265.267	-200.000	-0.001	-0.111
-264.253	-119.817	-0.378	0.081
-263.238	55.181	-0.067	-0.081
-262.224	-185.878	-0.406	-0.007
-261.209	-105.530	-0.111	-0.031
-260.195	333.228	0.105	0.254
-259.180	-111.723	0.217	0.054
-258.165	800.000	0.161	0.716
-257.151	-200.000	-0.002	0.244
-256.136	-82.106	0.172	-0.070
-255.122	-63.631	0.064	-0.032
-254.107	800.000	-0.051	0.212
-253.092	-200.000	-0.015	-0.128
-252.078	449.902	-0.116	0.321
-251.063	-200.000	0.341	0.001
-250.049	800.000	0.076	-0.375
-249.034	380.889	-0.156	0.401
-248.019	11.221	-0.524	-0.502
-247.005	54.846	-0.337	-0.407
-245.990	67.057	0.254	-0.324
-244.976	104.761	0.247	-0.365
-243.961	-50.916	-0.220	-0.129
-242.946	7.128	-0.173	0.161
-241.932	57.098	-0.048	0.058
-240.917	-29.170	-0.301	-0.215
-239.903	-59.664	0.228	-0.122
-238.888	-180.293	0.310	-0.008
-237.873	241.896	0.103	0.215
-236.859	-119.952	-0.583	-0.124
-235.844	-115.493	-0.111	-0.026
-234.830	57.479	0.253	-0.309
-233.815	409.830	0.055	-0.145
-232.800	-123.695	-0.323	0.063
-231.786	429.826	0.075	0.204
-230.771	-2.135	0.191	0.167
-229.757	-88.246	-0.409	-0.152
-228.742	-146.407	-0.355	-0.038
-227.727	-200.000	0.020	-0.380
-226.713	138.089	-0.133	0.219
-225.698	-15.927	-0.147	0.117
-224.684	-105.102	-0.610	-0.173
-223.669	800.000	-0.044	-0.225
-222.655	244.492	0.248	-0.523
-221.640	-86.555	-0.295	0.112
-220.625	-73.163	0.170	-0.077
-219.611	69.779	-0.052	0.067
-218.596	17.992	0.118	-0.118
-217.582	-200.000	0.065	0.412
-216.567	-200.000	-0.014	0.295
-215.552	-150.367	0.349	0.033
-214.538	800.000	0.133	0.518
-213.523	-63.234	-0.235	0.121
-212.509	800.000	-0.097	0.459
-211.494	-24.139	0.220	-0.164
-210.479	437.000	-0.191	0.522
-209.465	89.447	0.229	0.319
-208.450	-42.950	0.321	-0.203
-207.436	-16.590	-0.256	-0.202
-206.421	-17.402	0.103	-0.081
-205.406	-53.883	0.431	0.244
-204.392	8.680	0.204	-0.191
-203.377	259.827	-0.210	0.453
-202.363	21.064	-0.143	0.145
-201.348	465.725	0.043	0.122
-200.333	-168.874	0.310	0.014
-199.319	43.284	-0.312	-0.356
-198.304	161.663	-0.124	-0.218
-197.290	-52.858	-0.429	0.246
-196.275	-200.000	0.024	0.220
-195.260	-52.128	0.135	0.078
-194.246	-145.339	0.427	0.048
-193.231	800.000	0.106	0.495
-192.217	-69.963	0.361	0.171
-191.202	183.730	-0.186	-0.345
-190.187	248.926	-0.064	0.135
-189.173	-16.182	0.107	-0.084
-188.158	-200.000	0.045	-0.584
-187.144	-10.361	-0.360	0.297
-186.129	68.469	-0.093	0.119
-185.114	107.150	0.205	-0.304
-184.100	-200.000	0.054	0.366
-183.085	-77.237	-0.300	0.130
-182.071	-114.165	-0.361	0.086
-181.056	169.780	-0.022	-0.039
-180.042	-186.161	-0.280	-0.005
-179.027	800.000	-0.032	0.120
-178.012	187.254	0.077	-0.144
-176.998	-78.790	-0.348	0.147
-175.983	-200.000	0.008	-0.158
-174.969	-69.546	-0.415	-0.197
-173.954	-200.000	-0.028	-0.167
-172.939	-85.010	-0.416	-0.162
-171.925	50.299	0.312	-0.368
-170.910	123.252	-0.170	0.267
-169.896	-47.037	-0.335	0.203
-168.881	505.482	0.062	0.179
-167.866	-52.062	-0.419	-0.242
-166.852	243.602	-0.181	-0.380
-165.837	77.543	0.225	0.299
-164.823	140.618	0.313	0.516
-163.808	98.174	0.126	0.181
-162.793	91.575	-0.069	-0.097
-161.779	800.000	0.056	0.227
-160.764	12.664	0.422	0.406
-159.750	376.412	-0.045	0.115
-158.735	-17.960	0.109	-0.085
-157.720	-200.000	0.026	-0.320
-156.706	-82.355	-0.266	-0.107
-155.691	-42.281	-0.332	0.211
-154.677	304.996	0.106	0.247
-153.662	172.922	-0.214	0.385
-152.647	-76.227	0.156	0.068
-151.633	72.703	0.133	-0.173
-150.618	47.999	-0.059	-0.068
-149.604	-200.000	0.016	0.168
-148.589	170.459	0.180	0.322
-147.574	-169.066	0.219	0.010
-146.560	39.762	0.133	0.149
-145.545	-102.002	0.218	-0.065
-144.531	-42.071	0.355	-0.225
-143.516	262.199	0.215	-0.466
-142.502	315.297	0.035	0.082
-141.487	-46.729	-0.186	0.113
-140.472	16.834	0.130	0.128
-139.458	-61.751	-0.435	0.226
-138.443	-200.000	-0.087	0.547
-137.429	-126.107	0.674	0.125
-136.414	90.528	0.082	0.114
-135.399	-200.000	0.003	-0.145
-134.385	212.109	0.065	0.128
-133.370	-84.138	0.096	-0.038
-132.356	-200.000	-0.002	-0.218
-131.341	266.594	-0.177	0.387
-130.326	-200.000	-0.029	0.338
-129.312	800.000	-0.145	-0.565
-128.297	-155.499	0.333	0.026
-127.283	201.622	0.236	0.454
-126.268	63.390	0.130	-0.163
-125.253	-43.326	-0.324	-0.203
-124.239	0.203	0.109	-0.097
-123.224	20.594	0.164	-0.165
-122.210	-200.000	0.011	-0.114
-121.195	-27.541	-0.109	-0.078
-120.180	33.242	0.158	0.171
