DTS Sentinel unit serial number:	SN409020Multiplexer serial number:	ORYXHardware model number:	OX4-SRSoftware version number:	ORYX F/W v3.00 Oryx Data Collector v3.7.2.0data status	okinstallation	HaddamTimeLapsedifferential loss correction	single-endedforward channel	channel 3reverse channel	N/Adate	2011/06/21time	14:56:17forward acquisition time	30.00reverse acquisition time	0.00gamma	498.7831k internal	0.1823k external	0.1823temperature offset calibration	1.0074default loss term (dB/km)	0.3790temperature slope calibration	1.3530multiplexer offset coefficient	1.0000multiplexer slope coefficient	1.0000fibre end	0.00T internal ref (°C)	38.25T ext. ref 1 (°C)	30.61T ext. ref 2 (°C)	0.25length (m)	temperature (°C)	Stokes	anti-Stokes-747.200	-145.847	0.122	0.014
-746.185	-88.508	-0.205	-0.078
-745.171	-200.000	-0.057	-0.468
-744.156	53.540	-0.374	0.458
-743.142	800.000	0.056	0.291
-742.127	-99.961	-0.438	0.139
-741.112	138.322	-0.114	-0.191
-740.098	97.705	0.137	-0.201
-739.083	-200.000	0.012	0.090
-738.069	116.780	0.356	0.558
-737.054	-30.564	0.305	-0.220
-736.039	-200.000	-0.025	0.204
-735.025	533.592	0.057	-0.173
-734.010	15.609	0.175	0.175
-732.996	-12.039	-0.242	0.202
-731.981	28.336	0.268	0.288
-730.966	101.367	0.356	0.529
-729.952	39.850	-0.281	0.322
-728.937	-105.644	-0.448	-0.129
-727.923	-200.000	0.002	0.091
-726.908	-169.249	-0.385	-0.018
-725.894	30.566	0.221	-0.241
-724.879	-134.041	0.376	0.059
-723.864	-88.176	-0.271	-0.103
-722.850	241.602	-0.150	-0.321
-721.835	8.913	0.567	-0.545
-720.821	-115.598	-0.265	0.063
-719.806	611.452	0.055	0.175
-718.791	-85.604	0.380	-0.150
-717.777	239.956	0.282	-0.601
-716.762	-115.457	-0.111	-0.027
-715.748	-111.074	-0.073	-0.019
-714.733	-42.168	-0.566	-0.368
-713.718	-200.000	0.017	-0.270
-712.704	-69.807	-0.247	0.120
-711.689	-200.000	-0.047	0.322
-710.675	-186.290	0.226	0.004
-709.660	-108.820	0.272	-0.074
-708.645	88.177	-0.254	0.359
-707.631	-75.934	0.371	-0.166
-706.616	120.310	0.120	0.190
-705.602	100.917	-0.248	-0.369
-704.587	-133.227	0.141	0.023
-703.572	242.492	-0.280	-0.599
-702.558	-41.093	-0.330	0.217
-701.543	35.961	-0.136	0.152
-700.529	-65.016	0.161	0.083
-699.514	-121.257	0.254	-0.054
-698.499	-68.226	0.351	-0.173
-697.485	-71.337	-0.160	0.076
-696.470	418.848	0.027	-0.074
-695.456	800.000	-0.005	0.024
-694.441	-156.294	-0.106	0.008
-693.426	-121.683	-0.309	-0.065
-692.412	-27.460	0.247	-0.182
-691.397	368.644	-0.194	-0.502
-690.383	208.296	-0.122	-0.244
-689.368	-63.610	-0.404	-0.210
-688.354	-95.657	-0.911	0.308
-687.339	-2.349	0.143	-0.127
-686.324	-1.813	0.471	0.422
-685.310	-65.254	-0.407	0.208
-684.295	44.761	0.134	-0.157
-683.281	-107.892	-0.311	-0.086
-682.266	800.000	0.051	-0.252
-681.251	197.526	0.172	-0.336
-680.237	529.268	0.086	-0.261
-679.222	-90.489	0.649	-0.238
-678.208	-4.642	-0.273	-0.239
-677.193	68.263	0.374	-0.488
-676.178	-200.000	0.048	-0.330
-675.164	4.206	-0.225	0.210
-674.149	-200.000	-0.007	0.295
-673.135	-16.078	0.423	0.342
-672.120	-69.928	-0.138	0.067
-671.105	-200.000	0.015	0.083
-670.091	-200.000	0.023	0.152
-669.076	54.590	-0.117	-0.143
-668.062	-5.441	-0.298	-0.260
-667.047	-96.964	-0.015	0.005
-666.032	-55.694	0.261	-0.148
-665.018	-171.891	0.313	-0.013
-664.003	-147.734	0.307	-0.032
-662.989	257.250	-0.164	-0.359
-661.974	-141.570	0.151	-0.019
-660.959	-76.924	0.052	-0.023
-659.945	1.066	-0.198	-0.181
-658.930	715.699	0.019	0.063
-657.916	84.115	-0.070	-0.097
-656.901	7.273	-0.275	0.260
-655.886	800.000	-0.040	-0.181
-654.872	800.000	-0.029	-0.131
-653.857	-144.998	-0.228	0.026
-652.843	40.483	-0.159	-0.182
-651.828	5.260	0.203	0.191
-650.814	-70.671	-0.286	-0.137
-649.799	-150.334	-0.472	-0.046
-648.784	-70.503	0.124	-0.059
-647.770	27.466	0.376	-0.402
-646.755	800.000	-0.041	0.210
-645.741	-112.211	0.292	-0.074
-644.726	-200.000	0.004	-0.272
-643.711	-133.663	-0.410	0.065
-642.697	-64.967	-0.207	0.106
-641.682	210.234	-0.144	0.289
-640.668	-200.000	0.090	-0.525
-639.653	800.000	0.125	-0.515
-638.638	249.471	-0.199	-0.429
-637.624	-200.000	-0.008	0.179
-636.609	-112.553	0.678	-0.170
-635.595	138.681	0.206	-0.344
-634.580	-130.998	0.314	0.053
-633.565	-145.439	0.436	-0.049
-632.551	-72.038	0.324	0.152
-631.536	-5.611	-0.105	0.092
-630.522	-149.901	-0.138	0.014
-629.507	36.127	-0.304	-0.340
-628.492	800.000	-0.019	0.071
-627.478	-50.849	0.183	-0.109
-626.463	-45.156	0.257	0.162
-625.449	-94.148	-0.403	0.139
-624.434	187.256	0.193	-0.367
-623.419	-170.242	0.534	0.024
-622.405	-200.000	0.021	-0.249
-621.390	-163.934	-0.343	-0.020
-620.376	-68.466	-0.271	0.133
-619.361	1.463	0.462	0.421
-618.346	-71.597	0.516	-0.244
-617.332	-6.504	-0.202	-0.175
-616.317	-141.655	-0.641	-0.081
-615.303	108.313	0.218	-0.331
-614.288	-102.975	-0.272	-0.081
-613.273	-80.966	0.073	0.031
-612.259	19.355	-0.117	0.119
-611.244	-74.204	-0.043	-0.020
-610.230	-2.825	0.105	-0.093
-609.215	-192.555	0.397	0.005
-608.201	195.930	-0.296	0.573
-607.186	346.711	0.039	-0.098
-606.171	87.206	0.323	0.454
-605.157	-200.000	0.001	-0.083
-604.142	-35.090	0.488	0.337
-603.128	133.940	0.142	0.234
-602.113	-131.472	0.216	0.036
-601.098	-200.000	0.026	0.390
-600.084	-51.079	-0.314	0.186
-599.069	-47.236	-0.241	-0.149
-598.055	-33.625	0.387	-0.271
-597.040	54.088	-0.139	0.170
-596.025	-70.844	0.108	-0.051
-595.011	-53.494	-0.148	0.086
-593.996	-117.281	0.478	0.109
-592.982	-37.028	-0.115	0.078
-591.967	-180.855	0.161	-0.004
-590.952	800.000	-0.114	0.542
-589.938	-115.700	-0.421	-0.099
-588.923	800.000	-0.100	-0.386
-587.909	-200.000	0.030	-0.245
-586.894	-143.870	0.340	-0.040
-585.879	-23.290	0.086	-0.065
-584.865	108.831	-0.112	0.170
-583.850	-200.000	0.048	-0.276
-582.836	-155.418	-0.058	0.005
-581.821	448.725	0.201	0.564
-580.806	-171.571	-0.288	-0.012
-579.792	-33.222	-0.402	-0.281
-578.777	-200.000	0.537	0.003
-577.763	-128.914	0.392	0.069
-576.748	-200.000	0.049	0.422
-575.733	149.604	-0.284	0.488
-574.719	-117.156	-0.435	-0.100
-573.704	-111.938	-0.234	0.059
-572.690	-146.013	-0.296	-0.033
-571.675	-200.000	0.048	0.491
-570.661	64.119	-0.144	-0.184
-569.646	-95.906	0.170	-0.057
-568.631	800.000	-0.066	0.349
-567.617	-11.815	0.337	0.280
-566.602	-33.515	0.350	0.244
-565.588	-142.799	0.461	0.056
-564.573	-114.990	0.215	0.051
-563.558	-77.126	-0.582	0.256
-562.544	-165.489	-0.276	-0.015
-561.529	14.798	-0.666	0.659
-560.515	-200.000	-0.037	0.433
-559.500	-62.331	-0.205	0.107
-558.485	-104.959	0.263	-0.076
-557.471	-147.796	0.545	0.057
-556.456	113.878	0.350	0.540
-555.442	-109.528	0.364	0.097
-554.427	-74.512	-0.585	0.266
-553.412	13.325	-0.388	0.380
-552.398	-172.725	0.282	0.011
-551.383	725.566	-0.039	0.133
-550.369	-78.619	-0.308	0.133
-549.354	-200.000	0.070	0.715
-548.339	-133.805	0.167	-0.026
-547.325	-70.759	0.135	0.064
-546.310	-21.317	0.143	0.111
-545.296	-23.178	-0.218	0.166
-544.281	-76.427	0.131	0.058
-543.266	-77.349	0.247	-0.108
-542.252	-129.150	-0.177	0.031
-541.237	-107.630	0.496	-0.136
-540.223	660.737	0.056	-0.184
-539.208	-99.761	0.217	-0.068
-538.193	-21.061	0.211	-0.163
-537.179	15.188	0.198	0.196
-536.164	-105.512	-0.180	0.052
-535.150	349.882	0.198	-0.497
-534.135	250.765	-0.247	0.532
-533.121	8.424	-0.445	-0.423
-532.106	-200.000	-0.047	0.590
-531.091	-139.070	0.633	0.086
-530.077	-74.728	0.128	-0.058
-529.062	46.117	-0.212	0.249
-528.048	68.686	-0.203	0.264
-527.033	-8.579	-0.364	-0.309
-526.018	-130.520	-0.370	-0.063
-525.004	32.667	0.161	-0.177
-523.989	-200.000	-0.047	-0.304
-522.975	744.779	-0.228	0.782
-521.960	-143.644	-0.307	-0.036
-520.945	-200.000	-0.029	-0.281
-519.931	106.254	0.166	0.248
-518.916	31.854	-0.361	0.394
-517.902	-93.038	-0.312	0.109
-516.887	-111.913	0.098	0.025
-515.872	-200.000	0.010	0.065
-514.858	-30.008	-0.176	0.127
-513.843	-51.803	-0.075	0.044
-512.829	-79.064	0.412	0.176
-511.814	57.390	-0.308	0.381
-510.799	-138.772	-0.204	0.028
-509.785	-37.202	0.466	0.315
-508.770	40.033	-0.345	-0.391
-507.756	-51.267	-0.288	-0.170
-506.741	9.736	0.212	0.203
-505.726	4.264	0.246	-0.228
-504.712	-77.456	-0.560	-0.244
-503.697	-156.544	-0.104	0.008
-502.683	800.000	0.066	0.316
-501.668	-123.760	-0.314	-0.062
-500.653	169.152	0.179	-0.323
-499.639	-59.515	-0.074	0.040
-498.624	-158.837	0.436	0.031
-497.610	-118.502	0.232	0.052
-496.595	-57.029	-0.213	-0.119
-495.581	800.000	0.072	-0.263
-494.566	100.169	-0.170	-0.250
-493.551	-19.818	-0.312	-0.243
-492.537	5.027	0.221	-0.205
-491.522	95.979	0.225	0.325
-490.508	-17.532	-0.289	-0.229
-489.493	266.122	-0.078	-0.173
-488.478	-40.766	0.346	0.226
-487.464	189.507	0.195	-0.369
-486.449	-147.918	-0.193	-0.020
-485.435	-132.053	-0.170	-0.028
-484.420	-200.000	0.064	0.513
-483.405	-59.733	-0.443	-0.239
-482.391	263.967	-0.288	-0.635
-481.376	-104.894	0.436	-0.125
-480.362	800.000	-0.047	-0.184
-479.347	-119.444	0.063	0.014
-478.332	-29.955	0.109	-0.078
-477.318	-159.924	0.124	-0.008
-476.303	-200.000	0.017	-0.392
-475.289	-200.000	-0.028	-0.354
-474.274	104.920	-0.030	0.045
-473.259	-200.000	0.008	0.097
-472.245	609.145	-0.111	-0.353
-471.230	-88.166	-0.542	-0.204
-470.216	329.511	-0.231	-0.564
-469.201	-141.692	0.160	-0.020
-468.186	249.236	-0.127	-0.273
-467.172	-200.000	0.012	-0.069
-466.157	38.076	-0.188	0.212
-465.143	-135.950	-0.334	-0.049
-464.128	418.529	0.142	0.385
-463.113	-5.894	-0.215	-0.186
-462.099	289.226	-0.161	-0.370
-461.084	-46.185	-0.303	-0.187
-460.070	-81.413	-0.176	0.073
-459.055	155.326	0.326	-0.567
-458.040	-52.738	-0.388	-0.225
-457.026	-200.000	0.041	-0.422
-456.011	-119.724	0.251	-0.054
-454.997	800.000	-0.119	-0.625
-453.982	-200.000	0.001	-0.097
-452.968	139.310	-0.147	-0.245
-451.953	162.362	0.159	-0.281
-450.938	164.884	0.178	-0.317
-449.924	-77.545	-0.257	0.112
-448.909	-146.660	0.345	-0.037
-447.895	197.142	0.122	-0.236
-446.880	229.778	-0.066	0.137
-445.865	-95.190	-0.468	-0.158
-444.851	40.943	-0.113	-0.129
-443.836	-111.119	0.385	0.099
-442.822	-200.000	0.016	-0.612
-441.807	114.986	-0.223	0.343
-440.792	134.366	0.226	-0.369
-439.778	-44.169	-0.289	0.182
-438.763	-144.612	-0.469	0.054
-437.749	-14.161	0.247	-0.200
-436.734	-200.000	-0.074	0.517
-435.719	-35.735	-0.176	-0.120
-434.705	-4.737	0.387	0.336
-433.690	71.940	0.166	0.218
-432.676	583.889	0.083	0.257
-431.661	-7.256	0.188	0.160
-430.646	-14.226	-0.218	0.177
-429.632	270.645	-0.288	0.640
-428.617	-120.228	-0.097	-0.021
-427.603	24.286	-0.067	0.070
-426.588	617.067	-0.029	-0.092
-425.573	-55.199	0.190	0.107
-424.559	80.239	-0.254	0.345
-423.544	-14.351	-0.110	-0.089
-422.530	247.353	0.193	0.411
-421.515	104.178	-0.274	-0.407
-420.500	-123.510	-0.399	-0.079
-419.486	-200.000	0.030	-0.274
-418.471	216.818	0.223	0.449
-417.457	-110.889	-0.167	-0.043
-416.442	-155.555	-0.231	-0.018
-415.428	494.919	0.151	0.439
-414.413	-118.509	-0.284	0.063
-413.398	29.547	-0.381	0.408
-412.384	-107.856	-0.572	0.156
-411.369	238.902	-0.167	-0.350
-410.355	-129.158	-0.126	-0.022
-409.340	-80.172	-0.115	-0.048
-408.325	-200.000	-0.007	0.076
-407.311	-111.113	0.233	0.060
-406.296	800.000	0.101	-0.492
-405.282	-200.000	-0.008	-0.291
-404.267	82.263	-0.296	-0.404
-403.252	79.318	-0.108	-0.146
-402.238	-27.361	-0.476	-0.348
-401.223	-42.219	-0.064	-0.041
-400.209	375.109	-0.092	0.237
-399.194	-199.936	0.313	-0.002
-398.179	-143.520	0.386	0.046
-397.165	-139.319	-0.570	-0.076
-396.150	-134.527	-0.578	-0.088
-395.136	-28.765	0.254	-0.183
-394.121	16.207	0.270	-0.268
-393.106	0.108	0.173	0.155
-392.092	319.987	0.171	-0.409
-391.077	204.959	0.335	-0.657
-390.063	-167.372	0.475	0.024
-389.048	86.744	-0.089	-0.123
-388.033	57.855	-0.197	0.243
-387.019	-200.000	-0.016	-0.428
-386.004	388.555	0.090	-0.235
-384.990	-200.000	-0.015	0.496
-383.975	-71.066	0.141	-0.067
-382.960	-119.982	-0.487	-0.104
-381.946	100.252	0.054	-0.078
-380.931	-64.587	-0.232	0.118
-379.917	-98.315	-0.376	-0.120
-378.902	-200.000	0.024	-0.201
-377.888	-200.000	-0.011	0.142
-376.873	-125.266	-0.266	0.051
-375.858	-150.434	0.464	0.044
-374.844	-12.931	-0.197	-0.161
-373.829	117.930	-0.115	-0.178
-372.815	-183.393	0.233	0.005
-371.800	-39.895	0.279	0.183
-370.785	379.008	0.235	0.608
-369.771	9.123	0.058	-0.055
-368.756	-38.460	0.062	0.041
-367.742	-200.000	-0.027	-0.236
-366.727	114.373	0.126	0.193
-365.712	56.305	0.135	0.165
-364.698	365.921	-0.137	0.350
-363.683	-107.416	0.067	-0.018
-362.669	800.000	-0.060	-0.223
-361.654	-84.052	-0.329	0.131
-360.639	800.000	0.110	0.456
-359.625	-33.663	-0.221	-0.153
-358.610	120.894	-0.097	0.152
-357.596	-200.000	-0.013	0.412
-356.581	444.749	-0.078	-0.215
-355.566	-89.447	0.279	0.103
-354.552	-108.513	0.631	-0.169
-353.537	239.686	-0.155	-0.325
-352.523	-200.000	-0.045	0.440
-351.508	-67.189	-0.154	-0.076
-350.493	130.907	0.154	-0.249
-349.479	-82.826	-0.249	-0.101
-348.464	293.777	-0.090	0.207
-347.450	21.045	0.027	-0.028
-346.435	446.988	-0.109	0.303
-345.420	-97.605	0.508	-0.164
-344.406	319.266	-0.072	-0.172
-343.391	38.649	-0.035	0.039
-342.377	-66.415	-0.302	-0.150
-341.362	-131.939	0.468	-0.076
-340.348	-76.068	-0.177	0.078
-339.333	36.379	-0.287	0.318
-338.318	-200.000	-0.019	0.130
-337.304	177.046	-0.076	-0.140
-336.289	285.437	0.123	-0.280
-335.275	249.683	0.274	0.585
-334.260	-114.592	0.374	0.089
-333.245	46.538	-0.344	0.401
-332.231	-43.876	-0.229	0.145
-331.216	-89.349	0.616	-0.227
-330.202	-200.000	0.044	0.283
-329.187	-121.169	-0.309	-0.064
-328.172	396.026	0.113	-0.297
-327.158	-25.415	-0.376	0.279
-326.143	271.959	-0.100	-0.222
-325.129	-195.299	0.211	0.002
-324.114	-190.942	-0.235	0.003
-323.099	-33.242	0.304	0.211
-322.085	1.621	0.134	0.121
-321.070	37.981	-0.256	-0.285
-320.056	-67.424	-0.238	-0.117
-319.041	-61.873	0.168	0.088
-318.026	-79.419	-0.408	-0.172
-317.012	-6.189	0.223	-0.191
-315.997	-95.864	-0.127	0.042
-314.983	-200.000	-0.042	0.456
-313.968	8.107	0.078	-0.073
-312.953	-18.032	0.546	0.428
-311.939	86.481	0.081	0.113
-310.924	-34.596	0.596	0.409
-309.910	-58.272	0.299	-0.163
-308.895	39.271	0.275	0.309
-307.880	-79.354	-0.204	-0.086
-306.866	-121.151	0.208	-0.043
-305.851	-200.000	-0.015	-0.213
-304.837	-147.172	-0.338	-0.036
-303.822	46.226	0.179	-0.208
-302.807	800.000	-0.044	-0.239
-301.793	3.754	-0.333	0.305
-300.778	-200.000	-0.021	-0.512
-299.764	-58.215	-0.105	0.057
-298.749	620.945	0.049	-0.155
-297.735	55.769	0.092	-0.111
-296.720	-145.746	-0.483	-0.053
-295.705	-43.800	-0.148	0.093
-294.691	-102.941	-0.100	0.030
-293.676	-34.948	0.168	0.114
-292.662	56.030	-0.106	-0.130
-291.647	-71.319	0.344	-0.161
-290.632	494.158	-0.111	0.320
-289.618	74.432	0.170	-0.224
-288.603	800.000	0.089	0.362
-287.589	-47.619	-0.289	0.175
-286.574	-200.000	0.000	-0.395
-285.559	88.468	0.395	-0.551
-284.545	-157.264	0.623	-0.047
-283.530	-164.795	-0.391	-0.022
-282.516	-65.770	0.212	0.106
-281.501	800.000	-0.063	0.273
-280.486	-200.000	-0.045	0.407
-279.472	-140.077	0.754	0.098
-278.457	-31.549	-0.208	-0.146
-277.443	574.466	0.056	0.173
-276.428	372.650	-0.144	-0.368
-275.413	-75.281	-0.273	-0.122
-274.399	-76.761	-0.349	-0.152
-273.384	-83.211	0.597	-0.239
-272.370	-167.833	0.218	-0.011
-271.355	-149.120	0.525	0.052
-270.340	-18.495	0.174	-0.136
-269.326	-200.000	0.103	-0.000
-268.311	-200.000	-0.063	0.443
-267.297	532.186	0.082	-0.245
-266.282	425.858	0.091	-0.247
-265.267	36.933	0.138	0.152
-264.253	324.089	-0.095	0.228
-263.238	-154.348	0.300	0.025
-262.224	-109.134	0.518	0.137
-261.209	-85.120	0.094	0.037
-260.195	-164.049	0.352	-0.020
-259.180	783.998	-0.036	-0.123
-258.165	15.412	0.230	-0.226
-257.151	64.060	0.477	-0.601
-256.136	22.440	-0.080	-0.082
-255.122	800.000	0.072	-0.251
-254.107	-200.000	0.186	-0.001
-253.092	-133.051	-0.338	-0.053
-252.078	14.504	0.193	0.189
-251.063	-146.496	-0.163	-0.018
-250.049	103.508	-0.143	-0.210
-249.034	74.107	0.107	-0.140
-248.019	-200.000	-0.013	0.153
-247.005	10.487	0.247	-0.235
-245.990	321.607	0.078	0.187
-244.976	255.497	-0.285	0.612
-243.961	-18.338	0.254	0.198
-242.946	154.706	-0.040	-0.068
-241.932	81.963	0.280	-0.380
-240.917	-166.261	-0.327	0.017
-239.903	75.516	0.219	0.289
-238.888	800.000	-0.066	0.236
-237.873	262.585	-0.028	0.060
-236.859	72.480	0.337	-0.440
-235.844	-45.085	0.066	-0.041
-234.830	-54.629	-0.175	-0.099
-233.815	-1.107	-0.266	0.235
-232.800	-103.376	0.359	0.105
-231.786	50.298	-0.252	0.298
-230.771	-200.000	-0.075	-0.655
-229.757	800.000	-0.070	0.282
-228.742	242.570	0.238	0.500
-227.727	-115.038	0.423	0.100
-226.713	76.916	-0.096	0.128
-225.698	10.132	-0.084	-0.080
-224.684	-200.000	-0.001	0.212
-223.669	387.554	0.056	-0.145
-222.655	-33.300	0.111	-0.077
-221.640	-143.733	-0.509	0.060
-220.625	-25.113	0.284	-0.210
-219.611	800.000	0.052	-0.234
-218.596	-200.000	0.000	0.046
-217.582	-128.785	0.420	-0.073
-216.567	-95.101	-0.012	0.004
-215.552	62.180	0.365	0.456
-214.538	192.491	-0.099	-0.187
-213.523	142.860	0.317	0.529
-212.509	-65.211	-0.158	0.079
-211.494	-51.146	0.542	0.317
-210.479	-200.000	-0.009	0.139
-209.465	-162.537	0.096	-0.006
-208.450	47.779	0.181	-0.211
-207.436	-53.122	-0.407	0.233
-206.421	242.449	-0.313	0.658
-205.406	-62.188	-0.280	-0.145
-204.392	800.000	-0.036	0.170
-203.377	62.911	-0.081	0.101
-202.363	-122.607	-0.236	-0.047
-201.348	59.458	0.119	0.147
-200.333	-128.379	0.279	-0.049
-199.319	584.422	-0.063	-0.195
-198.304	211.132	-0.031	-0.062
-197.290	-34.934	0.296	0.201
-196.275	-159.313	-0.144	0.010
-195.260	27.800	0.026	-0.027
-194.246	-5.412	-0.231	-0.198
-193.231	109.144	-0.487	-0.729
-192.217	-52.905	-0.156	0.089
-191.202	193.587	0.206	-0.390
-190.187	30.839	-0.042	0.045
-189.173	-200.000	-0.007	-0.670
-188.158	-111.062	0.147	-0.037
-187.144	-140.101	0.239	0.031
-186.129	-69.509	0.119	-0.057
-185.114	-99.527	-0.212	0.066
-184.100	-64.838	-0.541	0.272
-183.085	-200.000	0.026	-0.395
-182.071	-150.949	0.339	-0.032
-181.056	203.896	-0.027	0.052
-180.042	-7.960	-0.497	0.418
-179.027	170.618	-0.060	0.108
-178.012	-152.492	0.383	0.034
-176.998	-29.397	0.094	-0.067
-175.983	-166.827	-0.415	-0.021
-174.969	-56.226	0.318	0.176
-173.954	-138.026	0.462	-0.064
-172.939	533.938	-0.161	-0.478
-171.925	-200.000	-0.003	-0.342
-170.910	-144.535	0.140	0.016
-169.896	153.401	-0.200	0.343
-168.881	-115.501	-0.259	0.060
-167.866	-180.007	-0.371	-0.010
-166.852	73.825	-0.157	-0.205
-165.837	-14.335	0.202	0.162
-164.823	-200.000	-0.026	-0.218
-163.808	-45.668	0.529	0.326
-162.793	-2.911	-0.305	0.265
-161.779	-104.114	-0.533	-0.154
-160.764	-120.618	-0.261	0.055
-159.750	63.590	0.246	-0.309
-158.735	39.068	0.306	-0.341
-157.720	-104.433	-0.383	-0.110
-156.706	-123.881	-0.358	-0.070
-155.691	107.786	-0.021	0.031
-154.677	170.023	-0.231	0.414
-153.662	-50.602	0.043	0.025
-152.647	800.000	0.095	-0.353
-151.633	-151.973	-0.400	0.036
-150.618	-2.746	0.035	0.030
-149.604	800.000	0.016	-0.081
-148.589	800.000	0.057	-0.230
-147.574	-172.335	-0.279	0.011
-146.560	-142.435	-0.271	-0.033
-145.545	-163.488	-0.467	0.027
-144.531	-200.000	0.028	0.185
-143.516	800.000	0.094	0.408
-142.502	-32.011	0.331	0.231
-141.487	419.793	-0.115	-0.308
-140.472	-104.461	-0.237	0.068
-139.458	-59.960	0.314	-0.167
-138.443	-28.031	0.285	-0.205
-137.429	-200.000	-0.027	0.584
-136.414	77.947	-0.158	-0.211
-135.399	51.440	-0.216	-0.256
-134.385	175.879	-0.160	-0.290
-133.370	-200.000	-0.028	0.251
-132.356	-131.957	-0.368	0.059
-131.341	126.262	-0.179	-0.282
-130.326	137.096	-0.112	0.183
-129.312	-57.163	0.313	-0.171
-128.297	800.000	-0.100	0.451
-127.283	-200.000	0.054	0.341
-126.268	-43.076	-0.323	0.203
-125.253	231.615	-0.359	0.735
-124.239	-17.175	-0.166	-0.130
-123.224	113.362	0.159	-0.240
