DTS Sentinel unit serial number:	SN409020Multiplexer serial number:	ORYXHardware model number:	OX4-SRSoftware version number:	ORYX F/W v3.00 Oryx Data Collector v3.7.2.0data status	okinstallation	HaddamTimeLapsedifferential loss correction	single-endedforward channel	channel 3reverse channel	N/Adate	2011/06/22time	04:56:17forward acquisition time	30.00reverse acquisition time	0.00gamma	498.7831k internal	0.1752k external	0.1752temperature offset calibration	1.0074default loss term (dB/km)	0.3790temperature slope calibration	1.3530multiplexer offset coefficient	1.0000multiplexer slope coefficient	1.0000fibre end	0.00T internal ref (°C)	22.69T ext. ref 1 (°C)	17.75T ext. ref 2 (°C)	0.15length (m)	temperature (°C)	Stokes	anti-Stokes-747.200	800.000	0.038	-0.161
-746.185	-101.191	-0.331	0.107
-745.171	0.414	0.115	-0.109
-744.156	-26.028	-0.217	0.169
-743.142	800.000	-0.055	0.203
-742.127	-106.509	-0.247	0.073
-741.112	-96.589	-0.656	0.228
-740.098	381.348	-0.168	0.460
-739.083	-97.845	0.378	-0.129
-738.069	230.827	0.246	0.537
-737.054	800.000	-0.057	-0.243
-736.039	-57.228	0.097	0.056
-735.025	-102.699	0.372	0.117
-734.010	-93.456	-0.385	0.141
-732.996	800.000	0.010	-0.058
-731.981	-151.976	0.583	-0.056
-730.966	-97.597	-0.354	-0.121
-729.952	4.114	0.267	-0.259
-728.937	423.544	-0.026	-0.073
-727.923	90.823	-0.243	-0.362
-726.908	137.578	0.179	-0.311
-725.894	72.094	-0.175	-0.242
-724.879	-69.585	0.192	0.097
-723.864	-140.853	-0.490	0.066
-722.850	-119.992	-0.256	0.058
-721.835	800.000	-0.085	-0.322
-720.821	800.000	-0.050	0.237
-719.806	-200.000	0.033	0.299
-718.791	-200.000	0.006	-0.067
-717.777	-151.549	-0.539	-0.052
-716.762	628.356	0.172	0.579
-715.748	-161.009	0.073	-0.005
-714.733	-2.898	0.104	0.097
-713.718	-42.646	-0.673	0.453
-712.704	14.780	-0.261	0.270
-711.689	-119.565	-0.483	-0.110
-710.675	-132.442	0.156	-0.026
-709.660	-200.000	-0.008	0.118
-708.645	-41.434	0.162	-0.110
-707.631	81.868	-0.150	-0.216
-706.616	-15.900	0.047	0.040
-705.602	-3.255	-0.166	-0.153
-704.587	-200.000	-0.026	-0.247
-703.572	40.740	-0.218	-0.261
-702.558	-136.021	0.253	0.039
-701.543	-125.266	-0.426	-0.086
-700.529	-139.348	-0.528	0.074
-699.514	-112.676	-0.229	0.060
-698.499	-39.705	-0.287	0.198
-697.485	56.380	0.170	-0.219
-696.470	-200.000	0.018	0.251
-695.456	800.000	-0.062	-0.246
-694.441	-200.000	0.031	0.267
-693.426	-124.000	0.224	0.046
-692.412	-21.869	0.395	-0.318
-691.397	0.705	-0.128	-0.121
-690.383	-122.556	0.352	0.075
-689.368	-200.000	0.001	-0.034
-688.354	36.193	0.331	0.386
-687.339	-98.598	0.382	0.128
-686.324	-0.096	0.299	0.282
-685.310	-7.137	0.304	0.273
-684.295	-42.393	-0.580	-0.391
-683.281	-95.989	-0.326	0.114
-682.266	-144.034	-0.316	0.039
-681.251	-200.000	0.047	-0.318
-680.237	-137.035	0.062	-0.009
-679.222	-200.000	-0.037	0.266
-678.208	-45.236	-0.215	0.141
-677.193	-74.178	-0.554	-0.264
-676.178	-200.000	-0.026	-0.306
-675.164	61.950	0.193	-0.255
-674.149	-32.018	0.743	-0.550
-673.135	-80.304	0.540	0.238
-672.120	-122.010	0.359	0.077
-671.105	-78.937	0.014	0.006
-670.091	-0.421	0.268	-0.252
-669.076	800.000	-0.063	-0.356
-668.062	-70.699	0.124	-0.061
-667.047	-47.451	-0.452	0.290
-666.032	-61.054	-0.543	-0.302
-665.018	-200.000	-0.004	-0.136
-664.003	-93.840	0.173	0.063
-662.989	-21.639	0.096	-0.077
-661.974	800.000	-0.055	-0.259
-660.959	-104.409	-0.411	0.125
-659.945	-37.209	-0.166	0.117
-658.930	-200.000	0.049	-0.619
-657.916	21.554	-0.109	0.118
-656.901	430.988	0.106	0.305
-655.886	-78.967	0.124	-0.056
-654.872	-30.115	-0.267	0.200
-653.857	284.393	0.102	-0.244
-652.843	-99.761	-0.160	-0.053
-651.828	-45.499	0.254	-0.166
-650.814	46.278	0.107	-0.131
-649.799	-60.484	0.307	-0.172
-648.784	17.284	0.327	0.343
-647.770	-154.743	0.450	0.039
-646.755	-136.014	-0.136	-0.021
-645.741	800.000	0.071	-0.298
-644.726	327.175	0.165	-0.420
-643.711	-114.002	0.657	-0.167
-642.697	134.599	-0.082	0.140
-641.682	800.000	-0.045	0.204
-640.668	124.676	-0.026	0.043
-639.653	800.000	-0.010	0.047
-638.638	-200.000	-0.006	-0.248
-637.624	31.229	0.046	0.052
-636.609	-200.000	0.429	0.001
-635.595	-52.618	0.201	-0.122
-634.580	23.734	0.087	-0.094
-633.565	767.189	-0.027	-0.098
-632.551	147.740	0.090	0.161
-631.536	329.925	-0.110	-0.280
-630.522	10.053	0.123	-0.123
-629.507	-108.705	0.513	0.144
-628.492	-132.095	0.301	0.051
-627.478	-172.524	-0.466	-0.019
-626.463	-200.000	-0.101	-0.678
-625.449	-15.072	-0.296	-0.250
-624.434	-96.023	0.472	-0.165
-623.419	800.000	0.079	-0.456
-622.405	663.857	-0.041	-0.142
-621.390	-200.000	0.004	0.504
-620.376	361.406	-0.069	0.185
-619.361	-200.000	-0.001	0.399
-618.346	-170.001	-0.240	0.011
-617.332	17.471	-0.079	0.083
-616.317	302.881	-0.047	-0.115
-615.303	-200.000	0.033	-0.757
-614.288	-137.515	-0.142	0.021
-613.273	-200.000	-0.002	0.359
-612.259	800.000	-0.002	0.011
-611.244	-1.150	-0.060	-0.056
-610.230	477.685	-0.085	-0.256
-609.215	-143.190	-0.123	0.015
-608.201	186.906	-0.148	0.292
-607.186	213.733	-0.047	-0.099
-606.171	529.111	-0.103	-0.324
-605.157	-200.000	0.032	0.263
-604.142	66.544	-0.279	0.374
-603.128	-200.000	-0.022	-0.464
-602.113	494.979	0.112	0.341
-601.098	187.214	-0.138	0.272
-600.084	1.595	-0.152	0.145
-599.069	-39.874	-0.131	-0.090
-598.055	800.000	-0.052	-0.285
-597.040	62.970	-0.123	-0.163
-596.025	233.053	-0.147	0.320
-595.011	800.000	0.025	0.115
-593.996	800.000	0.034	-0.168
-592.982	141.304	0.180	-0.315
-591.967	36.512	0.207	0.241
-590.952	-200.000	-0.468	-0.002
-589.938	709.289	0.099	-0.346
-588.923	-158.923	-0.322	0.024
-587.909	-173.444	-0.498	-0.020
-586.894	800.000	0.055	-0.209
-585.879	83.400	0.407	-0.586
-584.865	19.156	0.211	0.223
-583.850	68.835	-0.259	0.352
-582.836	178.017	-0.079	0.152
-581.821	625.856	-0.093	0.311
-580.806	-200.000	0.014	-0.185
-579.792	211.904	-0.097	-0.203
-578.777	-131.240	0.553	-0.096
-577.763	-200.000	0.007	-0.546
-576.748	-26.442	-0.218	-0.168
-575.733	-103.506	-0.276	-0.085
-574.719	573.337	0.008	0.027
-573.704	611.662	0.146	-0.485
-572.690	-200.000	-0.007	-0.095
-571.675	75.870	-0.335	-0.467
-570.661	800.000	0.049	-0.243
-569.646	424.588	-0.241	-0.687
-568.631	31.951	0.176	0.200
-567.617	270.125	-0.196	-0.456
-566.602	58.569	-0.366	-0.474
-565.588	-93.346	-0.408	0.148
-564.573	-77.462	0.078	-0.035
-563.558	10.821	0.220	-0.221
-562.544	-9.580	0.168	-0.147
-561.529	-75.833	-0.231	-0.108
-560.515	92.790	0.159	0.237
-559.500	10.149	0.212	0.213
-558.485	-167.281	-0.401	0.021
-557.471	-72.639	-0.160	0.078
-556.456	203.733	0.102	-0.208
-555.442	46.710	-0.175	-0.214
-554.427	-140.864	0.326	0.044
-553.412	-177.726	0.392	-0.012
-552.398	-106.246	-0.197	0.058
-551.383	-84.202	-0.208	0.086
-550.369	2.826	-0.224	-0.214
-549.354	-200.000	-0.009	0.520
-548.339	-200.000	0.030	0.202
-547.325	2.113	-0.186	0.177
-546.310	-28.396	-0.073	-0.056
-545.296	764.607	0.041	-0.147
-544.281	800.000	0.080	0.412
-543.266	323.985	0.161	-0.406
-542.252	0.191	-0.216	0.202
-541.237	-107.987	0.358	-0.102
-540.223	589.491	-0.059	-0.191
-539.208	-189.585	-0.403	-0.006
-538.193	-48.722	0.113	-0.072
-537.179	800.000	-0.033	0.158
-536.164	-134.484	-0.141	-0.022
-535.150	-19.362	-0.594	0.484
-534.135	85.726	-0.080	0.116
-533.121	273.308	0.085	0.198
-532.106	-200.000	-0.051	-0.336
-531.091	-60.662	0.543	0.302
-530.077	800.000	-0.020	0.096
-529.062	194.862	-0.083	-0.165
-528.048	-143.570	0.291	0.036
-527.033	-53.092	-0.396	0.239
-526.018	-127.465	-0.241	-0.046
-525.004	-77.347	-0.384	-0.175
-523.989	-91.295	-0.316	-0.118
-522.975	41.740	-0.312	0.372
-521.960	32.373	0.115	0.131
-520.945	-24.498	0.226	0.177
-519.931	518.810	0.060	0.187
-518.916	-106.408	0.479	-0.140
-517.902	398.497	0.219	0.605
-516.887	-84.969	0.457	-0.188
-515.872	-48.449	0.398	-0.251
-514.858	96.425	-0.278	0.419
-513.843	628.089	-0.112	0.373
-512.829	4.576	-0.421	-0.406
-511.814	239.357	0.113	-0.247
-510.799	224.114	0.222	-0.473
-509.785	-84.186	0.205	0.085
-508.770	358.664	0.028	-0.073
-507.756	-23.081	-0.241	-0.190
-506.741	-200.000	-0.056	-0.371
-505.726	0.989	-0.065	-0.061
-504.712	271.779	0.135	0.313
-503.697	-128.954	-0.353	-0.065
-502.683	-104.141	0.170	-0.052
-501.668	266.877	-0.194	0.448
-500.653	-158.594	-0.449	0.034
-499.639	312.018	0.152	0.377
-498.624	102.627	0.212	0.326
-497.610	-1.104	-0.293	-0.272
-496.595	11.096	-0.148	0.148
-495.581	800.000	0.062	0.361
-494.566	-74.636	-0.326	0.153
-493.551	-133.703	0.332	0.054
-492.537	13.937	0.361	0.369
-491.522	-200.000	-0.003	0.177
-490.508	-200.000	0.035	0.249
-489.493	114.075	-0.125	-0.200
-488.478	599.839	-0.079	0.260
-487.464	-46.509	0.376	0.242
-486.449	-185.030	-0.225	0.005
-485.435	-1.400	0.167	0.154
-484.420	42.564	0.291	0.348
-483.405	46.264	0.047	-0.057
-482.391	-43.404	0.339	0.224
-481.376	-35.480	0.560	-0.398
-480.362	-140.193	0.411	0.056
-479.347	-200.000	0.016	0.094
-478.332	83.598	-0.218	0.312
-477.318	351.577	-0.188	-0.491
-476.303	-143.386	0.333	0.041
-475.289	-12.744	-0.097	-0.083
-474.274	-47.370	-0.333	0.212
-473.259	-200.000	-0.035	-0.500
-472.245	42.011	0.049	-0.059
-471.230	96.174	-0.053	-0.080
-470.216	-28.068	-0.405	-0.307
-469.201	-200.000	-0.278	-0.001
-468.186	108.397	0.156	-0.244
-467.172	-61.025	-0.148	-0.082
-466.157	-153.190	0.297	-0.027
-465.143	-33.592	-0.309	0.224
-464.128	13.057	0.301	-0.306
-463.113	-198.720	0.223	0.002
-462.099	-200.000	0.002	0.361
-461.084	-8.176	-0.562	0.496
-460.070	800.000	0.018	0.100
-459.055	365.424	0.077	-0.206
-458.040	-107.939	0.256	0.073
-457.026	192.227	0.481	0.955
-456.011	-147.703	-0.338	-0.037
-454.997	-200.000	0.015	-0.405
-453.982	-36.045	-0.018	-0.013
-452.968	643.561	0.137	-0.461
-451.953	-200.000	0.048	-0.303
-450.938	480.545	-0.186	-0.557
-449.924	-113.110	0.628	-0.161
-448.909	-64.479	-0.264	0.140
-447.895	104.376	-0.043	0.066
-446.880	307.873	-0.085	-0.208
-445.865	-113.683	0.249	0.063
-444.851	-12.243	0.048	-0.041
-443.836	55.482	-0.221	-0.281
-442.822	-19.000	-0.181	0.147
-441.807	-116.576	0.711	-0.170
-440.792	128.980	-0.082	0.138
-439.778	-35.214	-0.442	-0.315
-438.763	-17.135	-0.117	0.097
-437.749	40.243	0.076	-0.089
-436.734	-32.611	-0.193	0.141
-435.719	242.305	0.105	0.231
-434.705	-82.671	-0.300	-0.127
-433.690	800.000	-0.066	0.320
-432.676	-132.964	-0.328	0.054
-431.661	-97.189	-0.714	-0.243
-430.646	-48.266	-0.729	0.460
-429.632	330.121	0.190	0.481
-428.617	-27.143	0.184	0.141
-427.603	46.499	0.051	0.062
-426.588	-127.897	-0.366	-0.068
-425.573	-37.394	0.092	0.064
-424.559	-200.000	-0.002	-0.040
-423.544	494.366	-0.152	0.459
-422.530	800.000	0.159	0.679
-421.515	-15.038	0.416	0.349
-420.500	19.253	0.182	0.192
-419.486	-68.547	-0.215	-0.109
-418.471	369.294	-0.103	-0.273
-417.457	123.422	-0.073	0.120
-416.442	123.155	-0.225	-0.371
-415.428	200.085	-0.150	-0.303
-414.413	800.000	-0.072	-0.393
-413.398	-83.280	-0.458	-0.192
-412.384	176.097	-0.056	0.107
-411.369	107.951	-0.177	-0.277
-410.355	-166.984	0.217	0.011
-409.340	-62.035	-0.392	-0.214
-408.325	150.380	-0.180	0.320
-407.311	123.138	0.113	-0.185
-406.296	112.088	-0.064	-0.101
-405.282	-99.757	-0.307	0.100
-404.267	-200.000	0.010	-0.075
-403.252	800.000	0.051	0.263
-402.238	-6.024	0.238	-0.213
-401.223	-115.653	-0.195	0.048
-400.209	-41.926	0.204	-0.137
-399.194	761.051	0.133	0.474
-398.179	-47.828	0.066	-0.042
-397.165	800.000	-0.059	0.252
-396.150	13.764	-0.347	0.353
-395.136	-152.951	0.277	0.025
-394.121	242.587	0.205	-0.450
-393.106	101.502	-0.413	-0.631
-392.092	-29.774	-0.216	0.161
-391.077	-47.199	0.381	0.243
-390.063	368.304	0.105	-0.279
-389.048	-200.000	-0.081	-0.502
-388.033	-133.538	0.188	-0.031
-387.019	-200.000	-0.012	-0.132
-386.004	-200.000	-0.124	0.000
-384.990	-150.192	-0.275	-0.028
-383.975	4.055	-0.166	0.158
-382.960	355.936	0.073	0.191
-381.946	11.219	0.262	0.262
-380.931	-79.954	0.242	-0.106
-379.917	800.000	-0.055	0.308
-378.902	97.797	-0.252	0.379
-377.888	-200.000	0.023	0.219
-376.873	18.798	-0.247	0.259
-375.858	-57.890	-0.555	0.316
-374.844	18.985	-0.146	-0.154
-373.829	-200.000	-0.006	-0.273
-372.815	16.152	0.174	0.179
-371.800	3.783	-0.181	-0.172
-370.785	-85.805	-0.214	0.086
-369.771	35.722	-0.287	-0.330
-368.756	-143.391	0.355	0.044
-367.742	-99.108	0.494	0.163
-366.727	52.977	0.256	-0.320
-365.712	-72.210	0.610	-0.295
-364.698	-138.634	0.554	-0.078
-363.683	-75.217	-0.383	-0.178
-362.669	24.990	-0.391	-0.424
-361.654	-79.593	-0.383	0.168
-360.639	230.194	-0.022	0.046
-359.625	-181.026	0.521	-0.013
-358.610	-112.763	0.239	-0.062
-357.596	-200.000	-0.053	-0.500
-356.581	228.362	0.216	-0.461
-355.566	-138.269	0.047	0.007
-354.552	-200.000	-0.014	0.439
-353.537	-13.052	0.217	-0.184
-352.523	-11.883	-0.041	0.035
-351.508	8.617	-0.035	0.034
-350.493	-200.000	0.012	-0.181
-349.479	4.940	0.166	0.159
-348.464	290.890	0.049	0.116
-347.450	73.224	-0.363	0.497
-346.435	-180.711	0.337	0.009
-345.420	-98.148	0.392	0.131
-344.406	18.085	0.310	-0.323
-343.391	-96.763	-0.180	-0.061
-342.377	-200.000	-0.002	0.124
-341.362	-200.000	0.012	-0.170
-340.348	75.942	0.236	-0.327
-339.333	-88.406	0.542	0.210
-338.318	-30.926	-0.347	0.255
-337.304	-142.972	-0.009	0.001
-336.289	11.467	0.539	-0.540
-335.275	-25.513	0.459	-0.353
-334.260	800.000	0.039	0.181
-333.245	6.627	-0.100	-0.097
-332.231	-132.929	0.233	-0.038
-331.216	49.483	0.365	0.449
-330.202	164.548	0.132	-0.244
-329.187	1.516	0.247	-0.232
-328.172	-200.000	0.015	0.144
-327.158	-92.799	-0.543	-0.197
-326.143	-34.596	0.391	-0.279
-325.129	-37.122	0.222	-0.155
-324.114	-200.000	-0.045	0.367
-323.099	281.929	0.107	0.251
-322.085	-96.096	0.142	0.049
-321.070	-64.157	-0.461	-0.244
-320.056	-33.364	-0.279	0.201
-319.041	-18.797	0.256	0.208
-318.026	390.059	0.134	0.365
-317.012	-161.432	-0.098	0.007
-315.997	-68.142	0.170	-0.086
-314.983	-50.252	0.160	0.098
-313.968	72.487	-0.159	-0.216
-312.953	49.366	0.133	-0.163
-311.939	-200.000	-0.041	-0.276
-310.924	78.690	-0.074	-0.104
-309.910	-113.364	0.120	0.031
-308.895	-45.216	0.208	0.134
-307.880	-40.865	-0.516	0.348
-306.866	-39.674	-0.367	-0.250
-305.851	-97.863	-0.109	0.037
-304.837	-121.656	0.157	0.034
-303.822	-18.370	-0.161	0.131
-302.807	-200.000	0.003	-0.428
-301.793	566.646	-0.028	-0.088
-300.778	141.790	-0.169	-0.294
-299.764	-90.622	0.244	0.091
-298.749	3.370	-0.067	-0.064
-297.735	-24.997	-0.177	0.137
-296.720	-134.940	0.398	0.062
-295.705	-132.273	0.616	-0.103
-294.691	42.190	-0.211	-0.250
-293.676	-11.640	-0.098	0.084
-292.662	-200.000	0.059	-0.495
-291.647	398.334	0.192	-0.525
-290.632	108.089	-0.202	-0.315
-289.618	-123.969	0.544	0.111
-288.603	126.762	-0.046	-0.077
-287.589	-200.000	-0.048	0.859
-286.574	800.000	-0.032	0.139
-285.559	-161.555	0.231	0.015
-284.545	-44.821	0.472	-0.306
-283.530	-154.227	0.215	0.019
-282.516	150.678	0.160	0.285
-281.501	-145.046	-0.353	-0.041
-280.486	-33.972	-0.455	-0.326
-279.472	-178.625	-0.227	0.007
-278.457	-60.626	-0.057	-0.032
-277.443	34.075	0.099	-0.112
-276.428	226.222	0.175	0.370
-275.413	-111.536	-0.462	-0.121
-274.399	612.482	0.119	-0.392
-273.384	-3.080	-0.366	0.333
-272.370	-200.000	0.023	0.322
-271.355	-4.153	0.144	0.130
-270.340	118.806	-0.116	-0.187
-269.326	446.024	0.175	0.504
-268.311	800.000	0.060	0.274
-267.297	-200.000	-0.003	-0.258
-266.282	-27.384	-0.264	-0.200
-265.267	575.174	0.084	-0.269
-264.253	-73.763	0.321	0.151
-263.238	-139.700	0.513	0.070
-262.224	-146.666	-0.321	-0.036
-261.209	18.205	0.239	0.248
-260.195	199.369	0.197	0.395
-259.180	800.000	0.010	0.046
-258.165	84.829	-0.056	-0.080
-257.151	-200.000	0.006	-0.186
-256.136	323.856	-0.156	-0.391
-255.122	-2.081	-0.373	0.341
-254.107	-118.692	-0.417	0.095
-253.092	-160.906	0.213	0.014
-252.078	-117.071	-0.330	0.078
-251.063	-155.671	0.397	0.033
-250.049	50.370	0.277	0.342
-249.034	-130.533	-0.718	-0.125
-248.019	-59.514	-0.328	-0.183
-247.005	-45.293	0.177	-0.114
-245.990	109.014	0.260	-0.405
-244.976	-71.311	-0.201	0.098
-243.961	35.601	-0.371	0.424
-242.946	800.000	0.103	0.579
-241.932	800.000	0.030	0.144
-240.917	-151.100	-0.255	0.025
-239.903	15.920	-0.119	0.122
-238.888	461.420	-0.050	0.145
-237.873	-45.331	-0.419	0.270
-236.859	-56.129	-0.536	0.310
-235.844	-68.108	-0.077	-0.039
-234.830	800.000	-0.018	-0.095
-233.815	-141.164	0.242	-0.032
-232.800	-188.341	0.396	0.006
-231.786	21.194	0.119	-0.125
-230.771	800.000	-0.064	-0.269
-229.757	413.956	-0.013	0.035
-228.742	321.031	0.008	0.020
-227.727	-78.411	0.217	0.096
-226.713	-59.063	-0.192	0.108
-225.698	745.314	-0.083	0.291
-224.684	800.000	0.079	-0.286
-223.669	800.000	0.078	0.406
-222.655	-94.465	-0.126	-0.044
-221.640	168.432	0.137	0.254
-220.625	242.311	0.076	-0.166
-219.611	-16.771	0.438	0.360
-218.596	-111.143	0.221	0.058
-217.582	-47.588	-0.239	-0.150
-216.567	-40.116	-0.226	-0.153
-215.552	-160.841	-0.281	0.019
-214.538	-2.107	0.062	0.057
-213.523	-200.000	-0.007	-0.093
-212.509	128.373	0.218	-0.362
-211.494	-112.715	-0.198	-0.051
-210.479	800.000	-0.050	0.227
-209.465	-200.000	0.011	-0.069
-208.450	66.709	0.387	-0.513
-207.436	-7.703	0.270	0.237
-206.421	-69.420	-0.338	0.168
-205.406	33.804	-0.273	0.309
-204.392	-200.000	-0.025	-0.170
-203.377	332.630	-0.054	0.137
-202.363	6.889	-0.307	0.297
-201.348	-74.951	0.271	0.126
-200.333	800.000	-0.084	0.307
-199.319	-200.000	0.055	0.349
-198.304	101.212	0.157	0.237
-197.290	262.184	-0.302	0.682
-196.275	-168.158	-0.068	0.003
-195.260	-200.000	0.014	-0.199
-194.246	-38.799	-0.543	-0.371
-193.231	-27.432	0.217	-0.163
-192.217	-176.470	0.496	-0.016
-191.202	225.115	0.059	-0.125
-190.187	-200.000	0.023	0.459
-189.173	225.257	-0.171	0.361
-188.158	-87.269	-0.521	0.204
-187.144	-200.000	0.013	-0.159
-186.129	64.899	0.268	-0.352
-185.114	-101.177	-0.321	-0.101
-184.100	-3.024	-0.265	-0.240
-183.085	-200.000	0.025	0.403
-182.071	-200.000	0.014	-0.330
-181.056	-35.285	-0.255	0.180
-180.042	-200.000	-0.019	-0.162
-179.027	-76.017	0.190	-0.087
-178.012	800.000	0.028	0.103
-176.998	-154.092	0.461	0.040
-175.983	-29.658	0.336	-0.248
-174.969	17.014	0.109	0.112
-173.954	800.000	-0.069	-0.361
-172.939	333.079	-0.035	-0.088
-171.925	-163.378	0.088	-0.005
-170.910	800.000	0.119	0.563
-169.896	51.521	-0.367	0.453
-168.881	-129.194	0.291	-0.052
-167.866	-200.000	-0.022	0.236
-166.852	4.362	-0.166	-0.158
-165.837	-65.371	0.490	-0.255
-164.823	-68.115	0.693	-0.349
-163.808	77.500	0.178	-0.246
-162.793	-40.686	-0.438	0.294
-161.779	-90.348	-0.315	0.118
-160.764	129.729	0.223	-0.370
-159.750	-198.962	-0.201	-0.001
-158.735	-135.746	0.433	-0.066
-157.720	47.102	0.199	0.240
-156.706	117.357	0.135	-0.215
-155.691	41.868	0.081	0.095
-154.677	-24.265	-0.220	-0.170
-153.662	-128.417	-0.613	0.112
-152.647	-51.678	0.461	0.278
-151.633	-11.593	0.202	0.172
-150.618	-22.067	-0.164	-0.129
-149.604	-76.099	-0.325	-0.148
-148.589	800.000	0.032	0.118
-147.574	-10.927	-0.561	-0.480
-146.560	-113.476	0.166	-0.042
-145.545	-37.989	-0.226	0.155
-144.531	-111.415	0.517	0.135
-143.516	238.390	-0.215	-0.466
-142.502	611.039	-0.045	-0.147
-141.487	-41.561	0.291	-0.194
-140.472	-106.999	0.237	-0.067
-139.458	-200.000	-0.025	0.250
-138.443	-164.338	-0.353	-0.021
-137.429	478.661	0.183	-0.541
-136.414	-95.572	0.509	0.176
-135.399	92.326	-0.291	-0.426
-134.385	-151.842	-0.298	0.028
-133.370	-85.299	0.289	-0.116
-132.356	4.749	0.189	-0.180
-131.341	2.479	-0.192	-0.180
-130.326	0.719	-0.258	-0.239
-129.312	46.970	-0.269	-0.325
-128.297	-200.000	0.068	-0.609
-127.283	800.000	-0.100	-0.406
-126.268	-26.317	0.231	0.175
-125.253	-104.524	-0.287	-0.085
-124.239	-159.512	-0.289	0.021
-123.224	-200.000	-0.010	0.371
-122.210	328.835	0.047	-0.118
-121.195	-29.926	0.098	0.072
