DTS Sentinel unit serial number:	SN409020Multiplexer serial number:	ORYXHardware model number:	OX4-SRSoftware version number:	ORYX F/W v3.00 Oryx Data Collector v3.7.2.0data status	okinstallation	HaddamTimeLapsedifferential loss correction	single-endedforward channel	channel 3reverse channel	N/Adate	2011/06/22time	04:01:16forward acquisition time	30.00reverse acquisition time	0.00gamma	498.7831k internal	0.1751k external	0.1751temperature offset calibration	1.0074default loss term (dB/km)	0.3790temperature slope calibration	1.3530multiplexer offset coefficient	1.0000multiplexer slope coefficient	1.0000fibre end	0.00T internal ref (°C)	22.50T ext. ref 1 (°C)	18.18T ext. ref 2 (°C)	0.09length (m)	temperature (°C)	Stokes	anti-Stokes-747.200	-79.317	-0.357	0.160
-746.185	53.389	-0.336	0.428
-745.171	800.000	-0.042	0.203
-744.156	537.609	-0.188	0.596
-743.142	-23.296	-0.069	0.055
-742.127	-44.523	0.233	0.155
-741.112	-74.012	-0.394	0.189
-740.098	-200.000	0.067	0.620
-739.083	-200.000	-0.056	-0.333
-738.069	-6.854	0.289	0.261
-737.054	451.632	0.101	0.296
-736.039	-25.181	-0.187	-0.147
-735.025	-147.062	0.197	0.022
-734.010	456.431	-0.164	0.486
-732.996	-37.759	0.160	-0.113
-731.981	-200.000	-0.050	0.388
-730.966	-60.128	-0.464	-0.262
-729.952	236.805	0.094	-0.208
-728.937	-200.000	-0.045	-0.524
-727.923	-100.131	-0.478	0.157
-726.908	-64.877	-0.283	-0.151
-725.894	439.696	-0.087	-0.254
-724.879	-54.857	-0.129	0.077
-723.864	4.771	0.272	-0.265
-722.850	-200.000	0.007	-0.359
-721.835	9.158	0.276	0.277
-720.821	-121.172	0.371	-0.082
-719.806	-200.000	-0.025	-0.351
-718.791	384.450	0.128	-0.351
-717.777	389.939	0.083	-0.230
-716.762	-200.000	-0.036	-0.273
-715.748	-188.768	0.059	0.001
-714.733	-45.664	0.147	0.096
-713.718	-200.000	0.002	0.067
-712.704	-192.183	-0.117	-0.001
-711.689	-156.520	-0.232	0.019
-710.675	-26.799	-0.201	-0.156
-709.660	-145.006	-0.175	0.021
-708.645	18.126	-0.077	-0.082
-707.631	163.375	0.264	0.493
-706.616	-200.000	-0.050	0.479
-705.602	225.636	-0.018	0.039
-704.587	2.009	0.406	-0.389
-703.572	155.140	0.145	-0.266
-702.558	244.460	0.080	0.179
-701.543	-123.586	0.433	-0.090
-700.529	166.589	0.170	-0.319
-699.514	-174.642	0.437	-0.016
-698.499	199.026	-0.327	0.665
-697.485	-18.959	0.164	-0.135
-696.470	800.000	-0.064	-0.280
-695.456	15.062	-0.104	0.108
-694.441	111.209	-0.075	0.120
-693.426	-200.000	-0.053	0.682
-692.412	-60.467	0.436	-0.245
-691.397	-116.651	0.734	0.178
-690.383	-84.303	0.314	-0.131
-689.368	-52.247	0.384	0.235
-688.354	-200.000	-0.197	0.000
-687.339	222.235	0.247	-0.529
-686.324	-71.046	-0.207	-0.103
-685.310	483.995	-0.117	0.356
-684.295	-96.258	-0.357	-0.124
-683.281	-85.884	-0.215	-0.088
-682.266	-66.282	0.483	-0.254
-681.251	-49.387	-0.236	0.149
-680.237	-103.758	-0.535	0.165
-679.222	101.548	0.180	0.278
-678.208	-63.885	-0.272	0.147
-677.193	199.846	-0.257	0.525
-676.178	-104.644	0.182	0.055
-675.164	-130.488	0.204	0.036
-674.149	25.059	-0.157	0.173
-673.135	-96.857	-0.202	0.070
-672.120	65.137	0.247	0.331
-671.105	-41.058	-0.279	0.190
-670.091	-172.588	0.137	0.006
-669.076	537.381	-0.059	-0.186
-668.062	144.025	-0.227	0.403
-667.047	-95.462	-0.243	0.086
-666.032	-79.353	-0.377	0.168
-665.018	69.066	0.184	0.251
-664.003	-28.748	0.106	0.081
-662.989	-144.870	0.389	-0.047
-661.974	-103.875	-0.255	0.078
-660.959	-93.848	-0.467	-0.169
-659.945	232.379	0.075	0.164
-658.930	-200.000	0.012	-0.279
-657.916	-200.000	0.024	-0.512
-656.901	-200.000	0.048	-0.303
-655.886	-74.827	-0.314	-0.149
-654.872	73.616	0.379	0.526
-653.857	-14.977	0.339	0.287
-652.843	-68.699	0.100	0.051
-651.828	-200.000	-0.008	0.679
-650.814	51.465	0.198	0.248
-649.799	108.928	0.228	-0.362
-648.784	800.000	-0.039	0.191
-647.770	-61.628	0.191	0.106
-646.755	549.512	0.032	0.103
-645.741	-42.854	0.542	0.363
-644.726	800.000	0.101	-0.495
-643.711	-196.808	0.567	0.005
-642.697	-164.488	0.037	-0.002
-641.682	-108.750	-0.224	0.063
-640.668	50.203	0.354	-0.442
-639.653	139.799	0.163	0.284
-638.638	-200.000	-0.008	-0.101
-637.624	-200.000	0.061	-0.386
-636.609	-139.250	0.298	0.042
-635.595	-139.055	-0.209	-0.030
-634.580	-125.687	-0.135	-0.027
-633.565	800.000	-0.041	0.217
-632.551	-38.637	0.199	0.139
-631.536	-136.438	0.105	0.016
-630.522	-37.806	-0.376	0.264
-629.507	800.000	0.104	0.441
-628.492	-21.107	0.492	0.397
-627.478	23.858	-0.372	0.406
-626.463	-52.298	-0.698	0.426
-625.449	189.497	0.023	-0.046
-624.434	-30.139	0.259	0.195
-623.419	-17.238	-0.595	0.495
-622.405	93.696	0.150	0.226
-621.390	-106.579	0.295	0.086
-620.376	800.000	-0.083	-0.394
-619.361	-136.084	-0.361	0.055
-618.346	-28.746	-0.511	-0.388
-617.332	-177.450	-0.366	-0.012
-616.317	-200.000	0.099	0.647
-615.303	40.025	-0.462	-0.548
-614.288	-138.529	-0.497	-0.071
-613.273	800.000	-0.175	0.731
-612.259	-145.646	-0.076	0.009
-611.244	-169.636	0.511	0.024
-610.230	-41.426	-0.204	-0.138
-609.215	800.000	-0.107	-0.558
-608.201	107.544	0.190	-0.299
-607.186	800.000	0.142	-0.601
-606.171	70.539	-0.173	-0.237
-605.157	-63.205	-0.139	-0.075
-604.142	32.934	-0.298	-0.341
-603.128	93.337	0.103	-0.154
-602.113	-102.734	-0.254	0.079
-601.098	-8.940	-0.460	-0.406
-600.084	13.579	-0.283	-0.290
-599.069	272.630	-0.062	0.145
-598.055	84.424	-0.176	0.255
-597.040	28.719	-0.142	-0.159
-596.025	141.914	0.183	-0.322
-595.011	291.554	0.042	-0.101
-593.996	-200.000	-0.027	-0.244
-592.982	330.221	0.161	0.412
-591.967	112.586	0.281	-0.450
-590.952	800.000	-0.028	-0.129
-589.938	-41.679	-0.164	0.111
-588.923	-200.000	0.082	-0.758
-587.909	1.780	-0.722	-0.686
-586.894	75.524	-0.133	-0.186
-585.879	136.083	-0.431	0.743
-584.865	-55.706	-0.355	0.209
-583.850	329.873	0.132	0.337
-582.836	-200.000	0.013	-0.147
-581.821	205.425	0.130	-0.267
-580.806	402.385	-0.133	-0.372
-579.792	800.000	0.046	0.192
-578.777	-39.059	-0.181	0.126
-577.763	-120.943	-0.303	-0.067
-576.748	11.677	0.144	-0.145
-575.733	96.593	0.452	0.684
-574.719	101.689	0.110	-0.170
-573.704	125.952	-0.181	0.303
-572.690	800.000	-0.061	0.228
-571.675	170.964	0.080	-0.151
-570.661	-86.611	0.421	-0.169
-569.646	-137.288	-0.122	-0.018
-568.631	-200.000	0.012	0.508
-567.617	-35.796	0.340	-0.242
-566.602	73.334	-0.267	-0.369
-565.588	343.929	-0.067	-0.174
-564.573	-56.545	-0.389	0.227
-563.558	-81.842	-0.135	0.058
-562.544	101.673	0.141	-0.217
-561.529	-100.895	0.143	-0.046
-560.515	100.277	-0.102	-0.157
-559.500	-83.424	0.326	-0.137
-558.485	249.431	-0.104	-0.233
-557.471	-37.691	0.067	-0.047
-556.456	128.564	0.068	0.114
-555.442	18.615	-0.251	-0.265
-554.427	-75.539	0.320	0.149
-553.412	-116.158	-0.184	-0.045
-552.398	112.818	0.412	0.659
-551.383	-99.054	-0.462	-0.153
-550.369	-126.973	-0.331	-0.064
-549.354	174.467	-0.173	-0.330
-548.339	30.865	-0.036	0.041
-547.325	-200.000	0.015	-0.277
-546.310	-5.521	-0.247	-0.223
-545.296	-35.459	-0.797	-0.569
-544.281	-96.240	0.285	0.099
-543.266	-19.146	0.395	-0.323
-542.252	-49.646	0.169	-0.106
-541.237	488.970	-0.077	-0.232
-540.223	289.216	-0.157	0.378
-539.208	-200.000	0.082	0.000
-538.193	-16.605	-0.418	0.348
-537.179	682.049	0.207	-0.714
-536.164	-49.580	0.323	0.202
-535.150	-83.459	0.397	-0.167
-534.135	-5.253	0.122	-0.110
-533.121	-200.000	-0.008	0.124
-532.106	366.175	-0.166	-0.444
-531.091	-105.215	0.345	-0.103
-530.077	-200.000	0.025	0.300
-529.062	338.834	0.178	-0.458
-528.048	-98.242	0.382	-0.128
-527.033	-200.000	-0.005	0.466
-526.018	41.244	0.275	0.328
-525.004	-121.764	0.442	0.095
-523.989	0.909	0.071	-0.067
-522.975	-200.000	0.010	-0.357
-521.960	-83.629	-0.465	0.195
-520.945	-36.317	-0.141	0.100
-519.931	-120.598	0.096	0.021
-518.916	-122.891	0.206	-0.043
-517.902	37.126	0.205	0.239
-516.887	-34.161	-0.292	0.211
-515.872	-136.611	-0.226	-0.034
-514.858	-120.547	-0.238	-0.053
-513.843	-75.578	-0.066	-0.031
-512.829	-83.758	0.338	0.141
-511.814	-23.434	-0.239	0.189
-510.799	-200.000	-0.293	-0.001
-509.785	-60.108	0.207	-0.116
-508.770	-95.069	0.219	-0.077
-507.756	-140.612	0.217	-0.029
-506.741	800.000	-0.069	0.305
-505.726	135.545	-0.236	-0.405
-504.712	800.000	0.040	-0.223
-503.697	-91.597	0.522	-0.194
-502.683	250.243	0.295	0.661
-501.668	-69.251	0.282	-0.142
-500.653	800.000	-0.033	0.164
-499.639	-200.000	0.023	0.305
-498.624	-42.471	0.235	0.157
-497.610	-94.948	-0.450	0.159
-496.595	92.405	0.198	0.294
-495.581	-158.595	0.105	-0.008
-494.566	19.769	0.155	0.164
-493.551	224.561	-0.127	-0.272
-492.537	88.690	0.220	0.323
-491.522	10.849	0.279	0.280
-490.508	-31.923	-0.145	-0.107
-489.493	-28.095	0.269	-0.204
-488.478	253.442	-0.218	-0.490
-487.464	106.566	0.186	0.291
-486.449	143.710	0.137	-0.240
-485.435	-145.923	0.062	0.007
-484.420	-153.169	-0.439	-0.040
-483.405	-124.542	0.254	-0.052
-482.391	-30.937	0.255	0.189
-481.376	-200.000	0.007	-0.390
-480.362	-45.865	0.275	-0.178
-479.347	185.616	0.209	-0.409
-478.332	131.952	0.052	0.089
-477.318	-51.095	0.373	-0.229
-476.303	-46.722	0.256	0.164
-475.289	-200.000	-0.007	-0.300
-474.274	-36.918	0.341	-0.240
-473.259	119.851	-0.098	-0.160
-472.245	-135.862	0.168	-0.026
-471.230	800.000	0.169	-0.678
-470.216	9.470	0.140	-0.139
-469.201	-3.958	-0.278	0.253
-468.186	-114.609	-0.178	0.045
-467.172	-200.000	-0.009	0.162
-466.157	-200.000	-0.030	0.348
-465.143	-146.171	0.465	0.053
-464.128	-15.919	-0.167	-0.140
-463.113	-77.031	-0.312	0.142
-462.099	-33.015	-0.664	0.483
-461.084	126.280	-0.087	-0.145
-460.070	366.370	-0.129	0.344
-459.055	704.459	-0.121	-0.422
-458.040	253.405	0.209	-0.470
-457.026	526.912	0.176	-0.548
-456.011	-133.241	0.306	-0.050
-454.997	-118.737	0.857	-0.197
-453.982	-57.371	-0.181	-0.104
-452.968	162.453	-0.204	-0.376
-451.953	-115.594	0.185	0.045
-450.938	-24.948	-0.231	-0.180
-449.924	-113.041	-0.239	0.062
-448.909	-200.000	0.022	0.227
-447.895	-88.331	-0.181	0.071
-446.880	-115.641	0.143	-0.035
-445.865	370.813	-0.017	-0.046
-444.851	-3.643	0.133	-0.121
-443.836	311.719	-0.015	0.038
-442.822	-200.000	-0.007	0.285
-441.807	-124.818	0.076	0.015
-440.792	-138.385	-0.099	-0.014
-439.778	-9.363	0.225	-0.197
-438.763	-200.000	-0.007	0.260
-437.749	800.000	0.087	0.315
-436.734	-23.337	0.148	-0.116
-435.719	39.968	-0.089	0.105
-434.705	90.919	-0.138	-0.204
-433.690	-97.423	0.384	0.130
-432.676	-200.000	-0.036	0.270
-431.661	295.660	0.150	-0.362
-430.646	79.711	-0.218	0.307
-429.632	-200.000	-0.026	0.230
-428.617	-200.000	-0.128	-0.001
-427.603	-153.278	0.134	0.012
-426.588	800.000	-0.077	0.336
-425.573	-112.384	0.169	-0.044
-424.559	-18.385	-0.311	0.255
-423.544	-134.661	-0.388	-0.061
-422.530	189.495	-0.113	0.223
-421.515	-200.000	-0.004	-0.135
-420.500	-141.578	-0.319	-0.042
-419.486	163.895	0.284	0.526
-418.471	220.420	0.209	0.441
-417.457	-4.711	0.224	-0.203
-416.442	-200.000	0.023	-0.362
-415.428	-170.835	-0.314	-0.014
-414.413	-160.577	0.233	-0.016
-413.398	800.000	-0.114	0.418
-412.384	-10.200	-0.157	-0.137
-411.369	600.193	-0.012	0.039
-410.355	-44.311	-0.084	0.055
-409.340	19.214	-0.127	0.134
-408.325	204.963	0.221	0.451
-407.311	-50.739	0.221	0.136
-406.296	-74.602	-0.207	-0.097
-405.282	-66.452	-0.226	-0.117
-404.267	-167.251	-0.058	0.003
-403.252	-47.529	0.125	-0.080
-402.238	-68.395	-0.459	-0.232
-401.223	-40.879	0.242	-0.163
-400.209	-196.970	0.134	-0.001
-399.194	181.120	0.219	-0.423
-398.179	-134.598	-0.144	0.023
-397.165	-109.295	-0.209	0.058
-396.150	55.249	-0.485	0.615
-395.136	-19.230	-0.263	-0.214
-394.121	11.192	0.135	-0.135
-393.106	-138.639	-0.386	-0.055
-392.092	-146.701	-0.230	-0.026
-391.077	-200.000	0.004	0.248
-390.063	-159.484	0.172	0.012
-389.048	151.570	0.084	0.150
-388.033	301.430	0.060	0.147
-387.019	-129.495	-0.200	-0.036
-386.004	675.130	0.091	0.312
-384.990	-92.227	-0.216	0.080
-383.975	232.093	0.026	0.056
-382.960	-76.278	0.425	-0.195
-381.946	-116.751	0.382	0.091
-380.931	759.788	-0.113	0.404
-379.917	-65.965	0.401	0.209
-378.902	226.612	-0.119	-0.254
-377.888	-83.775	-0.238	-0.099
-376.873	-79.671	-0.448	0.197
-375.858	-9.596	0.343	0.299
-374.844	168.408	-0.142	0.266
-373.829	-2.607	0.274	0.251
-372.815	-200.000	0.022	0.353
-371.800	-149.772	0.111	0.011
-370.785	-200.000	-0.007	0.158
-369.771	-145.782	0.320	-0.037
-368.756	-117.367	-0.252	0.059
-367.742	-111.189	-0.560	-0.149
-366.727	58.191	-0.173	-0.222
-365.712	20.484	-0.303	0.321
-364.698	224.964	0.275	-0.584
-363.683	71.752	-0.138	-0.189
-362.669	-200.000	0.092	-0.717
-361.654	-85.957	0.282	-0.114
-360.639	-151.310	-0.293	-0.028
-359.625	-106.635	0.233	0.067
-358.610	-178.694	0.508	0.015
-357.596	-113.266	-0.064	-0.016
-356.581	800.000	0.010	-0.038
-355.566	9.640	0.232	0.229
-354.552	172.051	0.106	0.200
-353.537	-94.512	-0.173	0.061
-352.523	-17.353	-0.207	0.170
-351.508	-41.293	0.113	-0.076
-350.493	-137.621	-0.418	0.061
-349.479	107.003	0.328	-0.511
-348.464	-122.390	0.506	0.107
-347.450	-200.000	-0.013	-0.258
-346.435	-172.965	0.852	0.034
-345.420	-122.262	0.681	-0.144
-344.406	-92.384	-0.626	-0.229
-343.391	-114.974	-0.214	0.053
-342.377	8.520	-0.425	0.418
-341.362	97.974	-0.149	0.225
-340.348	149.277	-0.282	-0.500
-339.333	-200.000	-0.007	0.069
-338.318	56.406	0.174	0.221
-337.304	-160.099	0.300	-0.021
-336.289	-94.469	0.456	0.162
-335.275	-48.570	-0.074	0.046
-334.260	-107.954	0.247	-0.070
-333.245	-200.000	-0.004	-0.136
-332.231	-99.768	0.219	-0.071
-331.216	263.811	-0.095	-0.216
-330.202	-123.154	-0.218	-0.045
-329.187	800.000	0.092	-0.445
-328.172	239.684	-0.188	-0.410
-327.158	800.000	0.126	-0.467
-326.143	-156.987	-0.308	-0.024
-325.129	-31.350	0.351	-0.257
-324.114	-200.000	0.032	0.205
-323.099	-107.804	0.303	0.086
-322.085	220.668	-0.229	0.481
-321.070	233.558	0.057	-0.123
-320.056	-200.000	-0.017	0.245
-319.041	0.516	0.134	-0.125
-318.026	157.423	0.248	0.450
-317.012	-6.582	0.281	0.250
-315.997	29.706	-0.116	-0.129
-314.983	-200.000	-0.025	-0.501
-313.968	800.000	0.005	0.028
-312.953	490.120	-0.074	0.223
-311.939	-50.316	0.092	-0.056
-310.924	800.000	-0.149	0.549
-309.910	17.650	-0.162	-0.168
-308.895	28.357	-0.524	-0.578
-307.880	-84.524	0.155	-0.064
-306.866	269.020	0.010	0.022
-305.851	-5.837	-0.051	-0.046
-304.837	-93.276	-0.246	-0.089
-303.822	178.309	-0.127	0.243
-302.807	-56.446	0.824	0.476
-301.793	277.929	-0.265	-0.619
-300.778	-78.905	-0.312	-0.138
-299.764	-131.096	0.423	0.073
-298.749	-146.955	-0.585	0.065
-297.735	-84.535	0.243	-0.100
-296.720	30.039	-0.061	-0.068
-295.705	-200.000	0.047	0.388
-294.691	-200.000	-0.004	0.276
-293.676	-130.734	-0.363	0.063
-292.662	-53.559	0.564	0.336
-291.647	-127.162	-0.437	0.083
-290.632	-189.098	-0.850	-0.013
-289.618	-200.000	0.050	0.419
-288.603	486.792	-0.098	-0.293
-287.589	252.118	0.016	-0.035
-286.574	-14.508	0.187	0.157
-285.559	-14.774	0.215	0.180
-284.545	-26.784	0.306	-0.233
-283.530	-120.109	0.699	-0.155
-282.516	-77.194	-0.188	0.085
-281.501	-129.935	0.070	-0.012
-280.486	-76.399	0.324	0.148
-279.472	18.882	0.030	-0.031
-278.457	-121.950	0.386	0.082
-277.443	-114.248	0.072	0.018
-276.428	-110.241	-0.019	-0.005
-275.413	-143.727	-0.261	0.032
-274.399	319.252	0.175	0.435
-273.384	-116.927	-0.222	-0.053
-272.370	-200.000	-0.027	-0.459
-271.355	245.905	0.219	-0.484
-270.340	-10.511	0.154	-0.133
-269.326	-81.484	-0.158	0.067
-268.311	236.778	0.093	0.201
-267.297	-152.875	0.442	-0.040
-266.282	305.201	0.228	-0.553
-265.267	-158.988	-0.241	0.018
-264.253	300.953	-0.096	-0.233
-263.238	-115.600	-0.407	0.099
-262.224	110.270	0.157	0.245
-261.209	-136.691	0.410	0.061
-260.195	800.000	0.050	-0.258
-259.180	-45.946	0.195	-0.125
-258.165	-172.523	-0.477	0.019
-257.151	90.080	-0.182	-0.265
-256.136	-109.832	0.269	-0.073
-255.122	-52.354	-0.169	0.102
-254.107	-45.231	-0.448	0.289
-253.092	800.000	-0.059	-0.231
-252.078	-120.656	-0.236	0.052
-251.063	-102.890	0.188	0.058
-250.049	87.930	-0.133	0.192
-249.034	-89.320	-0.105	-0.040
-248.019	131.590	-0.157	0.263
-247.005	-178.721	0.204	-0.006
-245.990	62.744	-0.265	-0.346
-244.976	-161.510	-0.417	-0.028
-243.961	-189.171	-0.171	-0.003
-242.946	206.140	-0.157	0.319
-241.932	-161.258	0.154	0.010
-240.917	-86.864	-0.583	-0.230
-239.903	682.752	-0.103	-0.353
-238.888	-200.000	0.037	0.220
-237.873	273.373	-0.146	-0.337
-236.859	-76.524	0.250	0.114
-235.844	26.155	-0.201	-0.218
-234.830	169.884	0.172	-0.320
-233.815	157.147	0.128	-0.231
-232.800	68.081	-0.169	0.225
-231.786	-45.431	-0.207	-0.134
-230.771	-188.525	-0.527	0.008
-229.757	-200.000	-0.049	-0.450
-228.742	-81.692	0.302	-0.128
-227.727	-129.735	0.250	0.044
-226.713	-200.000	-0.005	0.086
-225.698	-200.000	0.026	0.227
-224.684	-200.000	0.013	-0.189
-223.669	-77.329	0.144	0.065
-222.655	129.456	0.425	0.707
-221.640	-59.942	-0.271	0.150
-220.625	48.021	-0.106	0.129
-219.611	-200.000	0.023	0.424
-218.596	-11.399	-0.247	0.211
-217.582	528.712	-0.031	-0.097
-216.567	-145.255	-0.361	-0.042
-215.552	-128.446	-0.277	0.051
-214.538	636.438	0.073	-0.244
-213.523	-5.115	-0.391	0.350
-212.509	418.813	-0.073	0.204
-211.494	-75.305	0.584	0.270
-210.479	-53.112	0.188	0.112
-209.465	-13.536	-0.192	-0.162
-208.450	-200.000	0.027	-0.197
-207.436	638.729	0.020	0.068
-206.421	-200.000	0.051	-0.469
-205.406	-107.679	-0.300	0.085
-204.392	-14.593	0.324	0.270
-203.377	-115.839	0.212	-0.051
-202.363	-90.829	0.313	-0.117
-201.348	-163.450	0.370	-0.023
-200.333	367.342	0.195	0.515
-199.319	125.153	0.135	-0.222
-198.304	-25.321	-0.218	-0.167
-197.290	-137.996	0.107	0.015
-196.275	-110.987	-0.265	-0.070
-195.260	-48.520	-0.100	0.063
-194.246	-200.000	-0.007	0.438
-193.231	-142.992	-0.319	0.040
-192.217	800.000	-0.079	-0.389
-191.202	-156.217	0.294	-0.024
-190.187	800.000	-0.051	-0.284
-189.173	800.000	0.038	-0.195
-188.158	-66.842	-0.249	-0.128
-187.144	-132.416	-0.265	-0.044
-186.129	-114.192	-0.088	0.022
-185.114	-80.196	-0.315	0.136
-184.100	13.845	0.334	-0.337
-183.085	-75.448	0.453	0.209
-182.071	211.870	0.143	0.294
-181.056	-120.466	-0.423	-0.093
-180.042	-200.000	0.027	0.205
-179.027	-154.594	0.275	-0.024
-178.012	-115.038	0.273	-0.067
-176.998	103.792	-0.151	-0.231
-175.983	-28.883	-0.129	-0.096
-174.969	615.256	-0.145	0.474
-173.954	-34.629	-0.480	0.340
-172.939	-42.810	-0.334	0.220
-171.925	-200.000	0.010	-0.146
-170.910	-162.723	0.032	0.002
-169.896	-40.764	-0.384	0.258
-168.881	26.341	-0.090	0.098
-167.866	-4.059	0.216	0.194
-166.852	132.717	-0.321	0.539
-165.837	702.774	0.150	-0.518
-164.823	10.276	-0.311	-0.307
-163.808	800.000	-0.077	0.397
-162.793	45.394	-0.431	-0.517
-161.779	-110.661	0.401	-0.107
-160.764	-91.193	-0.288	0.106
-159.750	-6.227	0.202	-0.179
-158.735	-106.308	0.121	-0.035
-157.720	-59.300	0.750	0.418
-156.706	-200.000	0.002	0.353
-155.691	-89.864	-0.322	-0.122
-154.677	122.720	0.324	0.527
-153.662	21.598	0.240	0.253
-152.647	-200.000	0.013	0.546
-151.633	-63.567	0.567	0.301
-150.618	164.534	-0.186	0.340
-149.604	-160.105	-0.370	-0.026
-148.589	103.091	-0.119	-0.181
-147.574	-11.407	-0.205	-0.175
-146.560	-104.292	0.237	0.071
-145.545	-200.000	-0.043	-0.371
-144.531	-51.322	0.188	0.114
-143.516	-200.000	0.011	0.210
-142.502	210.967	-0.189	0.387
-141.487	-200.000	0.046	-0.525
-140.472	408.819	-0.260	0.717
-139.458	800.000	0.038	-0.142
-138.443	215.335	-0.180	0.373
-137.429	-140.627	-0.373	0.050
-136.414	-200.000	0.014	0.246
-135.399	-67.760	-0.305	0.154
-134.385	-15.755	0.202	0.167
-133.370	63.638	-0.247	0.322
-132.356	-40.397	0.529	0.355
-131.341	-53.437	-0.442	0.261
-130.326	800.000	0.027	0.103
-129.312	5.402	-0.065	-0.062
-128.297	254.209	0.181	0.402
-127.283	-37.355	0.221	0.153
-126.268	-90.914	0.729	0.270
-125.253	-71.726	0.436	0.210
-124.239	-200.000	-0.014	-0.202
-123.224	-200.000	0.005	0.200
-122.210	800.000	0.102	0.466
