DTS Sentinel unit serial number:	SN409020Multiplexer serial number:	ORYXHardware model number:	OX4-SRSoftware version number:	ORYX F/W v3.00 Oryx Data Collector v3.7.2.0data status	okinstallation	HaddamTimeLapsedifferential loss correction	single-endedforward channel	channel 3reverse channel	N/Adate	2011/06/22time	01:56:17forward acquisition time	30.00reverse acquisition time	0.00gamma	498.7831k internal	0.1751k external	0.1751temperature offset calibration	1.0074default loss term (dB/km)	0.3790temperature slope calibration	1.3530multiplexer offset coefficient	1.0000multiplexer slope coefficient	1.0000fibre end	0.00T internal ref (°C)	22.44T ext. ref 1 (°C)	17.71T ext. ref 2 (°C)	0.01length (m)	temperature (°C)	Stokes	anti-Stokes-747.200	182.312	-0.197	-0.387
-746.185	-200.000	0.022	0.430
-745.171	800.000	-0.031	-0.159
-744.156	-189.684	-0.137	0.002
-743.142	-166.082	-0.212	0.012
-742.127	-166.688	0.323	0.018
-741.112	-72.531	0.172	0.084
-740.098	-187.201	-0.313	-0.006
-739.083	119.259	0.112	0.184
-738.069	223.354	0.248	0.532
-737.054	-19.570	-0.105	-0.086
-736.039	-185.886	0.193	-0.004
-735.025	67.812	-0.032	-0.044
-734.010	116.145	0.197	0.321
-732.996	-60.087	-0.149	0.084
-731.981	-162.650	-0.360	0.023
-730.966	152.002	0.223	-0.405
-729.952	-113.865	-0.416	-0.107
-728.937	64.586	0.271	-0.363
-727.923	-37.118	0.066	0.047
-726.908	-86.564	0.274	-0.111
-725.894	2.723	-0.094	0.090
-724.879	5.656	0.404	-0.396
-723.864	316.307	-0.015	-0.037
-722.850	-106.197	-0.532	0.157
-721.835	-162.681	-0.322	0.021
-720.821	250.919	0.043	0.097
-719.806	426.121	0.081	-0.233
-718.791	619.748	0.066	-0.220
-717.777	124.465	0.180	-0.301
-716.762	-34.321	0.149	0.108
-715.748	81.040	-0.064	0.092
-714.733	-200.000	0.115	0.693
-713.718	20.302	-0.176	-0.189
-712.704	434.809	-0.077	0.224
-711.689	215.914	0.102	0.215
-710.675	-96.880	0.223	-0.077
-709.660	-78.376	-0.178	-0.080
-708.645	699.935	0.102	-0.357
-707.631	61.286	0.226	-0.299
-706.616	9.322	-0.419	-0.420
-705.602	97.121	0.189	-0.288
-704.587	-108.925	-0.372	0.105
-703.572	-115.488	-0.515	-0.128
-702.558	-200.000	-0.016	-0.299
-701.543	218.981	0.100	-0.212
-700.529	177.015	0.262	0.508
-699.514	418.025	0.010	0.028
-698.499	-32.404	0.328	-0.242
-697.485	163.485	-0.331	-0.619
-696.470	108.215	0.129	0.205
-695.456	-113.053	-0.288	0.075
-694.441	-137.057	-0.445	0.067
-693.426	28.080	0.160	-0.179
-692.412	139.812	0.213	0.373
-691.397	-101.542	0.119	-0.038
-690.383	173.686	-0.070	-0.135
-689.368	92.280	0.087	0.131
-688.354	106.552	-0.037	-0.058
-687.339	-200.000	-0.019	-0.328
-686.324	-101.063	-0.416	0.134
-685.310	-71.887	-0.251	0.124
-684.295	-77.698	-0.276	0.126
-683.281	-189.364	0.166	0.003
-682.266	521.047	0.059	-0.186
-681.251	-200.000	-0.008	0.288
-680.237	-200.000	-0.011	0.491
-679.222	44.643	-0.119	-0.146
-678.208	-67.652	0.323	-0.167
-677.193	103.517	0.160	-0.250
-676.178	249.607	-0.223	-0.502
-675.164	-16.118	0.314	0.264
-674.149	63.626	-0.275	-0.366
-673.135	47.843	0.437	-0.541
-672.120	-181.451	-0.385	-0.010
-671.105	-160.797	-0.161	-0.011
-670.091	-200.000	0.041	-0.315
-669.076	-22.677	0.306	-0.244
-668.062	-2.110	0.197	0.183
-667.047	-95.047	-0.159	0.057
-666.032	-10.040	0.319	0.280
-665.018	390.417	-0.072	-0.199
-664.003	-50.931	0.151	0.093
-662.989	-176.587	-0.514	0.017
-661.974	800.000	0.099	-0.545
-660.959	42.671	0.264	0.319
-659.945	46.076	-0.392	-0.482
-658.930	61.925	-0.050	0.065
-657.916	-15.336	0.280	0.236
-656.901	76.012	-0.138	-0.193
-655.886	-186.240	-0.495	0.009
-654.872	800.000	-0.060	0.255
-653.857	88.915	-0.196	-0.289
-652.843	800.000	0.030	-0.140
-651.828	33.923	-0.224	-0.258
-650.814	-88.122	-0.339	0.134
-649.799	196.880	-0.057	-0.115
-648.784	-152.528	0.394	-0.037
-647.770	176.929	-0.257	0.497
-646.755	-57.890	0.305	0.176
-645.741	-3.459	-0.135	-0.125
-644.726	-200.000	0.024	0.478
-643.711	58.984	-0.378	-0.493
-642.697	1.588	0.174	0.166
-641.682	49.913	-0.229	-0.286
-640.668	-200.000	0.046	-0.319
-639.653	91.190	0.196	0.291
-638.638	-122.044	0.484	0.104
-637.624	800.000	0.082	0.374
-636.609	-6.727	0.022	-0.020
-635.595	173.337	-0.060	-0.115
-634.580	132.558	-0.047	-0.080
-633.565	-9.725	-0.122	0.107
-632.551	-200.000	-0.026	0.245
-631.536	-171.886	0.215	-0.009
-630.522	800.000	0.055	0.296
-629.507	-199.815	-0.344	0.002
-628.492	-12.523	-0.111	-0.096
-627.478	-43.134	-0.357	-0.239
-626.463	9.099	-0.224	-0.224
-625.449	-184.856	-0.149	0.003
-624.434	56.095	-0.264	-0.339
-623.419	185.279	-0.081	0.160
-622.405	76.841	-0.136	0.190
-621.390	-43.278	0.188	-0.126
-620.376	420.347	0.141	0.400
-619.361	-13.416	0.207	-0.177
-618.346	-109.625	0.314	-0.087
-617.332	-96.396	-0.053	0.018
-616.317	800.000	0.042	0.159
-615.303	-144.618	-0.132	0.016
-614.288	42.131	-0.216	0.259
-613.273	800.000	0.080	-0.318
-612.259	-186.339	-0.127	0.002
-611.244	-101.584	0.352	0.112
-610.230	-113.946	-0.454	-0.116
-609.215	-200.000	-0.003	0.069
-608.201	118.755	-0.162	0.265
-607.186	-200.000	-0.020	0.199
-606.171	-9.558	0.144	-0.127
-605.157	-200.000	-0.016	-0.170
-604.142	-200.000	0.018	0.166
-603.128	-42.816	0.235	-0.158
-602.113	131.665	0.449	-0.764
-601.098	-81.485	-0.207	-0.090
-600.084	-119.645	-0.108	0.024
-599.069	-56.858	0.063	-0.037
-598.055	-100.155	-0.493	0.161
-597.040	104.486	0.028	0.044
-596.025	179.101	0.264	0.512
-595.011	45.746	-0.504	0.616
-593.996	-51.183	-0.267	0.165
-592.982	224.660	0.227	0.487
-591.967	-200.000	0.018	0.196
-590.952	-143.014	0.131	0.017
-589.938	204.207	0.022	0.045
-588.923	-54.608	-0.170	-0.102
-587.909	-104.882	0.679	0.204
-586.894	-37.819	0.215	0.151
-585.879	-61.466	-0.069	-0.038
-584.865	178.275	0.104	0.201
-583.850	22.851	-0.271	-0.293
-582.836	-48.690	0.424	0.268
-581.821	-96.211	0.559	-0.195
-580.806	-34.940	0.093	0.067
-579.792	106.845	-0.118	0.185
-578.777	-66.477	0.244	-0.128
-577.763	-72.849	0.288	0.139
-576.748	-117.510	-0.119	0.028
-575.733	81.152	-0.090	0.129
-574.719	-87.144	0.339	0.135
-573.704	-141.426	0.017	-0.002
-572.690	-158.542	-0.446	0.034
-571.675	-144.730	-0.437	0.052
-570.661	440.629	-0.127	-0.369
-569.646	286.896	0.216	0.516
-568.631	-127.666	-0.085	-0.016
-567.617	84.739	-0.478	-0.692
-566.602	154.476	0.059	-0.107
-565.588	-104.025	0.258	0.079
-564.573	-39.730	0.302	-0.208
-563.558	-85.048	-0.314	0.129
-562.544	-54.432	-0.224	-0.134
-561.529	-56.303	0.282	0.165
-560.515	68.921	0.061	0.083
-559.500	-157.308	0.523	-0.041
-558.485	-84.226	0.186	-0.077
-557.471	-136.596	-0.199	0.030
-556.456	117.800	0.091	0.148
-555.442	-200.000	-0.008	0.119
-554.427	-28.229	-0.148	-0.112
-553.412	-160.616	0.182	0.013
-552.398	-127.003	-0.235	-0.045
-551.383	545.457	0.067	-0.211
-550.369	-71.750	0.392	-0.192
-549.354	13.620	-0.102	0.104
-548.339	-87.704	0.243	-0.096
-547.325	-51.514	0.096	0.059
-546.310	55.355	-0.066	0.084
-545.296	-17.264	0.516	-0.428
-544.281	-162.071	-0.236	0.015
-543.266	-75.064	0.447	0.210
-542.252	-62.364	-0.178	-0.097
-541.237	319.710	0.139	-0.349
-540.223	-82.130	0.526	-0.225
-539.208	319.724	0.187	0.470
-538.193	-101.925	0.109	-0.034
-537.179	-121.962	-0.249	-0.053
-536.164	-200.000	0.021	0.159
-535.150	-152.940	-0.140	0.013
-534.135	-200.000	-0.152	1.119
-533.121	-82.138	-0.374	0.160
-532.106	-24.621	-0.524	0.410
-531.091	-119.427	-0.298	0.068
-530.077	-139.522	0.414	0.058
-529.062	247.200	0.088	0.196
-528.048	-200.000	-0.018	0.320
-527.033	61.923	0.272	-0.357
-526.018	441.070	0.042	-0.122
-525.004	-109.854	0.347	-0.095
-523.989	-195.191	0.364	-0.004
-522.975	-64.576	0.095	0.050
-521.960	-200.000	0.058	-0.381
-520.945	75.883	-0.087	0.121
-519.931	-38.223	0.454	-0.316
-518.916	-200.000	-0.052	-0.398
-517.902	59.076	-0.150	0.194
-516.887	80.439	0.148	0.210
-515.872	37.849	-0.104	0.122
-514.858	-108.262	-0.174	-0.049
-513.843	86.451	-0.446	0.648
-512.829	427.353	0.216	0.617
-511.814	-200.000	-0.010	0.312
-510.799	800.000	-0.117	0.670
-509.785	8.339	-0.175	-0.173
-508.770	-112.918	-0.206	-0.053
-507.756	-6.704	-0.190	0.170
-506.741	-69.968	0.281	0.140
-505.726	-103.765	-0.234	0.072
-504.712	-109.725	-0.255	0.070
-503.697	87.544	0.025	-0.036
-502.683	711.368	-0.060	-0.212
-501.668	80.397	0.192	0.272
-500.653	-103.793	-0.422	-0.129
-499.639	-67.247	0.553	-0.285
-498.624	202.287	0.202	-0.412
-497.610	-54.511	0.288	0.171
-496.595	33.348	0.525	0.600
-495.581	12.366	-0.104	0.106
-494.566	-107.156	0.336	0.097
-493.551	-139.567	0.290	0.040
-492.537	1.292	-0.087	-0.082
-491.522	-49.176	0.233	-0.146
-490.508	-170.379	0.162	-0.007
-489.493	331.291	-0.235	-0.599
-488.478	-54.484	-0.320	-0.190
-487.464	-48.225	0.157	-0.100
-486.449	-170.777	0.095	-0.004
-485.435	240.240	-0.025	-0.055
-484.420	204.251	0.100	0.204
-483.405	16.739	0.310	0.323
-482.391	-172.951	0.171	-0.007
-481.376	800.000	-0.033	0.148
-480.362	-151.717	-0.700	0.067
-479.347	-144.393	-0.391	-0.047
-478.332	-168.494	0.322	-0.016
-477.318	-31.812	-0.288	-0.212
-476.303	-153.115	0.433	-0.039
-475.289	800.000	-0.080	-0.330
-474.274	117.009	-0.173	-0.280
-473.259	-113.760	-0.300	0.076
-472.245	-46.487	-0.534	-0.344
-471.230	75.349	-0.066	-0.091
-470.216	-178.197	0.497	-0.015
-469.201	-113.862	0.504	0.128
-468.186	224.064	0.165	-0.351
-467.172	-134.796	0.155	0.024
-466.157	278.538	0.196	0.461
-465.143	-172.333	-0.230	0.009
-464.128	-0.671	0.356	0.331
-463.113	800.000	-0.103	0.440
-462.099	-110.188	0.316	-0.086
-461.084	-200.000	0.023	-0.184
-460.070	518.648	-0.094	-0.291
-459.055	-153.139	-0.350	-0.032
-458.040	-102.781	-0.158	0.049
-457.026	467.124	0.055	0.163
-456.011	217.137	0.179	0.377
-454.997	-179.209	-0.129	-0.004
-453.982	37.615	-0.261	-0.305
-452.968	-71.075	0.434	0.213
-451.953	-200.000	-0.041	0.267
-450.938	-144.196	0.092	0.011
-449.924	-165.051	0.540	-0.031
-448.909	668.701	0.068	0.232
-447.895	-72.245	-0.244	0.118
-446.880	150.877	-0.013	-0.023
-445.865	420.825	0.107	-0.304
-444.851	-55.633	0.404	-0.236
-443.836	23.962	0.241	0.261
-442.822	61.856	0.092	0.120
-441.807	350.670	0.170	0.443
-440.792	800.000	-0.083	0.363
-439.778	112.477	-0.062	-0.098
-438.763	-144.582	-0.130	0.016
-437.749	-28.675	-0.263	-0.198
-436.734	-160.666	-0.090	0.006
-435.719	-142.316	0.213	-0.027
-434.705	-155.570	0.181	0.015
-433.690	38.016	-0.343	0.401
-432.676	50.744	-0.337	-0.419
-431.661	142.983	-0.183	-0.320
-430.646	268.193	0.138	-0.317
-429.632	800.000	-0.018	-0.101
-428.617	-200.000	0.023	-0.141
-427.603	-140.638	0.409	0.055
-426.588	-12.511	0.379	-0.325
-425.573	-36.331	0.153	-0.108
-424.559	606.032	0.077	-0.255
-423.544	272.809	-0.079	-0.183
-422.530	-111.675	-0.602	0.159
-421.515	696.020	-0.042	-0.146
-420.500	-95.012	-0.216	0.076
-419.486	800.000	-0.072	0.265
-418.471	800.000	-0.031	0.129
-417.457	-96.598	-0.033	0.011
-416.442	348.837	0.138	0.359
-415.428	77.688	-0.208	-0.292
-414.413	-200.000	0.069	0.530
-413.398	-67.754	0.345	0.176
-412.384	19.045	0.274	0.288
-411.369	-200.000	0.034	0.571
-410.355	-119.292	0.092	-0.021
-409.340	-76.247	0.138	-0.064
-408.325	238.111	-0.126	0.276
-407.311	800.000	-0.066	-0.284
-406.296	37.413	-0.047	-0.055
-405.282	84.745	-0.148	-0.212
-404.267	-107.528	-0.209	0.060
-403.252	-12.345	0.191	0.163
-402.238	-160.504	-0.292	0.020
-401.223	-134.767	0.434	-0.068
-400.209	-80.579	0.169	-0.073
-399.194	800.000	-0.040	-0.182
-398.179	-69.206	-0.518	-0.260
-397.165	-87.480	0.307	-0.121
-396.150	800.000	0.052	-0.294
-395.136	362.758	-0.030	0.080
-394.121	177.842	0.220	0.421
-393.106	-19.972	0.137	-0.110
-392.092	-52.369	0.123	-0.075
-391.077	151.408	0.109	-0.195
-390.063	282.032	0.106	0.249
-389.048	-156.133	0.304	0.025
-388.033	-200.000	0.011	0.096
-387.019	-151.645	-0.420	0.040
-386.004	-114.443	-0.634	-0.159
-384.990	-137.972	-0.210	-0.030
-383.975	46.887	0.109	0.133
-382.960	-156.642	-0.682	-0.055
-381.946	-46.508	0.281	-0.180
-380.931	-70.763	0.393	0.193
-379.917	26.749	-0.052	-0.057
-378.902	-95.752	-0.723	-0.252
-377.888	584.812	-0.066	0.213
-376.873	-171.349	-0.231	0.010
-375.858	-58.613	0.312	-0.176
-374.844	327.735	-0.132	0.332
-373.829	-54.951	0.340	0.200
-372.815	-200.000	-0.057	-0.583
-371.800	-0.488	-0.124	-0.115
-370.785	289.910	0.291	-0.693
-369.771	-50.577	-0.265	-0.163
-368.756	161.265	-0.072	-0.132
-367.742	800.000	0.099	0.529
-366.727	452.256	0.119	-0.346
-365.712	-145.454	-0.335	-0.039
-364.698	753.285	-0.023	-0.082
-363.683	-200.000	0.026	0.246
-362.669	-21.267	0.457	-0.365
-361.654	-140.351	0.158	-0.021
-360.639	638.464	-0.092	-0.307
-359.625	-46.036	-0.188	-0.121
-358.610	520.543	-0.172	0.529
-357.596	441.922	0.137	0.394
-356.581	-78.461	0.596	0.266
-355.566	-200.000	-0.010	0.478
-354.552	-59.012	-0.129	0.073
-353.537	-102.261	-0.259	0.081
-352.523	-94.059	0.409	0.146
-351.508	-11.822	0.277	-0.237
-350.493	-200.000	0.013	0.127
-349.479	800.000	-0.068	0.336
-348.464	523.568	0.106	0.328
-347.450	-200.000	-0.099	-0.656
-346.435	800.000	-0.011	0.050
-345.420	-10.767	-0.173	0.150
-344.406	-25.143	0.267	-0.206
-343.391	760.268	-0.041	0.145
-342.377	-130.229	-0.846	0.149
-341.362	-200.000	0.033	0.304
-340.348	157.861	0.163	0.296
-339.333	-45.101	-0.402	-0.260
-338.318	-139.007	-0.683	0.096
-337.304	-152.840	0.249	-0.023
-336.289	-142.185	0.147	0.019
-335.275	318.686	-0.129	-0.321
-334.260	-200.000	-0.007	-0.517
-333.245	-35.793	-0.266	-0.188
-332.231	159.952	-0.214	-0.390
-331.216	-114.138	0.248	0.062
-330.202	209.690	-0.164	-0.336
-329.187	-113.652	0.369	0.093
-328.172	89.372	0.184	0.269
-327.158	22.377	-0.214	0.228
-326.143	-47.127	0.240	0.153
-325.129	-200.000	-0.001	0.021
-324.114	-109.287	-0.189	0.052
-323.099	172.559	-0.153	0.288
-322.085	-132.061	-0.118	0.020
-321.070	780.844	-0.100	0.360
-320.056	-117.356	0.175	0.041
-319.041	304.981	-0.156	-0.380
-318.026	249.303	-0.174	-0.388
-317.012	329.819	-0.105	-0.265
-315.997	-29.424	-0.183	-0.136
-314.983	129.837	0.193	-0.323
-313.968	262.226	0.182	-0.413
-312.953	142.130	-0.243	-0.423
-311.939	-130.487	-0.162	-0.028
-310.924	-85.294	0.656	-0.266
-309.910	164.086	0.248	-0.458
-308.895	-95.317	-0.301	0.105
-307.880	-61.859	-0.601	0.327
-306.866	-88.377	0.164	-0.063
-305.851	5.523	-0.175	0.169
-304.837	-91.950	0.202	-0.074
-303.822	-28.096	-0.242	-0.183
-302.807	-145.228	0.280	-0.033
-301.793	800.000	0.063	0.262
-300.778	-57.728	0.320	0.182
-299.764	-49.035	0.197	-0.122
-298.749	-27.188	-0.176	0.133
-297.735	-76.347	-0.624	0.285
-296.720	25.627	-0.289	-0.314
-295.705	-114.132	-0.844	0.211
-294.691	123.051	0.175	0.286
-293.676	221.553	0.118	0.248
-292.662	21.143	0.345	-0.366
-291.647	-25.705	0.142	0.109
-290.632	-71.454	-0.322	0.157
-289.618	-11.037	-0.233	0.200
-288.603	-98.813	0.234	0.077
-287.589	24.798	0.152	0.165
-286.574	-200.000	-0.037	-0.272
-285.559	-113.948	-0.348	0.087
-284.545	-9.262	-0.217	-0.189
-283.530	800.000	0.018	-0.086
-282.516	-1.072	-0.069	0.063
-281.501	49.608	-0.201	0.247
-280.486	-165.528	-0.052	0.003
-279.472	-178.215	-0.140	-0.004
-278.457	44.759	-0.252	-0.303
-277.443	404.889	0.060	0.165
-276.428	-200.000	-0.029	-0.374
-275.413	159.722	0.139	-0.253
-274.399	-66.872	0.484	0.249
-273.384	8.597	-0.138	0.136
-272.370	66.186	-0.192	0.255
-271.355	800.000	-0.022	-0.123
-270.340	-155.575	0.114	-0.009
-269.326	-150.874	0.305	-0.030
-268.311	-29.514	0.167	-0.124
-267.297	-85.911	0.220	0.089
-266.282	-112.249	0.484	0.126
-265.267	800.000	0.154	-0.647
-264.253	-93.724	-0.379	-0.136
-263.238	-140.472	0.385	-0.052
-262.224	-41.876	0.244	-0.163
-261.209	153.433	-0.325	-0.582
-260.195	-69.505	0.274	-0.136
-259.180	87.523	-0.221	0.319
-258.165	128.524	0.062	-0.103
-257.151	-62.043	-0.156	-0.085
-256.136	-180.354	-0.095	-0.003
-255.122	-183.239	-0.311	0.007
-254.107	736.071	0.101	0.355
-253.092	141.812	-0.072	0.125
-252.078	435.802	0.076	0.217
-251.063	-123.942	0.197	-0.040
-250.049	239.921	0.121	-0.264
-249.034	525.674	0.129	-0.398
-248.019	44.250	0.089	-0.107
-247.005	-120.732	0.287	0.063
-245.990	-93.836	0.070	0.025
-244.976	47.532	-0.095	-0.116
-243.961	-97.221	0.178	-0.060
-242.946	-38.628	-0.115	-0.079
-241.932	800.000	0.054	-0.210
-240.917	800.000	0.036	0.165
-239.903	78.249	-0.315	-0.438
-238.888	71.400	-0.362	-0.490
-237.873	-200.000	-0.009	0.078
-236.859	-168.871	0.370	0.018
-235.844	-200.000	-0.055	0.405
-234.830	800.000	-0.050	0.207
-233.815	-30.470	0.233	-0.172
-232.800	-59.720	0.258	0.143
-231.786	-125.619	-0.329	0.064
-230.771	140.601	-0.178	-0.307
-229.757	19.066	0.163	0.170
-228.742	25.434	-0.350	-0.379
-227.727	708.776	-0.220	-0.761
-226.713	800.000	0.047	0.197
-225.698	-57.947	0.131	-0.074
-224.684	-146.860	0.130	0.014
-223.669	-104.239	0.079	-0.024
-222.655	800.000	-0.027	0.108
-221.640	800.000	0.054	-0.286
-220.625	106.142	-0.316	0.488
-219.611	-106.151	-0.314	0.091
-218.596	33.738	-0.334	0.378
-217.582	-77.859	-0.158	-0.071
-216.567	487.381	0.054	-0.161
-215.552	-99.885	-0.214	0.069
-214.538	-79.044	-0.422	-0.186
-213.523	-69.776	0.262	0.130
-212.509	85.543	0.341	-0.488
-211.494	-56.994	-0.346	-0.198
-210.479	131.915	0.340	0.570
-209.465	-15.764	0.358	0.296
-208.450	87.303	-0.313	0.451
-207.436	-38.931	0.262	0.179
-206.421	79.539	0.073	-0.102
-205.406	-55.856	0.157	-0.091
-204.392	168.620	0.343	-0.637
-203.377	-158.627	-0.530	0.039
-202.363	800.000	0.109	-0.598
-201.348	-18.858	0.236	-0.191
-200.333	800.000	-0.061	-0.326
-199.319	-200.000	0.022	-0.142
-198.304	-95.619	-0.538	-0.186
-197.290	-200.000	0.067	-0.416
-196.275	-102.227	0.217	-0.067
-195.260	436.113	0.045	-0.128
-194.246	-200.000	-0.029	-0.326
-193.231	-106.275	0.304	0.088
-192.217	-200.000	0.017	0.359
-191.202	-54.626	-0.230	-0.135
-190.187	-2.350	-0.058	-0.052
-189.173	27.575	-0.176	0.193
-188.158	117.952	-0.422	0.678
-187.144	532.492	-0.107	0.331
-186.129	800.000	0.093	0.496
-185.114	19.574	-0.347	0.363
-184.100	800.000	0.044	-0.205
-183.085	800.000	-0.101	-0.564
-182.071	45.291	0.065	0.078
-181.056	-37.304	0.122	-0.084
-180.042	-97.782	0.250	-0.083
-179.027	103.748	0.430	-0.658
-178.012	229.714	-0.136	-0.289
-176.998	25.852	-0.266	-0.289
-175.983	52.733	0.139	0.173
-174.969	800.000	0.018	0.080
-173.954	-153.793	-0.160	-0.014
-172.939	-150.576	0.731	-0.072
-171.925	-24.807	-0.195	-0.150
-170.910	156.831	0.216	-0.389
-169.896	55.008	0.327	-0.411
-168.881	-85.623	0.339	-0.136
-167.866	12.025	0.288	-0.288
-166.852	-58.117	-0.431	0.243
-165.837	-89.489	-0.275	0.104
-164.823	-86.194	-0.536	-0.214
-163.808	-53.855	0.634	0.374
-162.793	-45.639	-0.394	0.253
-161.779	-200.000	-0.081	0.548
-160.764	-108.715	-0.756	0.209
-159.750	-200.000	-0.432	0.002
-158.735	-25.605	-0.322	-0.247
-157.720	-40.054	-0.404	0.272
-156.706	-74.220	0.437	0.204
-155.691	-23.894	-0.054	-0.042
-154.677	-123.331	-0.149	-0.031
-153.662	-39.654	-0.505	-0.343
-152.647	114.521	-0.099	0.157
-151.633	99.804	0.170	-0.257
-150.618	800.000	0.056	0.309
-149.604	-63.299	-0.322	-0.171
-148.589	320.183	0.128	-0.318
-147.574	20.471	0.303	-0.317
-146.560	148.387	-0.058	-0.102
-145.545	55.709	0.327	0.412
-144.531	-156.471	0.596	0.048
-143.516	-69.340	0.130	-0.064
-142.502	196.697	0.087	-0.173
-141.487	183.624	0.250	0.482
-140.472	-31.266	0.031	0.023
-139.458	-39.881	0.374	0.253
-138.443	140.285	0.242	-0.415
-137.429	-35.686	0.699	-0.490
-136.414	-103.239	0.388	-0.118
-135.399	-200.000	-0.013	0.935
-134.385	-200.000	-0.059	0.413
-133.370	357.928	0.294	0.766
-132.356	-200.000	-0.032	0.254
-131.341	86.615	-0.267	-0.383
-130.326	-59.538	0.084	0.047
-129.312	263.800	0.059	-0.133
-128.297	-51.196	-0.374	-0.227
-127.283	-96.823	-0.289	-0.098
-126.268	161.518	-0.250	0.455
-125.253	-34.908	0.214	-0.151
-124.239	232.240	-0.010	0.022
-123.224	-72.786	-0.362	0.172
-122.210	186.761	0.083	0.160
-121.195	712.873	-0.148	0.511
