DTS Sentinel unit serial number:	SN409020Multiplexer serial number:	ORYXHardware model number:	OX4-SRSoftware version number:	ORYX F/W v3.00 Oryx Data Collector v3.7.2.0data status	okinstallation	HaddamTimeLapsedifferential loss correction	single-endedforward channel	channel 3reverse channel	N/Adate	2011/06/21time	14:36:17forward acquisition time	30.00reverse acquisition time	0.00gamma	498.7831k internal	0.1819k external	0.1819temperature offset calibration	1.0074default loss term (dB/km)	0.3790temperature slope calibration	1.3530multiplexer offset coefficient	1.0000multiplexer slope coefficient	1.0000fibre end	0.00T internal ref (°C)	38.62T ext. ref 1 (°C)	29.64T ext. ref 2 (°C)	0.23length (m)	temperature (°C)	Stokes	anti-Stokes-747.200	384.774	0.077	-0.204
-746.185	-200.000	-0.043	-0.300
-745.171	-200.000	0.012	-0.256
-744.156	-200.000	-0.023	0.248
-743.142	-82.578	0.367	-0.151
-742.127	258.991	0.091	-0.202
-741.112	43.967	-0.190	0.222
-740.098	14.556	-0.329	0.328
-739.083	800.000	0.063	0.347
-738.069	800.000	-0.033	0.171
-737.054	-154.714	-0.104	0.009
-736.039	800.000	0.110	0.535
-735.025	-140.496	-0.484	0.064
-734.010	800.000	0.050	-0.214
-732.996	-105.022	0.627	-0.182
-731.981	-159.522	-0.471	0.033
-730.966	-137.016	0.237	0.034
-729.952	482.549	-0.088	0.257
-728.937	-77.729	-0.298	-0.131
-727.923	90.843	-0.308	0.443
-726.908	-174.475	-0.429	0.015
-725.894	-136.186	-0.204	0.030
-724.879	94.809	-0.110	0.161
-723.864	-0.692	-0.088	0.080
-722.850	260.918	0.286	-0.635
-721.835	-86.509	-0.256	-0.100
-720.821	-200.000	-0.029	0.292
-719.806	-55.812	-0.169	-0.096
-718.791	48.868	-0.128	0.153
-717.777	112.493	0.129	-0.200
-716.762	-144.636	-0.294	0.034
-715.748	-44.815	0.287	-0.182
-714.733	59.493	0.110	0.139
-713.718	800.000	0.123	0.441
-712.704	60.750	0.118	0.149
-711.689	-153.971	0.362	-0.031
-710.675	-87.504	-0.439	0.169
-709.660	380.279	-0.033	0.086
-708.645	-143.369	0.248	-0.030
-707.631	-116.517	0.304	0.071
-706.616	153.284	-0.183	0.321
-705.602	-200.000	0.031	-0.234
-704.587	257.984	0.165	-0.363
-703.572	-93.913	0.586	0.204
-702.558	-87.684	0.645	-0.247
-701.543	-112.458	0.269	-0.068
-700.529	-88.530	0.223	0.084
-699.514	565.494	0.105	-0.327
-698.499	-104.534	-0.474	-0.139
-697.485	-173.293	-0.277	0.011
-696.470	-10.349	-0.281	0.237
-695.456	-57.439	0.323	-0.180
-694.441	284.824	-0.086	0.200
-693.426	278.212	-0.124	0.284
-692.412	-54.083	-0.349	0.202
-691.397	-45.691	0.443	0.279
-690.383	-138.355	0.214	-0.030
-689.368	-200.000	-0.043	0.437
-688.354	208.881	-0.147	0.294
-687.339	800.000	-0.131	-0.611
-686.324	-68.723	0.239	-0.118
-685.310	28.391	-0.216	-0.233
-684.295	-200.000	-0.086	-0.669
-683.281	-110.195	-0.434	-0.115
-682.266	800.000	0.045	0.195
-681.251	-131.737	0.444	-0.074
-680.237	-148.741	0.414	-0.042
-679.222	-191.057	-0.417	-0.005
-678.208	-200.000	0.007	0.109
-677.193	69.937	-0.088	-0.116
-676.178	-109.401	-0.034	0.009
-675.164	-81.060	-0.216	0.091
-674.149	-180.802	0.273	-0.007
-673.135	-150.179	0.248	0.024
-672.120	448.127	-0.184	-0.520
-671.105	478.547	0.114	-0.330
-670.091	54.649	-0.103	0.127
-669.076	197.706	-0.031	-0.060
-668.062	13.572	-0.172	-0.170
-667.047	157.059	0.325	-0.575
-666.032	-179.454	0.307	-0.008
-665.018	1.446	-0.116	-0.106
-664.003	-94.186	0.139	-0.048
-662.989	-39.491	0.305	-0.203
-661.974	800.000	-0.010	0.045
-660.959	-68.197	0.281	0.139
-659.945	30.978	0.484	-0.528
-658.930	-58.046	0.249	-0.138
-657.916	-43.978	0.388	0.248
-656.901	-97.021	-0.180	0.060
-655.886	149.031	0.211	-0.365
-654.872	348.641	0.049	-0.124
-653.857	-70.555	0.381	0.183
-652.843	-149.967	0.483	-0.047
-651.828	-31.575	-0.130	-0.093
-650.814	144.153	0.266	-0.453
-649.799	146.359	-0.028	-0.049
-648.784	-128.928	0.425	0.075
-647.770	-151.620	-0.587	-0.055
-646.755	-200.000	0.013	-0.626
-645.741	16.810	-0.185	-0.187
-644.726	415.067	0.161	-0.440
-643.711	-156.294	0.286	0.023
-642.697	85.770	-0.156	-0.219
-641.682	-200.000	0.026	-0.305
-640.668	175.357	0.114	-0.211
-639.653	-96.371	0.470	0.158
-638.638	322.147	-0.159	-0.387
-637.624	-1.678	-0.150	0.134
-636.609	16.346	-0.303	-0.305
-635.595	-114.661	0.330	-0.080
-634.580	-86.997	-0.309	0.119
-633.565	122.202	-0.302	-0.481
-632.551	348.347	0.045	0.113
-631.536	-49.551	0.185	0.112
-630.522	-65.215	0.491	-0.251
-629.507	-147.624	0.266	-0.028
-628.492	-200.000	0.011	-0.069
-627.478	-47.087	-0.219	-0.136
-626.463	1.555	0.150	0.138
-625.449	-131.297	-0.366	0.061
-624.434	86.067	0.248	-0.348
-623.419	365.796	0.119	-0.306
-622.405	68.960	-0.418	-0.547
-621.390	-89.783	-0.449	0.166
-620.376	14.917	-0.136	0.135
-619.361	-163.188	-0.356	-0.021
-618.346	-8.390	-0.187	0.160
-617.332	-127.893	-0.633	-0.115
-616.317	226.401	-0.163	-0.337
-615.303	-56.106	-0.340	-0.192
-614.288	-112.117	0.274	0.070
-613.273	-22.174	0.142	0.110
-612.259	83.398	-0.184	-0.255
-611.244	-114.660	-0.372	-0.090
-610.230	-123.404	0.416	-0.084
-609.215	-200.000	-0.017	0.578
-608.201	-95.357	0.336	-0.114
-607.186	-129.878	-0.676	-0.117
-606.171	-24.123	-0.204	0.155
-605.157	-139.587	-0.611	0.082
-604.142	800.000	-0.047	-0.224
-603.128	-200.000	-0.032	-0.345
-602.113	-110.547	0.233	0.061
-601.098	800.000	-0.127	-0.581
-600.084	140.427	0.250	-0.421
-599.069	-135.542	-0.241	-0.036
-598.055	-66.831	-0.325	-0.163
-597.040	-103.953	0.234	0.069
-596.025	-32.695	-0.117	0.083
-595.011	-120.378	-0.388	0.083
-593.996	-200.000	-0.014	-0.199
-592.982	-12.168	0.449	-0.373
-591.967	800.000	-0.104	0.447
-590.952	-200.000	0.015	0.090
-589.938	57.934	-0.285	-0.355
-588.923	-86.087	-0.257	0.100
-587.909	-139.722	0.210	0.028
-586.894	-145.946	-0.080	0.009
-585.879	66.701	-0.212	0.274
-584.865	-95.805	-0.460	-0.155
-583.850	-63.268	-0.611	0.319
-582.836	-200.000	-0.030	-0.668
-581.821	-67.182	-0.252	0.126
-580.806	-42.002	-0.077	-0.050
-579.792	144.585	0.091	-0.155
-578.777	105.881	-0.263	-0.395
-577.763	238.991	0.074	-0.157
-576.748	-200.000	0.014	-0.451
-575.733	79.883	-0.168	0.229
-574.719	80.964	-0.122	-0.168
-573.704	79.616	-0.323	0.441
-572.690	-167.380	0.304	0.015
-571.675	174.063	0.075	0.137
-570.661	543.340	-0.096	-0.293
-569.646	800.000	0.050	-0.244
-568.631	-142.797	0.590	-0.072
-567.617	-171.390	0.490	0.020
-566.602	-200.000	0.013	0.215
-565.588	-37.253	-0.212	-0.144
-564.573	-194.908	-0.186	0.002
-563.558	281.840	-0.150	-0.343
-562.544	800.000	-0.078	-0.320
-561.529	-97.367	0.450	-0.148
-560.515	-92.538	0.400	-0.142
-559.500	-200.000	-0.015	0.213
-558.485	-103.265	-0.179	0.053
-557.471	-200.000	-0.003	-0.416
-556.456	-115.924	0.423	-0.100
-555.442	201.328	0.256	-0.503
-554.427	-58.696	0.258	0.141
-553.412	-54.873	0.446	0.255
-552.398	-113.819	0.412	0.101
-551.383	-30.896	0.066	-0.047
-550.369	-200.000	0.006	0.141
-549.354	-3.823	0.236	-0.208
-548.339	67.087	0.084	0.109
-547.325	99.313	0.132	0.195
-546.310	328.570	0.043	-0.105
-545.296	-68.119	-0.153	-0.076
-544.281	131.440	-0.192	-0.314
-543.266	-107.524	-0.148	-0.041
-542.252	-200.000	-0.088	0.533
-541.237	-45.387	-0.683	0.429
-540.223	-26.175	0.095	0.070
-539.208	-153.856	-0.436	-0.037
-538.193	101.997	0.411	-0.610
-537.179	-140.106	0.528	-0.070
-536.164	-200.000	-0.016	0.265
-535.150	800.000	0.151	-0.579
-534.135	-200.000	-0.042	0.299
-533.121	-132.503	-0.382	0.062
-532.106	-200.000	0.009	-0.278
-531.091	-178.973	0.163	-0.005
-530.077	-200.000	0.029	0.307
-529.062	-19.060	-0.176	-0.139
-528.048	104.717	-0.265	-0.396
-527.033	104.675	0.198	0.297
-526.018	-37.595	-0.394	-0.266
-525.004	193.241	-0.116	0.224
-523.989	-134.038	0.302	-0.047
-522.975	-102.617	-0.260	0.078
-521.960	-107.931	-0.269	0.074
-520.945	-182.875	-0.529	-0.012
-519.931	770.542	-0.139	0.482
-518.916	141.869	-0.176	-0.296
-517.902	-137.230	-0.177	0.025
-516.887	55.377	0.331	-0.406
-515.872	-164.698	0.391	0.022
-514.858	-10.374	0.185	0.155
-513.843	162.147	-0.122	-0.217
-512.829	-5.434	-0.225	-0.196
-511.814	-200.000	-0.001	-0.587
-510.799	-140.639	0.190	-0.025
-509.785	-102.769	-0.137	0.041
-508.770	248.419	-0.114	-0.245
-507.756	78.212	0.102	0.138
-506.741	70.786	0.330	0.434
-505.726	263.812	0.138	0.304
-504.712	-136.056	0.226	-0.033
-503.697	800.000	0.054	-0.256
-502.683	-200.000	0.018	0.154
-501.668	92.298	-0.113	-0.162
-500.653	800.000	-0.050	-0.227
-499.639	549.884	-0.132	0.404
-498.624	211.358	-0.115	0.229
-497.610	32.139	0.227	0.249
-496.595	-38.211	0.288	-0.193
-495.581	800.000	0.027	0.137
-494.566	-57.093	-0.207	-0.115
-493.551	800.000	0.035	0.135
-492.537	175.858	-0.220	-0.405
-491.522	123.853	-0.113	-0.180
-490.508	-65.410	-0.227	-0.115
-489.493	199.129	0.147	0.287
-488.478	-114.418	0.273	0.066
-487.464	-62.374	0.457	0.240
-486.449	10.563	-0.139	-0.134
-485.435	75.848	0.024	0.032
-484.420	-160.933	0.117	-0.008
-483.405	-30.322	0.248	-0.178
-482.391	-19.341	0.095	0.074
-481.376	33.625	-0.121	-0.133
-480.362	800.000	-0.051	0.276
-479.347	36.419	0.310	0.346
-478.332	287.026	-0.054	0.124
-477.318	-98.604	0.804	-0.258
-476.303	130.313	0.153	-0.249
-475.289	800.000	0.068	0.291
-474.274	34.565	0.037	0.041
-473.259	-200.000	0.006	0.260
-472.245	-109.852	0.396	0.104
-471.230	-200.000	-0.002	0.680
-470.216	-116.542	0.178	0.041
-469.201	-45.267	-0.542	0.340
-468.186	-39.801	-0.144	0.095
-467.172	-111.843	-0.202	0.051
-466.157	800.000	-0.179	0.638
-465.143	-101.508	0.226	-0.069
-464.128	-12.798	-0.294	-0.242
-463.113	-62.567	-0.816	-0.427
-462.099	-47.735	0.413	0.253
-461.084	301.749	0.167	0.393
-460.070	-26.781	-0.304	0.224
-459.055	69.678	-0.039	0.051
-458.040	800.000	0.109	0.416
-457.026	753.321	0.099	-0.341
-456.011	-120.332	0.549	-0.117
-454.997	99.249	0.101	0.149
-453.982	-141.304	-0.105	0.013
-452.968	-94.286	0.332	-0.114
-451.953	-25.563	-0.196	0.146
-450.938	9.058	-0.224	0.214
-449.924	-55.875	-0.468	-0.263
-448.909	-29.638	-0.113	-0.081
-447.895	-129.018	0.303	-0.053
-446.880	50.876	-0.153	0.184
-445.865	-46.539	-0.563	-0.348
-444.851	73.781	0.121	-0.161
-443.836	-90.275	-0.115	0.042
-442.822	228.419	0.024	-0.049
-441.807	620.393	-0.059	0.188
-440.792	-4.082	0.497	0.435
-439.778	16.090	0.270	0.269
-438.763	-167.439	-0.585	-0.029
-437.749	-200.000	-0.024	0.132
-436.734	-35.707	-0.177	0.121
-435.719	-53.364	0.162	-0.094
-434.705	-145.266	-0.077	0.009
-433.690	300.658	-0.128	-0.300
-432.676	337.554	0.194	-0.478
-431.661	-140.216	-0.022	-0.003
-430.646	340.334	0.086	0.212
-429.632	-200.000	0.020	-0.304
-428.617	800.000	-0.037	-0.175
-427.603	-97.102	0.132	-0.043
-426.588	7.633	0.208	-0.196
-425.573	123.637	-0.271	-0.430
-424.559	187.106	-0.092	-0.173
-423.544	62.680	0.304	0.385
-422.530	-200.000	0.011	0.256
-421.515	38.234	0.121	-0.136
-420.500	-89.730	0.379	-0.140
-419.486	-150.331	-0.462	-0.044
-418.471	-103.152	-0.493	-0.146
-417.457	34.414	0.061	0.067
-416.442	-10.197	0.091	-0.076
-415.428	-200.000	0.072	0.555
-414.413	121.722	-0.037	0.059
-413.398	-61.054	-0.408	0.217
-412.384	-200.000	0.014	-0.107
-411.369	800.000	-0.024	-0.101
-410.355	88.725	0.258	-0.363
-409.340	-163.940	-0.346	-0.020
-408.325	79.159	-0.299	-0.404
-407.311	92.430	0.177	-0.252
-406.296	-200.000	-0.009	0.114
-405.282	800.000	0.056	-0.280
-404.267	-34.779	0.457	-0.314
-403.252	-200.000	0.018	-0.459
-402.238	-90.625	-0.449	-0.163
-401.223	117.755	-0.394	0.614
-400.209	-149.731	-0.074	-0.007
-399.194	800.000	0.087	-0.447
-398.179	-57.464	0.187	-0.103
-397.165	83.942	-0.076	-0.104
-396.150	35.472	0.351	-0.389
-395.136	-75.671	-0.083	-0.037
-394.121	115.955	0.130	-0.202
-393.106	-85.448	0.266	0.104
-392.092	-58.642	-0.478	-0.261
-391.077	-85.700	-0.533	-0.208
-390.063	800.000	0.070	-0.390
-389.048	-78.911	0.574	-0.245
-388.033	162.617	0.022	-0.038
-387.019	-3.037	-0.199	0.175
-386.004	220.891	-0.056	0.114
-384.990	394.706	0.127	0.336
-383.975	163.197	0.077	0.136
-382.960	94.475	0.150	-0.215
-381.946	-161.318	-0.397	-0.026
-380.931	-94.610	0.265	-0.090
-379.917	603.031	0.003	0.011
-378.902	-44.698	-0.134	0.084
-377.888	-38.245	-0.331	-0.221
-376.873	-102.822	-0.519	-0.155
-375.858	219.250	-0.170	-0.344
-374.844	-74.684	-0.389	-0.176
-373.829	-20.639	-0.489	0.378
-372.815	-103.856	-0.295	-0.086
-371.800	70.375	0.244	-0.318
-370.785	-24.370	-0.182	0.137
-369.771	324.819	-0.209	0.506
-368.756	-29.266	-0.280	0.201
-367.742	-21.840	-0.216	0.166
-366.727	-76.825	0.529	0.232
-365.712	-113.297	0.206	0.051
-364.698	51.263	-0.151	-0.181
-363.683	-73.562	0.322	0.148
-362.669	800.000	0.060	0.288
-361.654	-127.806	0.104	-0.019
-360.639	-35.997	0.237	0.161
-359.625	172.042	-0.055	0.100
-358.610	-102.593	-0.194	-0.058
-357.596	158.514	0.234	0.411
-356.581	321.994	0.064	-0.155
-355.566	196.597	0.102	-0.197
-354.552	-200.000	0.007	0.343
-353.537	-200.000	0.016	-0.308
-352.523	-30.641	0.268	-0.191
-351.508	24.170	0.033	0.034
-350.493	-122.406	0.329	0.067
-349.479	-80.961	-0.240	0.100
-348.464	-49.028	0.065	0.039
-347.450	800.000	-0.097	0.358
-346.435	-124.269	-0.170	-0.033
-345.420	-200.000	0.015	-0.191
-344.406	-130.268	-0.185	0.031
-343.391	-51.024	-0.452	-0.266
-342.377	213.554	0.190	-0.379
-341.362	-200.000	-0.004	-0.159
-340.348	356.368	-0.064	0.160
-339.333	-108.957	0.160	-0.043
-338.318	706.168	0.119	0.399
-337.304	-48.449	-0.270	0.163
-336.289	90.136	0.195	0.274
-335.275	126.066	-0.339	0.540
-334.260	-155.311	0.272	0.022
-333.245	-50.878	-0.300	0.177
-332.231	800.000	-0.055	0.222
-331.216	800.000	-0.018	0.071
-330.202	-200.000	-0.021	0.495
-329.187	-78.528	0.385	0.165
-328.172	81.027	-0.178	-0.242
-327.158	301.738	0.154	0.359
-326.143	-67.905	-0.329	-0.161
-325.129	283.121	0.109	0.248
-324.114	-138.366	0.433	0.059
-323.099	-200.000	0.030	-0.275
-322.085	326.890	-0.160	-0.388
-321.070	-75.801	-0.069	-0.031
-320.056	280.213	0.048	0.109
-319.041	800.000	0.021	0.118
-318.026	708.034	0.057	-0.191
-317.012	800.000	0.010	-0.039
-315.997	-200.000	-0.052	0.305
-314.983	29.742	-0.351	-0.376
-313.968	33.274	0.223	-0.243
-312.953	-83.084	0.561	0.226
-311.939	153.727	0.127	0.219
-310.924	-4.062	0.215	-0.187
-309.910	-169.970	0.504	0.022
-308.895	-60.539	0.366	0.195
-307.880	159.401	0.201	-0.353
-306.866	-91.727	-0.249	0.088
-305.851	-26.925	-0.106	0.078
-304.837	240.478	0.094	0.197
-303.822	-24.582	-0.271	0.202
-302.807	76.141	0.235	0.313
-301.793	-155.059	0.020	-0.002
-300.778	41.103	0.374	0.425
-299.764	330.425	0.197	0.478
-298.749	-52.066	-0.425	-0.247
-297.735	-179.284	-0.270	-0.007
-296.720	800.000	0.127	0.455
-295.705	-1.529	-0.034	-0.030
-294.691	154.828	0.102	0.177
-293.676	-115.807	0.392	0.091
-292.662	165.561	-0.185	-0.330
-291.647	276.103	-0.107	-0.239
-290.632	-84.705	0.147	-0.058
-289.618	1.655	0.097	-0.088
-288.603	258.095	-0.183	0.398
-287.589	-113.147	0.110	-0.027
-286.574	45.062	0.184	0.214
-285.559	-92.763	-0.179	0.062
-284.545	-14.180	0.240	-0.194
-283.530	167.135	-0.220	-0.394
-282.516	-114.489	-0.090	-0.022
-281.501	-65.553	-0.105	-0.053
-280.486	-111.327	0.319	-0.081
-279.472	-158.294	0.028	0.002
-278.457	-200.000	0.047	0.327
-277.443	-200.000	-0.022	0.240
-276.428	210.120	-0.173	-0.343
-275.413	-33.004	0.459	0.319
-274.399	-133.680	-0.423	-0.066
-273.384	-59.897	-0.267	-0.143
-272.370	-200.000	0.039	0.392
-271.355	800.000	0.057	0.219
-270.340	-164.411	-0.161	-0.009
-269.326	178.579	0.140	-0.258
-268.311	-136.478	0.343	0.050
-267.297	-183.694	-0.555	-0.012
-266.282	800.000	-0.111	-0.460
-265.267	-13.752	-0.226	-0.183
-264.253	-200.000	-0.050	0.362
-263.238	316.759	0.221	-0.526
-262.224	-60.070	0.196	-0.105
-261.209	-152.645	-0.352	-0.031
-260.195	800.000	0.038	0.199
-259.180	15.552	0.466	0.460
-258.165	-98.945	-0.635	0.201
-257.151	81.049	-0.128	0.174
-256.136	462.474	-0.115	0.325
-255.122	-63.169	-0.147	-0.076
-254.107	75.907	0.243	0.322
-253.092	-102.185	-0.110	-0.033
-252.078	59.968	0.087	0.108
-251.063	176.630	-0.184	0.337
-250.049	-200.000	-0.010	-0.190
-249.034	-34.870	0.330	-0.225
-248.019	800.000	0.111	-0.475
-247.005	800.000	0.076	-0.372
-245.990	-42.068	0.026	0.016
-244.976	26.295	-0.163	0.171
-243.961	203.645	-0.154	0.300
-242.946	-26.961	-0.336	0.245
-241.932	-200.000	-0.003	-0.308
-240.917	-200.000	0.037	0.274
-239.903	170.660	-0.047	0.084
-238.888	-8.718	0.640	0.537
-237.873	-137.709	0.431	0.060
-236.859	-200.000	0.002	0.175
-235.844	650.785	0.162	0.524
-234.830	-200.000	0.259	0.001
-233.815	82.541	-0.130	0.178
-232.800	148.310	0.235	-0.399
-231.786	-200.000	-0.012	0.507
-230.771	-3.815	0.422	-0.367
-229.757	800.000	-0.130	-0.541
-228.742	426.890	0.157	0.426
-227.727	-200.000	0.022	-0.297
-226.713	-78.550	0.251	0.107
-225.698	-147.787	0.391	0.040
-224.684	663.963	0.055	-0.180
-223.669	-42.589	0.318	-0.202
-222.655	-130.083	-0.312	0.053
-221.640	32.116	0.266	-0.287
-220.625	-7.424	0.142	0.120
-219.611	-54.237	-0.418	0.237
-218.596	270.672	-0.240	0.532
-217.582	-53.664	-0.259	-0.148
-216.567	-193.588	-0.616	0.006
-215.552	-200.000	0.016	-0.372
-214.538	-32.110	0.509	-0.356
-213.523	622.229	0.154	0.488
-212.509	-46.854	-0.530	0.324
-211.494	-117.113	-0.482	-0.109
-210.479	-200.000	-0.030	-0.173
-209.465	72.823	0.153	0.200
-208.450	-28.783	-0.122	-0.088
-207.436	-25.117	-0.150	0.111
-206.421	189.412	-0.092	-0.174
-205.406	-125.757	-0.377	0.071
-204.392	-112.072	-0.269	0.067
-203.377	-156.572	-0.146	-0.011
-202.363	-200.000	0.025	0.227
-201.348	-53.113	0.297	0.170
-200.333	-200.000	0.040	0.519
-199.319	55.072	0.062	0.075
-198.304	-15.842	-0.133	-0.106
-197.290	-200.000	-0.029	0.390
-196.275	-101.492	-0.336	-0.102
-195.260	-51.234	0.078	0.045
-194.246	83.979	0.160	-0.219
-193.231	-150.119	0.274	0.026
-192.217	-84.394	0.203	0.080
-191.202	-130.744	0.266	-0.044
-190.187	130.289	0.162	0.260
-189.173	-74.423	0.121	0.054
-188.158	42.391	-0.277	-0.316
-187.144	-72.736	-0.086	0.039
-186.129	-28.152	0.312	0.226
-185.114	433.898	0.021	-0.058
-184.100	-118.408	-0.286	0.063
-183.085	-23.921	-0.242	-0.181
-182.071	-200.000	0.001	0.193
-181.056	-90.706	-0.402	-0.144
-180.042	-116.124	-0.437	-0.101
-179.027	-141.989	-0.227	-0.028
-178.012	-174.409	0.129	-0.005
-176.998	-27.928	0.458	0.331
-175.983	-112.703	0.190	0.047
-174.969	800.000	-0.049	-0.191
-173.954	58.348	0.482	0.591
-172.939	800.000	0.061	0.287
-171.925	-134.223	0.364	0.056
-170.910	-175.790	0.506	-0.017
-169.896	800.000	0.121	0.486
-168.881	-147.069	0.451	0.048
-167.866	6.265	0.132	-0.123
-166.852	263.860	0.109	-0.237
-165.837	-17.674	0.109	0.086
-164.823	537.563	-0.039	-0.118
-163.808	534.054	-0.069	0.204
-162.793	-5.412	0.408	0.350
-161.779	-200.000	-0.075	0.545
-160.764	56.811	0.244	0.298
-159.750	-71.089	0.421	-0.197
-158.735	302.115	0.053	0.123
-157.720	-200.000	-0.011	0.248
-156.706	-47.165	0.422	-0.256
-155.691	253.469	-0.140	-0.301
-154.677	40.074	0.407	-0.457
-153.662	-48.297	-0.173	-0.104
-152.647	265.487	-0.064	0.139
-151.633	160.366	0.289	0.506
-150.618	-82.955	0.602	0.241
-149.604	-200.000	-0.006	0.172
-148.589	95.909	0.229	0.327
-147.574	788.228	0.155	0.534
-146.560	48.472	0.190	0.222
-145.545	435.497	0.161	0.440
-144.531	10.602	-0.099	-0.094
-143.516	283.657	-0.074	0.166
-142.502	-111.233	0.389	-0.099
-141.487	-117.086	-0.249	0.056
-140.472	-93.052	0.110	0.038
-139.458	94.360	-0.222	-0.315
-138.443	53.769	0.078	-0.093
-137.429	-157.957	0.251	-0.018
-136.414	-153.860	0.161	-0.014
-135.399	97.816	0.178	0.255
-134.385	-90.048	0.242	-0.088
-133.370	-44.692	0.360	0.224
-132.356	-101.955	-0.284	0.085
-131.341	-1.936	0.259	0.227
-130.326	112.397	-0.321	-0.486
-129.312	-131.676	-0.155	-0.025
-128.297	174.687	-0.125	0.226
-127.283	130.542	0.025	0.040
-126.268	609.148	0.065	0.204
-125.253	791.934	0.030	0.102
-124.239	-140.889	0.264	-0.033
-123.224	231.506	0.162	-0.332
-122.210	-200.000	0.013	-0.126
-121.195	800.000	0.104	0.368
