DTS Sentinel unit serial number:	SN409020Multiplexer serial number:	ORYXHardware model number:	OX4-SRSoftware version number:	ORYX F/W v3.00 Oryx Data Collector v3.7.2.0data status	okinstallation	HaddamTimeLapsedifferential loss correction	single-endedforward channel	channel 3reverse channel	N/Adate	2011/06/22time	09:26:17forward acquisition time	30.00reverse acquisition time	0.00gamma	498.7831k internal	0.1793k external	0.1793temperature offset calibration	1.0074default loss term (dB/km)	0.3790temperature slope calibration	1.3530multiplexer offset coefficient	1.0000multiplexer slope coefficient	1.0000fibre end	0.00T internal ref (°C)	27.84T ext. ref 1 (°C)	23.00T ext. ref 2 (°C)	0.17length (m)	temperature (°C)	Stokes	anti-Stokes-747.200	217.497	0.076	-0.158
-746.185	146.593	0.079	0.137
-745.171	-151.748	0.214	-0.020
-744.156	67.651	0.317	0.421
-743.142	90.034	-0.165	-0.240
-742.127	-113.968	0.158	-0.039
-741.112	186.751	-0.158	-0.306
-740.098	800.000	-0.158	0.682
-739.083	-151.545	-0.160	-0.015
-738.069	-39.340	0.356	0.242
-737.054	-101.204	-0.345	-0.109
-736.039	-138.599	-0.321	-0.045
-735.025	-20.986	0.398	-0.315
-734.010	-200.000	0.015	0.400
-732.996	17.595	-0.219	-0.226
-731.981	197.454	-0.202	0.402
-730.966	-31.518	-0.194	-0.141
-729.952	-150.800	0.237	0.023
-728.937	242.744	0.089	0.195
-727.923	21.977	0.054	-0.057
-726.908	-59.647	0.423	-0.234
-725.894	-166.160	0.074	-0.004
-724.879	-200.000	-0.051	-0.297
-723.864	237.835	0.048	0.104
-722.850	-128.684	0.137	0.025
-721.835	-75.896	0.285	0.130
-720.821	-163.606	0.468	-0.028
-719.806	-6.356	0.322	0.285
-718.791	-123.222	-0.361	-0.074
-717.777	-127.640	-0.241	0.045
-716.762	-52.383	0.464	-0.278
-715.748	436.969	-0.044	0.124
-714.733	-200.000	-0.172	0.000
-713.718	-104.728	-0.249	0.074
-712.704	-102.338	0.219	0.068
-711.689	89.031	0.078	0.112
-710.675	-127.077	0.305	-0.057
-709.660	84.310	-0.124	0.176
-708.645	-12.363	-0.222	0.188
-707.631	-200.000	0.023	-0.240
-706.616	-163.829	-0.212	0.013
-705.602	290.408	0.109	-0.257
-704.587	-200.000	0.046	0.263
-703.572	102.877	-0.241	-0.366
-702.558	92.770	-0.362	-0.531
-701.543	-23.994	0.191	0.148
-700.529	800.000	-0.045	0.224
-699.514	133.001	-0.176	-0.296
-698.499	800.000	0.118	-0.461
-697.485	-95.648	0.430	0.148
-696.470	336.863	-0.063	-0.159
-695.456	800.000	-0.160	-0.737
-694.441	25.649	-0.353	-0.381
-693.426	55.380	-0.164	-0.205
-692.412	52.233	-0.232	-0.286
-691.397	-46.537	-0.406	-0.257
-690.383	-148.643	-0.799	-0.083
-689.368	44.446	-0.144	0.171
-688.354	-200.000	0.021	0.288
-687.339	188.204	0.114	0.222
-686.324	2.530	-0.174	0.163
-685.310	-150.000	0.150	0.015
-684.295	439.684	0.047	-0.133
-683.281	-27.826	0.136	0.102
-682.266	-120.974	-0.335	0.072
-681.251	-10.481	0.170	-0.145
-680.237	-100.541	0.221	0.070
-679.222	800.000	0.063	0.317
-678.208	482.680	0.083	0.246
-677.193	-25.909	-0.160	-0.122
-676.178	-79.399	-0.129	-0.056
-675.164	-103.743	0.179	-0.054
-674.149	-1.633	-0.396	0.360
-673.135	19.094	-0.421	0.437
-672.120	800.000	-0.045	0.233
-671.105	-30.008	0.561	-0.412
-670.091	800.000	0.061	-0.330
-669.076	2.679	0.060	0.056
-668.062	-79.454	-0.785	0.342
-667.047	-72.877	-0.390	0.185
-666.032	424.022	0.165	-0.461
-665.018	-54.653	0.467	0.272
-664.003	63.121	0.047	-0.060
-662.989	-200.000	-0.496	0.002
-661.974	-71.246	-0.244	-0.118
-660.959	-161.538	-0.411	-0.027
-659.945	277.318	-0.177	0.409
-658.930	800.000	0.072	-0.325
-657.916	-70.142	-0.402	0.197
-656.901	775.529	-0.045	0.160
-655.886	165.670	-0.162	-0.296
-654.872	-146.396	-0.555	-0.062
-653.857	-63.124	0.145	0.077
-652.843	-23.198	0.374	0.291
-651.828	-200.000	-0.059	-0.346
-650.814	-125.998	-0.674	-0.130
-649.799	-65.949	-0.126	0.065
-648.784	-200.000	0.011	-0.073
-647.770	-200.000	-0.092	0.595
-646.755	-73.121	0.252	0.119
-645.741	-160.536	0.495	0.034
-644.726	-31.981	0.202	-0.146
-643.711	-200.000	0.031	-0.253
-642.697	50.221	0.184	-0.225
-641.682	-33.168	-0.205	-0.147
-640.668	17.161	-0.449	-0.460
-639.653	-168.945	-0.259	0.012
-638.638	-133.140	-0.082	-0.013
-637.624	614.273	-0.188	-0.611
-636.609	-122.833	-0.145	-0.030
-635.595	800.000	0.056	0.248
-634.580	-21.349	0.197	-0.155
-633.565	-9.975	0.197	-0.169
-632.551	500.182	0.072	-0.216
-631.536	800.000	-0.048	0.216
-630.522	-102.934	0.122	0.037
-629.507	-163.766	0.416	0.025
-628.492	-124.221	-0.491	-0.098
-627.478	-124.467	-0.065	-0.013
-626.463	-163.177	0.260	-0.016
-625.449	-129.385	-0.257	-0.046
-624.434	-200.000	-0.002	0.153
-623.419	128.120	0.233	-0.383
-622.405	-103.247	0.125	-0.038
-621.390	-29.817	-0.431	-0.316
-620.376	-157.268	0.204	-0.016
-619.361	141.607	0.253	0.433
-618.346	654.481	-0.023	-0.076
-617.332	-200.000	-0.026	0.221
-616.317	-150.271	-0.131	0.013
-615.303	11.374	0.147	0.146
-614.288	129.480	-0.410	0.678
-613.273	-66.595	-0.421	-0.214
-612.259	-74.777	-0.138	-0.064
-611.244	106.110	0.054	0.083
-610.230	-60.532	0.309	0.169
-609.215	800.000	-0.098	0.406
-608.201	-200.000	-0.035	0.275
-607.186	-127.964	-0.390	0.072
-606.171	-118.787	-0.150	0.034
-605.157	800.000	-0.056	-0.223
-604.142	-53.911	0.399	0.234
-603.128	108.965	0.166	0.256
-602.113	166.891	-0.057	0.105
-601.098	-200.000	0.016	-0.228
-600.084	165.925	-0.116	-0.212
-599.069	-200.000	0.018	-0.306
-598.055	52.378	0.147	0.181
-597.040	396.276	-0.057	-0.155
-596.025	-54.316	0.126	0.074
-595.011	-91.149	-0.207	-0.076
-593.996	800.000	-0.051	-0.212
-592.982	-188.209	-0.480	0.008
-591.967	-56.719	0.570	-0.324
-590.952	-70.665	-0.239	0.116
-589.938	800.000	-0.095	0.379
-588.923	-200.000	0.030	0.353
-587.909	-156.344	-0.445	-0.035
-586.894	2.671	-0.233	0.218
-585.879	357.632	0.166	0.428
-584.865	183.578	0.148	-0.283
-583.850	414.457	0.073	-0.201
-582.836	128.041	0.292	0.480
-581.821	-102.623	-0.287	0.088
-580.806	-152.408	-0.275	0.025
-579.792	289.985	0.069	0.162
-578.777	77.072	-0.147	0.201
-577.763	259.979	-0.246	0.551
-576.748	800.000	0.071	0.365
-575.733	-200.000	0.077	0.747
-574.719	-200.000	-0.007	0.226
-573.704	-200.000	0.047	0.500
-572.690	385.962	0.145	0.387
-571.675	-12.497	0.198	0.166
-570.661	-69.327	-0.417	0.206
-569.646	-200.000	-0.021	0.310
-568.631	-55.915	0.290	0.166
-567.617	-144.361	0.093	0.011
-566.602	-100.196	-0.441	-0.141
-565.588	-200.000	-0.011	-0.303
-564.573	173.429	-0.298	-0.555
-563.558	-31.612	-0.064	0.046
-562.544	639.158	0.061	0.202
-561.529	102.417	-0.351	-0.530
-560.515	-57.485	0.359	-0.202
-559.500	288.086	0.156	-0.365
-558.485	-13.691	-0.272	-0.227
-557.471	7.691	-0.332	0.320
-556.456	-24.588	-0.244	0.186
-555.442	-167.894	-0.194	0.010
-554.427	800.000	0.045	-0.238
-553.412	-93.788	0.246	-0.087
-552.398	-74.472	0.117	0.054
-551.383	800.000	-0.048	-0.243
-550.369	781.800	0.069	0.246
-549.354	-15.754	0.148	-0.121
-548.339	-53.774	-0.372	-0.218
-547.325	-200.000	0.082	-0.512
-546.310	-129.988	0.577	0.101
-545.296	-200.000	-0.027	0.330
-544.281	-63.036	0.384	0.203
-543.266	-167.067	0.442	0.023
-542.252	-171.697	0.644	0.027
-541.237	-93.072	-0.347	-0.124
-540.223	800.000	0.032	-0.142
-539.208	361.582	0.054	0.140
-538.193	-10.341	0.233	0.198
-537.179	-200.000	0.004	-0.430
-536.164	-122.431	-0.163	0.034
-535.150	89.990	0.112	-0.161
-534.135	-200.000	-0.053	-0.392
-533.121	-196.806	-0.247	-0.002
-532.106	4.186	-0.198	0.186
-531.091	-20.790	-0.315	0.248
-530.077	663.955	0.156	-0.521
-529.062	441.042	0.106	0.300
-528.048	-45.805	-0.573	0.363
-527.033	-79.405	-0.332	-0.144
-526.018	798.128	-0.038	-0.137
-525.004	-41.444	-0.347	-0.229
-523.989	78.776	-0.116	0.160
-522.975	-200.000	-0.010	0.196
-521.960	533.051	0.091	-0.280
-520.945	-95.802	0.232	-0.079
-519.931	-200.000	-0.034	0.415
-518.916	44.854	0.140	-0.166
-517.902	-136.765	-0.426	0.062
-516.887	-87.132	-0.353	-0.137
-515.872	7.262	-0.286	0.274
-514.858	-0.135	0.192	-0.176
-513.843	92.260	0.154	-0.223
-512.829	-121.233	0.365	0.078
-511.814	308.933	-0.010	0.025
-510.799	102.120	0.149	0.223
-509.785	-109.091	-0.270	0.073
-508.770	267.422	-0.236	0.533
-507.756	-41.261	0.082	0.054
-506.741	-123.407	-0.242	0.049
-505.726	655.081	0.022	-0.072
-504.712	-113.458	0.470	0.118
-503.697	-200.000	0.011	-0.589
-502.683	-134.356	0.376	-0.059
-501.668	288.637	-0.144	-0.337
-500.653	-200.000	-0.026	0.338
-499.639	-200.000	0.059	-0.376
-498.624	69.858	0.267	0.354
-497.610	75.445	-0.388	-0.527
-496.595	-170.376	-0.329	0.015
-495.581	-97.936	-0.140	-0.046
-494.566	-57.200	-0.294	-0.166
-493.551	87.478	0.199	0.284
-492.537	722.822	0.026	0.090
-491.522	-68.042	0.470	-0.235
-490.508	4.761	-0.475	-0.448
-489.493	257.013	0.037	0.081
-488.478	41.803	-0.135	0.158
-487.464	-31.555	0.083	-0.060
-486.449	-97.297	0.732	0.244
-485.435	51.157	0.206	-0.251
-484.420	-200.000	0.010	-0.450
-483.405	-35.489	0.380	-0.264
-482.391	-11.779	-0.141	-0.119
-481.376	800.000	0.060	0.334
-480.362	-113.984	-0.283	0.070
-479.347	222.221	-0.157	-0.325
-478.332	154.992	0.195	-0.345
-477.318	277.634	0.165	-0.378
-476.303	-124.700	-0.016	-0.003
-475.289	-100.255	0.379	-0.120
-474.274	-1.551	-0.226	0.204
-473.259	-68.888	-0.287	0.142
-472.245	197.706	-0.113	0.222
-471.230	-200.000	0.300	-0.002
-470.216	-200.000	-0.007	-0.398
-469.201	-161.280	-0.270	0.018
-468.186	116.928	-0.184	0.291
-467.172	-81.594	-0.157	0.066
-466.157	-107.155	-0.355	-0.100
-465.143	178.829	-0.156	-0.293
-464.128	54.324	-0.094	0.116
-463.113	313.611	0.168	0.406
-462.099	-113.114	0.209	-0.053
-461.084	35.392	-0.296	0.334
-460.070	661.879	-0.045	-0.150
-459.055	-40.284	0.406	0.270
-458.040	88.841	-0.173	0.247
-457.026	-41.608	-0.208	0.137
-456.011	-200.000	-0.038	-0.528
-454.997	-200.000	-0.066	0.416
-453.982	387.810	0.058	0.155
-452.968	-143.378	-0.181	-0.022
-451.953	-3.865	-0.157	-0.140
-450.938	-36.157	-0.487	-0.337
-449.924	9.463	-0.219	0.213
-448.909	328.469	0.024	-0.060
-447.895	-200.000	-0.004	-0.127
-446.880	35.042	0.172	-0.194
-445.865	138.445	-0.268	-0.452
-444.851	-71.506	-0.175	0.084
-443.836	243.404	-0.052	0.113
-442.822	313.940	-0.144	-0.350
-441.807	275.530	0.191	0.436
-440.792	-142.119	-0.273	0.034
-439.778	800.000	0.108	-0.406
-438.763	-57.094	0.088	0.049
-437.749	-164.125	0.261	-0.015
-436.734	-34.469	0.135	0.094
-435.719	800.000	0.019	0.079
-434.705	-114.093	0.599	0.147
-433.690	-59.276	0.345	0.190
-432.676	30.265	-0.198	0.217
-431.661	3.503	0.234	0.219
-430.646	61.015	-0.340	-0.433
-429.632	-114.319	0.181	-0.044
-428.617	-150.168	-0.355	-0.035
-427.603	-138.686	-0.057	0.008
-426.588	-1.665	-0.319	0.288
-425.573	80.515	-0.163	-0.225
-424.559	55.964	-0.282	0.351
-423.544	-105.553	0.284	-0.082
-422.530	145.575	0.103	-0.178
-421.515	-200.000	0.010	-0.328
-420.500	6.366	-0.471	-0.448
-419.486	461.411	0.068	-0.195
-418.471	124.356	0.185	-0.299
-417.457	-91.296	0.354	0.129
-416.442	-200.000	-0.046	0.321
-415.428	-200.000	-0.068	0.516
-414.413	91.152	-0.020	0.029
-413.398	-10.921	0.393	0.332
-412.384	34.986	0.456	-0.512
-411.369	-15.025	-0.219	-0.179
-410.355	147.184	0.024	-0.041
-409.340	-200.000	-0.027	0.182
-408.325	800.000	-0.037	-0.186
-407.311	61.675	-0.139	0.177
-406.296	-104.062	-0.602	0.178
-405.282	-62.284	0.128	0.068
-404.267	-200.000	-0.043	-0.435
-403.252	-121.136	-0.227	-0.048
-402.238	495.969	0.047	-0.138
-401.223	-200.000	-0.007	-0.055
-400.209	104.942	-0.323	0.488
-399.194	162.036	-0.144	-0.259
-398.179	-101.443	0.122	-0.038
-397.165	11.514	0.264	-0.259
-396.150	-57.112	0.150	-0.084
-395.136	800.000	0.029	-0.131
-394.121	136.318	-0.210	-0.351
-393.106	323.215	0.308	-0.756
-392.092	-113.772	0.443	0.109
-391.077	216.356	0.170	-0.348
-390.063	-167.507	-0.295	-0.015
-389.048	-4.223	-0.103	0.091
-388.033	-80.295	0.224	-0.095
-387.019	132.388	0.225	-0.372
-386.004	286.918	0.096	-0.223
-384.990	63.208	-0.178	0.229
-383.975	-52.913	0.201	-0.118
-382.960	443.002	0.127	-0.357
-381.946	-45.617	-0.109	0.069
-380.931	-200.000	0.068	0.470
-379.917	-129.702	-0.177	0.031
-378.902	102.566	-0.086	0.129
-377.888	-80.963	0.630	-0.266
-376.873	-145.757	0.371	-0.042
-375.858	-42.657	0.430	-0.279
-374.844	-103.482	0.235	0.070
-373.829	-30.507	0.208	-0.151
-372.815	150.440	0.004	0.006
-371.800	-138.654	-0.167	-0.023
-370.785	-189.172	-0.671	0.010
-369.771	-82.398	-0.448	0.185
-368.756	79.039	-0.252	0.345
-367.742	-53.619	0.163	-0.095
-366.727	-170.745	-0.139	0.006
-365.712	-113.977	-0.367	0.090
-364.698	-17.258	-0.122	-0.098
-363.683	-48.729	-0.473	-0.289
-362.669	-200.000	0.031	0.000
-361.654	395.703	0.174	0.467
-360.639	-200.000	0.059	0.491
-359.625	-90.602	0.376	-0.138
-358.610	-190.389	-0.298	0.004
-357.596	75.333	-0.107	0.144
-356.581	-103.159	-0.303	0.091
-355.566	270.553	-0.086	-0.193
-354.552	77.187	-0.166	0.226
-353.537	-200.000	-0.037	-0.497
-352.523	-35.512	-0.063	0.044
-351.508	5.877	0.369	0.348
-350.493	76.028	0.210	-0.284
-349.479	800.000	0.069	-0.303
-348.464	-117.242	-0.389	-0.090
-347.450	-74.050	-0.343	0.158
-346.435	-200.000	0.014	0.259
-345.420	35.752	0.243	-0.272
-344.406	-133.598	0.222	-0.035
-343.391	-7.131	0.288	-0.249
-342.377	57.943	0.150	0.188
-341.362	10.221	-0.094	0.091
-340.348	-168.618	0.116	0.006
-339.333	-150.399	0.638	0.062
-338.318	-106.382	-0.398	-0.113
-337.304	-165.719	0.451	0.025
-336.289	22.713	0.288	0.301
-335.275	-155.792	-0.397	0.032
-334.260	-63.557	0.312	-0.163
-333.245	-200.000	-0.013	0.217
-332.231	-47.279	0.407	0.252
-331.216	118.364	-0.229	0.361
-330.202	-101.530	-0.212	0.065
-329.187	-200.000	0.008	-0.437
-328.172	11.881	0.209	-0.204
-327.158	-105.845	0.499	-0.143
-326.143	-200.000	0.012	0.294
-325.129	-135.198	0.163	0.025
-324.114	-200.000	0.040	-0.646
-323.099	127.282	0.397	-0.643
-322.085	-28.559	0.483	-0.354
-321.070	41.790	-0.201	0.232
-320.056	-110.987	-0.130	0.034
-319.041	46.713	-0.170	0.201
-318.026	-97.007	-0.428	0.142
-317.012	175.177	0.129	0.239
-315.997	-200.000	-0.011	-0.438
-314.983	-200.000	-0.041	0.326
-313.968	-200.000	-0.019	-0.188
-312.953	-200.000	0.004	0.413
-311.939	-165.898	-0.509	-0.027
-310.924	285.032	-0.135	-0.312
-309.910	201.197	0.084	-0.166
-308.895	-64.963	-0.665	-0.342
-307.880	620.346	-0.099	-0.320
-306.866	-135.225	0.164	0.025
-305.851	-165.383	-0.136	-0.007
-304.837	-160.545	-0.236	-0.016
-303.822	-32.961	0.288	-0.204
-302.807	-200.000	-0.005	0.183
-301.793	-39.189	0.233	0.156
-300.778	-105.396	-0.314	0.091
-299.764	302.730	-0.087	0.207
-298.749	-23.432	0.174	-0.133
-297.735	-124.598	0.310	0.061
-296.720	-112.244	0.168	-0.043
-295.705	515.437	0.052	-0.157
-294.691	1.858	0.259	0.238
-293.676	-200.000	0.032	0.327
-292.662	10.723	0.325	0.316
-291.647	-121.539	0.209	-0.044
-290.632	-200.000	0.034	0.336
-289.618	-142.724	0.116	-0.014
-288.603	706.363	-0.090	-0.306
-287.589	-107.170	0.565	-0.158
-286.574	14.949	0.142	0.141
-285.559	-48.165	0.504	-0.309
-284.545	301.855	-0.131	-0.310
-283.530	-146.519	-0.206	-0.023
-282.516	-4.651	0.224	0.197
-281.501	76.943	0.120	-0.162
-280.486	-50.791	-0.662	0.396
-279.472	465.027	-0.028	-0.079
-278.457	34.514	-0.436	-0.485
-277.443	19.929	-0.207	-0.212
-276.428	-115.181	0.312	0.075
-275.413	-79.733	-0.124	-0.053
-274.399	-38.676	-0.036	-0.024
-273.384	631.047	-0.085	0.275
-272.370	-200.000	-0.410	0.002
-271.355	192.967	0.178	0.343
-270.340	45.067	0.328	0.386
-269.326	-200.000	0.005	-0.154
-268.311	-24.699	0.186	0.140
-267.297	326.601	0.019	0.047
-266.282	148.441	0.052	-0.089
-265.267	-139.391	-0.136	-0.018
-264.253	800.000	-0.025	-0.133
-263.238	-123.084	0.358	-0.073
-262.224	270.932	-0.080	-0.180
-261.209	-132.046	0.062	0.010
-260.195	80.362	0.119	0.163
-259.180	800.000	0.093	0.483
-258.165	-17.794	0.254	0.202
-257.151	-43.660	-0.365	-0.233
-256.136	325.632	-0.099	0.241
-255.122	-114.873	0.040	-0.010
-254.107	-87.501	0.127	-0.049
-253.092	323.832	0.229	0.557
-252.078	-52.623	-0.137	0.081
-251.063	529.455	-0.020	0.060
-250.049	800.000	0.044	-0.224
-249.034	-67.829	0.454	-0.225
-248.019	497.774	0.097	-0.286
-247.005	-200.000	0.016	-0.711
-245.990	57.186	-0.208	-0.258
-244.976	-169.535	-0.481	-0.022
-243.961	289.110	-0.127	0.294
-242.946	637.954	0.121	0.392
-241.932	-2.519	0.357	0.318
-240.917	-200.000	-0.005	-0.209
-239.903	-123.914	0.317	-0.063
-238.888	-109.160	-0.099	0.026
-237.873	124.787	-0.194	-0.311
-236.859	224.219	-0.150	0.309
-235.844	-138.769	0.331	0.045
-234.830	94.504	0.104	-0.151
-233.815	71.651	0.200	0.265
-232.800	531.673	0.105	0.316
-231.786	-72.398	0.049	0.023
-230.771	15.462	0.149	0.148
-229.757	-54.499	0.175	-0.100
-228.742	129.762	-0.005	-0.009
-227.727	-114.837	0.172	0.041
-226.713	-200.000	0.026	-0.194
-225.698	443.920	0.052	-0.145
-224.684	-142.181	-0.118	-0.015
-223.669	-126.327	-0.324	-0.061
-222.655	-5.685	0.323	0.281
-221.640	-115.845	0.183	-0.043
-220.625	-89.468	0.231	0.086
-219.611	-98.067	-0.441	0.143
-218.596	502.607	0.187	0.552
-217.582	-103.762	-0.218	0.064
-216.567	-118.044	-0.165	0.037
-215.552	-65.269	0.528	0.269
-214.538	-146.688	0.055	-0.006
-213.523	800.000	-0.025	-0.129
-212.509	-200.000	-0.039	-0.482
-211.494	-166.888	0.458	0.024
-210.479	-160.449	-0.401	-0.027
-209.465	66.735	-0.105	0.137
-208.450	236.896	0.117	-0.248
-207.436	345.025	-0.133	-0.332
-206.421	36.777	0.128	0.143
-205.406	18.528	0.178	0.181
-204.392	800.000	0.071	-0.351
-203.377	-85.924	-0.288	0.113
-202.363	-52.429	-0.469	0.274
-201.348	-175.586	-0.179	0.006
-200.333	-73.577	0.080	-0.037
-199.319	800.000	0.021	0.095
-198.304	57.540	-0.263	0.326
-197.290	221.721	0.137	0.281
-196.275	-200.000	-0.045	0.271
-195.260	108.733	0.159	-0.242
-194.246	-200.000	-0.027	0.485
-193.231	-200.000	-0.008	0.522
-192.217	-129.496	0.201	0.035
-191.202	113.189	0.283	0.437
-190.187	64.856	-0.198	-0.254
-189.173	197.884	-0.082	0.160
-188.158	670.995	-0.222	-0.735
-187.144	-200.000	-0.006	0.150
-186.129	-85.607	-0.134	0.053
-185.114	-71.746	-0.100	0.047
-184.100	-113.655	-0.335	0.082
-183.085	77.180	-0.230	0.310
-182.071	36.467	0.269	-0.301
-181.056	-12.787	0.207	0.171
-180.042	529.818	0.098	-0.295
-179.027	-9.879	0.349	-0.294
-178.012	-24.163	-0.343	-0.259
-176.998	-131.763	0.357	-0.059
-175.983	-152.879	0.586	-0.052
-174.969	6.809	-0.117	0.110
-173.954	21.244	-0.188	0.194
-172.939	-102.449	0.148	0.045
-171.925	-84.318	-0.271	0.108
-170.910	112.940	-0.146	0.225
-169.896	-200.000	-0.040	-0.226
-168.881	-200.000	-0.038	-0.481
-167.866	-85.108	-0.097	-0.038
-166.852	23.260	0.379	-0.395
-165.837	512.219	0.105	-0.311
-164.823	88.533	-0.274	0.387
-163.808	800.000	-0.050	-0.200
-162.793	-74.496	-0.269	0.122
-161.779	73.176	-0.114	0.151
-160.764	-172.911	0.308	-0.012
-159.750	-110.691	-0.119	0.031
-158.735	-145.092	0.349	-0.040
-157.720	-99.735	-0.063	-0.020
-156.706	228.052	-0.063	-0.131
-155.691	-152.475	-0.338	-0.030
-154.677	800.000	0.038	0.159
-153.662	-200.000	-0.044	0.527
-152.647	-200.000	0.029	-0.211
-151.633	2.643	-0.220	0.202
-150.618	800.000	-0.050	-0.248
-149.604	800.000	-0.017	0.080
-148.589	69.295	0.185	0.242
-147.574	41.014	-0.453	0.519
-146.560	-26.635	0.083	-0.062
-145.545	-110.211	-0.276	0.072
-144.531	-42.802	-0.364	0.234
-143.516	-200.000	0.026	0.342
-142.502	103.323	-0.494	0.736
-141.487	358.211	-0.087	0.222
-140.472	152.305	-0.193	0.334
-139.458	-133.482	0.134	0.021
-138.443	-200.000	-0.003	-0.259
-137.429	59.945	0.250	-0.313
-136.414	-200.000	0.025	-0.435
-135.399	158.531	0.173	-0.306
-134.385	6.731	-0.188	-0.177
-133.370	800.000	0.147	-0.591
-132.356	-200.000	0.047	-0.342
-131.341	-55.529	0.112	-0.063
-130.326	-200.000	0.038	-0.232
-129.312	57.767	0.184	0.228
-128.297	-132.892	-0.148	-0.024
-127.283	-50.183	0.115	-0.069
-126.268	800.000	-0.041	0.224
-125.253	-39.748	0.300	-0.198
-124.239	-103.417	-0.248	0.074
-123.224	-45.500	-0.041	0.026
-122.210	-198.670	0.291	-0.002
