DTS Sentinel unit serial number:	SN409020Multiplexer serial number:	ORYXHardware model number:	OX4-SRSoftware version number:	ORYX F/W v3.00 Oryx Data Collector v3.7.2.0data status	okinstallation	HaddamTimeLapsedifferential loss correction	single-endedforward channel	channel 3reverse channel	N/Adate	2011/06/22time	05:16:17forward acquisition time	30.00reverse acquisition time	0.00gamma	498.7831k internal	0.1752k external	0.1752temperature offset calibration	1.0074default loss term (dB/km)	0.3790temperature slope calibration	1.3530multiplexer offset coefficient	1.0000multiplexer slope coefficient	1.0000fibre end	0.00T internal ref (°C)	22.62T ext. ref 1 (°C)	17.65T ext. ref 2 (°C)	0.15length (m)	temperature (°C)	Stokes	anti-Stokes-747.200	-148.930	-0.558	-0.059
-746.185	-174.836	0.245	-0.009
-745.171	-30.814	0.249	0.186
-744.156	2.157	-0.048	0.046
-743.142	-69.536	-0.558	-0.283
-742.127	800.000	-0.050	0.285
-741.112	-200.000	0.054	0.446
-740.098	610.747	-0.185	0.616
-739.083	-146.191	0.321	-0.037
-738.069	183.105	0.290	0.570
-737.054	-37.746	-0.518	0.365
-736.039	534.878	0.045	0.143
-735.025	-200.000	0.020	0.560
-734.010	213.102	0.060	0.126
-732.996	-101.635	-0.453	-0.145
-731.981	-88.398	0.428	-0.169
-730.966	800.000	-0.064	-0.364
-729.952	-34.960	-0.415	-0.300
-728.937	586.877	-0.154	-0.505
-727.923	-200.000	-0.020	-0.215
-726.908	-47.901	0.380	-0.244
-725.894	331.626	0.046	0.118
-724.879	-168.929	0.541	-0.026
-723.864	128.921	0.333	-0.564
-722.850	-200.000	-0.006	0.136
-721.835	-51.586	-0.257	-0.159
-720.821	17.983	-0.156	0.165
-719.806	-37.305	0.032	0.022
-718.791	56.774	-0.274	-0.354
-717.777	-154.147	0.411	0.036
-716.762	359.990	-0.074	-0.197
-715.748	9.589	0.535	-0.538
-714.733	-95.469	0.240	0.085
-713.718	-79.014	0.196	-0.088
-712.704	2.012	-0.066	-0.063
-711.689	129.063	-0.303	-0.515
-710.675	-90.041	0.389	-0.150
-709.660	-200.000	-0.028	-0.268
-708.645	102.081	-0.232	-0.361
-707.631	93.771	0.043	-0.065
-706.616	15.688	0.059	-0.061
-705.602	258.090	0.017	0.039
-704.587	140.277	-0.055	-0.096
-703.572	85.684	-0.143	0.208
-702.558	-42.998	-0.242	0.162
-701.543	-40.748	-0.363	0.249
-700.529	273.562	-0.134	0.316
-699.514	-40.457	-0.307	0.211
-698.499	79.167	0.259	0.369
-697.485	-4.229	0.051	0.047
-696.470	458.100	0.138	-0.408
-695.456	-138.707	0.572	-0.082
-694.441	-20.970	-0.370	0.300
-693.426	19.881	-0.141	0.151
-692.412	-200.000	-0.018	-0.298
-691.397	-179.760	0.408	-0.011
-690.383	20.254	0.040	-0.043
-689.368	-116.027	0.355	-0.087
-688.354	-37.685	-0.250	-0.176
-687.339	800.000	0.075	-0.416
-686.324	209.604	-0.055	0.114
-685.310	-88.760	0.316	0.124
-684.295	-37.677	-0.079	-0.056
-683.281	-87.928	-0.160	-0.063
-682.266	132.968	-0.059	0.102
-681.251	-200.000	-0.033	-0.499
-680.237	169.622	0.117	-0.222
-679.222	21.580	-0.127	0.137
-678.208	-175.350	0.211	-0.008
-677.193	-175.622	0.119	0.004
-676.178	9.592	0.264	0.264
-675.164	-45.378	-0.329	-0.215
-674.149	245.333	0.125	-0.279
-673.135	-69.815	0.081	0.041
-672.120	-13.442	-0.103	0.088
-671.105	-180.109	-0.135	-0.004
-670.091	166.312	-0.150	-0.282
-669.076	-123.691	-0.343	-0.071
-668.062	92.030	0.241	0.359
-667.047	-189.276	0.285	0.004
-666.032	23.539	0.240	-0.262
-665.018	39.514	0.124	-0.148
-664.003	132.428	0.169	0.289
-662.989	234.689	0.064	0.141
-661.974	79.275	0.155	0.221
-660.959	-93.459	0.097	0.035
-659.945	-127.227	-0.144	-0.028
-658.930	-161.713	0.372	0.025
-657.916	-26.324	-0.438	0.340
-656.901	61.860	-0.336	0.443
-655.886	-6.725	-0.196	-0.176
-654.872	-88.132	0.106	-0.042
-653.857	-157.802	-0.090	0.007
-652.843	800.000	-0.044	0.244
-651.828	-200.000	-0.014	-0.108
-650.814	161.215	0.032	-0.060
-649.799	225.880	0.143	-0.309
-648.784	297.271	0.102	-0.250
-647.770	-8.558	0.201	-0.178
-646.755	800.000	-0.075	-0.402
-645.741	-22.403	0.330	0.264
-644.726	-156.132	0.461	0.038
-643.711	-71.286	0.071	-0.035
-642.697	59.030	-0.008	0.011
-641.682	-65.419	0.491	0.260
-640.668	-131.887	0.322	0.055
-639.653	-166.146	0.349	0.019
-638.638	22.551	-0.179	0.194
-637.624	-200.000	-0.013	0.236
-636.609	-41.263	-0.458	0.312
-635.595	-156.131	0.102	-0.008
-634.580	-117.242	-0.469	0.112
-633.565	800.000	-0.023	0.135
-632.551	-47.468	-0.435	-0.279
-631.536	-84.653	0.258	0.107
-630.522	-200.000	0.067	0.404
-629.507	136.428	-0.172	0.297
-628.492	-117.825	-0.217	0.051
-627.478	477.126	-0.054	0.161
-626.463	-62.262	0.348	-0.191
-625.449	-200.000	-0.010	0.244
-624.434	-43.449	0.245	-0.163
-623.419	-200.000	0.056	-0.344
-622.405	41.685	0.216	-0.258
-621.390	752.049	0.057	-0.204
-620.376	588.411	-0.072	-0.237
-619.361	-200.000	-0.011	-0.374
-618.346	111.199	-0.288	0.460
-617.332	-1.303	-0.267	0.249
-616.317	-27.013	0.249	0.191
-615.303	-185.659	0.112	0.002
-614.288	778.453	0.119	0.432
-613.273	454.029	-0.073	0.215
-612.259	-101.595	-0.118	0.038
-611.244	-56.552	0.469	0.274
-610.230	262.220	0.081	-0.185
-609.215	-178.166	-0.263	-0.008
-608.201	-153.356	0.687	0.062
-607.186	161.419	-0.148	-0.274
-606.171	125.104	-0.081	-0.134
-605.157	378.879	0.202	-0.549
-604.142	110.898	-0.229	-0.365
-603.128	-113.601	-0.586	-0.150
-602.113	800.000	-0.078	0.405
-601.098	38.256	-0.327	0.385
-600.084	-95.957	0.422	0.147
-599.069	95.938	0.197	-0.298
-598.055	-6.616	-0.292	0.263
-597.040	-80.008	-0.425	0.188
-596.025	-70.959	0.606	0.300
-595.011	-200.000	0.027	0.158
-593.996	554.802	-0.033	-0.106
-592.982	255.459	-0.052	-0.118
-591.967	237.007	-0.036	0.079
-590.952	459.091	-0.128	0.377
-589.938	26.095	-0.271	-0.299
-588.923	-200.000	-0.067	-0.468
-587.909	-64.856	-0.065	0.035
-586.894	800.000	0.088	-0.442
-585.879	-9.122	-0.243	0.214
-584.865	523.998	-0.190	0.592
-583.850	319.927	-0.174	-0.438
-582.836	-11.870	0.068	-0.059
-581.821	-200.000	-0.016	-0.559
-580.806	270.798	-0.279	-0.650
-579.792	-115.493	0.193	0.048
-578.777	-60.286	-0.149	-0.083
-577.763	-19.813	0.169	-0.138
-576.748	41.093	0.257	0.306
-575.733	80.831	-0.189	-0.270
-574.719	183.549	0.046	0.089
-573.704	124.943	-0.178	-0.297
-572.690	38.456	-0.490	-0.576
-571.675	-107.977	0.290	0.083
-570.661	28.082	0.359	-0.400
-569.646	107.754	0.063	-0.100
-568.631	-70.975	0.194	-0.096
-567.617	-70.319	0.613	-0.305
-566.602	-109.385	0.298	-0.082
-565.588	-91.968	0.438	0.163
-564.573	-137.623	0.375	0.055
-563.558	-200.000	0.028	-0.278
-562.544	388.116	-0.093	-0.256
-561.529	-12.989	-0.251	-0.215
-560.515	65.205	0.099	-0.132
-559.500	162.498	-0.104	-0.193
-558.485	-87.793	-0.103	0.041
-557.471	171.591	-0.304	0.577
-556.456	-69.412	0.247	-0.124
-555.442	-155.217	-0.119	0.010
-554.427	45.971	0.158	0.193
-553.412	551.094	-0.058	0.183
-552.398	5.011	-0.344	0.334
-551.383	365.259	0.061	-0.163
-550.369	122.174	-0.162	-0.268
-549.354	-132.743	0.285	0.048
-548.339	282.669	-0.130	0.309
-547.325	-155.382	-0.388	-0.033
-546.310	-94.401	-0.184	-0.066
-545.296	18.912	0.054	-0.057
-544.281	4.192	0.406	-0.392
-543.266	-200.000	-0.055	0.539
-542.252	792.180	0.107	0.391
-541.237	-13.558	0.320	0.273
-540.223	800.000	0.103	-0.402
-539.208	9.862	-0.174	-0.174
-538.193	-156.965	0.083	0.007
-537.179	17.493	0.114	-0.119
-536.164	-123.818	-0.357	-0.074
-535.150	58.669	-0.161	-0.208
-534.135	800.000	-0.039	-0.210
-533.121	1.817	0.170	0.161
-532.106	66.722	0.162	0.217
-531.091	-66.472	0.270	-0.141
-530.077	-161.131	0.411	0.028
-529.062	-125.007	-0.305	0.061
-528.048	-130.542	-0.369	0.065
-527.033	-132.010	0.409	0.069
-526.018	565.612	0.025	-0.079
-525.004	-200.000	0.029	-0.517
-523.989	93.994	0.139	0.208
-522.975	-38.481	-0.388	0.269
-521.960	215.012	-0.029	0.061
-520.945	-90.994	0.320	-0.120
-519.931	-90.575	-0.331	-0.125
-518.916	588.050	-0.126	-0.410
-517.902	157.751	0.251	0.459
-516.887	800.000	0.036	0.178
-515.872	-85.730	0.122	-0.050
-514.858	-184.050	-0.249	-0.005
-513.843	-19.962	-0.272	-0.221
-512.829	10.601	0.188	-0.189
-511.814	23.690	-0.375	0.406
-510.799	106.665	-0.292	-0.457
-509.785	800.000	-0.040	0.206
-508.770	25.481	-0.178	-0.195
-507.756	-104.760	-0.126	-0.038
-506.741	-200.000	-0.007	-0.114
-505.726	-109.818	0.146	-0.040
-504.712	75.254	-0.264	-0.367
-503.697	187.105	-0.048	-0.095
-502.683	24.990	-0.159	0.174
-501.668	-98.380	-0.629	-0.211
-500.653	-56.562	0.127	0.074
-499.639	33.256	-0.281	0.321
-498.624	-44.901	0.370	-0.242
-497.610	-200.000	0.000	0.451
-496.595	-82.509	-0.260	0.110
-495.581	-53.748	-0.232	0.139
-494.566	-33.879	-0.036	0.026
-493.551	23.168	-0.134	-0.144
-492.537	-194.560	0.023	0.000
-491.522	48.211	-0.087	-0.108
-490.508	459.080	0.192	0.566
-489.493	800.000	-0.073	-0.318
-488.478	-200.000	-0.029	-0.322
-487.464	-28.661	-0.080	-0.061
-486.449	4.035	-0.139	0.133
-485.435	573.523	0.094	-0.304
-484.420	-200.000	-0.113	0.782
-483.405	-113.602	0.153	0.039
-482.391	-193.151	-0.355	-0.004
-481.376	234.500	0.150	-0.325
-480.362	9.555	-0.127	-0.127
-479.347	426.395	-0.122	0.347
-478.332	253.917	0.101	0.227
-477.318	-93.679	-0.489	0.176
-476.303	-69.480	0.275	0.138
-475.289	-200.000	0.007	-0.410
-474.274	-162.565	-0.195	-0.012
-473.259	-122.960	-0.227	0.048
-472.245	112.330	0.153	-0.243
-471.230	-104.265	-0.808	0.245
-470.216	-112.907	0.413	-0.107
-469.201	27.553	-0.365	0.403
-468.186	-109.580	0.350	0.096
-467.172	-183.796	0.401	0.009
-466.157	-21.734	0.143	-0.114
-465.143	-122.038	-0.243	0.052
-464.128	388.154	0.010	0.027
-463.113	-45.798	0.613	-0.397
-462.099	145.111	0.130	0.229
-461.084	294.839	0.149	-0.360
-460.070	-19.170	-0.401	-0.326
-459.055	138.350	0.157	0.271
-458.040	-42.423	0.353	-0.236
-457.026	-200.000	-0.010	-0.197
-456.011	10.544	0.087	-0.087
-454.997	-157.582	0.165	-0.013
-453.982	800.000	0.043	0.247
-452.968	115.273	-0.230	-0.370
-451.953	-55.065	0.277	-0.163
-450.938	-76.941	-0.278	0.127
-449.924	-103.641	0.056	-0.017
-448.909	800.000	-0.034	-0.163
-447.895	-17.167	-0.161	-0.133
-446.880	104.778	0.199	-0.308
-445.865	77.603	0.065	-0.091
-444.851	128.110	0.124	0.207
-443.836	-200.000	-0.043	0.255
-442.822	-200.000	-0.011	0.334
-441.807	-59.046	-0.047	0.026
-440.792	-195.475	0.336	0.003
-439.778	116.353	-0.148	-0.238
-438.763	232.489	-0.108	-0.233
-437.749	32.359	0.204	-0.232
-436.734	-10.054	0.168	-0.147
-435.719	53.716	0.116	-0.147
-434.705	-32.503	-0.203	-0.148
-433.690	800.000	-0.065	0.315
-432.676	792.137	0.040	-0.146
-431.661	-42.778	0.304	0.202
-430.646	-58.934	0.426	-0.241
-429.632	318.113	0.206	0.515
-428.617	146.585	-0.087	0.153
-427.603	288.071	-0.204	0.486
-426.588	-200.000	-0.007	-0.120
-425.573	89.674	0.275	-0.403
-424.559	-155.273	0.753	-0.063
-423.544	178.100	0.127	0.243
-422.530	-166.454	0.095	0.005
-421.515	-18.929	-0.076	-0.062
-420.500	-74.655	-0.132	0.062
-419.486	-138.130	0.108	0.016
-418.471	59.584	0.169	0.219
-417.457	-28.324	-0.110	0.083
-416.442	800.000	0.028	-0.153
-415.428	-35.564	0.060	0.043
-414.413	-200.000	0.007	-0.110
-413.398	-87.645	-0.484	0.190
-412.384	50.945	-0.148	-0.184
-411.369	-114.218	-0.395	-0.099
-410.355	123.801	0.271	0.447
-409.340	-163.973	-0.218	0.013
-408.325	-96.613	0.054	0.019
-407.311	-6.671	0.484	0.431
-406.296	-6.598	0.402	-0.358
-405.282	5.868	-0.405	-0.393
-404.267	-200.000	0.051	-0.553
-403.252	-86.218	-0.122	0.049
-402.238	68.857	-0.176	-0.238
-401.223	-43.797	0.042	0.028
-400.209	94.458	-0.011	0.017
-399.194	-200.000	-0.207	0.000
-398.179	561.801	-0.123	-0.390
-397.165	71.622	-0.175	-0.238
-396.150	-63.629	-0.333	-0.178
-395.136	-23.469	-0.235	0.185
-394.121	-16.658	-0.273	-0.226
-393.106	80.338	-0.285	0.402
-392.092	-97.161	0.572	0.195
-391.077	-128.280	0.490	-0.091
-390.063	139.351	-0.234	0.405
-389.048	800.000	0.061	0.284
-388.033	-49.996	-0.452	0.280
-387.019	800.000	0.064	-0.294
-386.004	-200.000	-0.010	0.092
-384.990	-200.000	-0.070	0.474
-383.975	28.302	0.152	-0.168
-382.960	-103.854	0.361	-0.110
-381.946	-130.508	-0.396	0.069
-380.931	-200.000	0.015	0.314
-379.917	130.386	-0.189	0.318
-378.902	-114.752	-0.208	-0.052
-377.888	-195.819	0.554	-0.005
-376.873	-200.000	0.024	-0.523
-375.858	62.806	-0.203	0.266
-374.844	106.193	-0.072	0.112
-373.829	-140.648	-0.324	-0.043
-372.815	-112.719	0.270	-0.070
-371.800	800.000	0.015	0.063
-370.785	190.871	-0.275	0.542
-369.771	-105.364	0.174	-0.051
-368.756	800.000	0.018	0.086
-367.742	800.000	-0.140	-0.563
-366.727	-114.310	-0.422	0.105
-365.712	-158.213	0.448	0.034
-364.698	20.164	-0.116	-0.122
-363.683	661.214	0.053	-0.180
-362.669	-70.064	-0.368	-0.182
-361.654	-95.795	0.603	-0.209
-360.639	88.360	0.284	-0.414
-359.625	-104.054	0.053	-0.016
-358.610	-71.154	-0.233	-0.114
-357.596	-154.905	-0.560	0.048
-356.581	-122.571	0.334	0.070
-355.566	-90.066	0.558	0.212
-354.552	303.357	-0.095	0.232
-353.537	101.868	0.189	-0.289
-352.523	-173.710	0.604	-0.023
-351.508	219.438	0.131	0.274
-350.493	-120.642	-0.256	-0.056
-349.479	45.060	0.409	-0.493
-348.464	800.000	-0.101	0.374
-347.450	-71.154	0.221	0.108
-346.435	-78.607	0.319	-0.142
-345.420	-200.000	-0.027	-0.216
-344.406	-200.000	0.025	0.370
-343.391	249.778	0.162	0.360
-342.377	-103.952	-0.355	0.107
-341.362	646.748	-0.089	-0.298
-340.348	705.951	-0.183	0.635
-339.333	500.863	0.225	0.682
-338.318	800.000	-0.035	-0.147
-337.304	48.177	-0.426	-0.522
-336.289	-200.000	0.024	-0.563
-335.275	-200.000	0.036	0.344
-334.260	800.000	0.069	0.387
-333.245	-200.000	-0.071	-0.435
-332.231	45.532	-0.190	0.229
-331.216	800.000	-0.047	-0.224
-330.202	-23.721	-0.121	0.095
-329.187	-4.482	0.224	0.202
-328.172	-178.544	-0.337	-0.010
-327.158	16.983	0.366	-0.379
-326.143	-120.640	0.132	-0.029
-325.129	-63.740	0.309	-0.165
-324.114	-68.070	-0.387	0.196
-323.099	163.025	-0.132	0.242
-322.085	24.340	0.363	-0.392
-321.070	194.508	0.200	0.398
-320.056	-195.761	-0.315	-0.003
-319.041	-43.255	0.222	-0.147
-318.026	-29.920	-0.121	-0.090
-317.012	72.812	-0.117	-0.160
-315.997	-141.614	-0.333	0.043
-314.983	-98.918	-0.231	-0.076
-313.968	-50.302	-0.154	0.095
-312.953	139.924	-0.201	0.347
-311.939	-200.000	-0.031	0.228
-310.924	-200.000	-0.032	-0.223
-309.910	4.518	0.388	0.372
-308.895	-64.450	0.376	0.199
-307.880	-92.576	0.420	0.153
-306.866	-133.285	-0.370	0.060
-305.851	-191.431	-0.339	-0.004
-304.837	-200.000	0.010	0.202
-303.822	8.913	0.113	-0.112
-302.807	29.202	0.342	0.379
-301.793	18.934	0.238	0.249
-300.778	77.675	0.139	-0.193
-299.764	288.461	-0.115	-0.272
-298.749	-63.738	-0.267	0.142
-297.735	-60.017	-0.127	-0.071
-296.720	-200.000	0.129	-0.824
-295.705	71.717	-0.212	-0.288
-294.691	358.220	0.173	0.453
-293.676	-95.059	0.435	0.152
-292.662	306.776	-0.096	0.235
-291.647	-200.000	0.024	-0.269
-290.632	-81.460	-0.412	0.176
-289.618	-77.293	-0.207	0.093
-288.603	347.635	-0.098	0.252
-287.589	-200.000	0.009	-0.197
-286.574	-200.000	0.011	0.287
-285.559	-59.548	-0.544	0.303
-284.545	-74.701	0.338	0.158
-283.530	32.720	0.217	-0.245
-282.516	-117.973	0.308	-0.071
-281.501	-170.080	0.435	0.020
-280.486	214.400	0.107	0.222
-279.472	199.070	-0.235	-0.470
-278.457	800.000	0.021	-0.083
-277.443	-179.935	0.250	0.007
-276.428	-134.939	0.187	0.029
-275.413	75.423	0.082	-0.112
-274.399	-103.206	-0.564	-0.173
-273.384	-57.555	0.234	0.133
-272.370	-200.000	0.002	-0.050
-271.355	-96.412	-0.242	0.083
-270.340	-200.000	-0.046	-0.505
-269.326	145.410	0.123	0.215
-268.311	-105.100	0.359	-0.106
-267.297	-118.421	0.072	-0.017
-266.282	610.946	0.177	-0.579
-265.267	-60.821	-0.171	0.094
-264.253	734.971	0.088	0.310
-263.238	75.176	0.136	-0.188
-262.224	122.909	-0.139	0.227
-261.209	71.747	0.198	0.269
-260.195	422.254	0.114	-0.321
-259.180	66.918	0.200	0.266
-258.165	4.406	-0.359	0.342
-257.151	-139.911	0.230	0.031
-256.136	-182.211	-0.060	-0.001
-255.122	-165.846	-0.518	-0.029
-254.107	800.000	-0.099	0.376
-253.092	650.353	-0.156	0.524
-252.078	17.926	0.178	0.185
-251.063	-52.354	-0.249	-0.149
-250.049	527.479	0.110	0.339
-249.034	73.944	-0.330	-0.452
-248.019	-70.795	-0.290	-0.142
-247.005	8.539	-0.347	-0.340
-245.990	-82.209	-0.620	0.262
-244.976	479.841	-0.135	-0.400
-243.961	-200.000	0.068	0.640
-242.946	20.875	0.596	0.629
-241.932	-200.000	0.009	0.113
-240.917	800.000	-0.156	-0.630
-239.903	-55.866	0.098	-0.057
-238.888	-63.592	0.548	-0.292
-237.873	21.310	0.151	0.159
-236.859	-200.000	-0.057	0.566
-235.844	236.411	0.082	0.178
-234.830	28.990	-0.130	0.144
-233.815	603.127	0.186	0.606
-232.800	-38.351	-0.207	0.142
-231.786	-74.480	-0.250	0.117
-230.771	-74.937	-0.092	0.043
-229.757	-83.964	-0.245	-0.101
-228.742	-101.550	-0.075	-0.023
-227.727	567.810	0.164	0.521
-226.713	238.955	0.205	0.446
-225.698	283.670	0.080	-0.187
-224.684	-72.602	-0.303	0.145
-223.669	-57.876	0.159	0.090
-222.655	-200.000	0.020	0.116
-221.640	-16.370	-0.266	-0.219
-220.625	-104.002	0.156	-0.047
-219.611	19.545	-0.154	0.161
-218.596	27.118	0.282	-0.308
-217.582	-200.000	0.001	0.316
-216.567	422.914	-0.038	-0.108
-215.552	-88.827	-0.141	-0.054
-214.538	194.852	-0.299	0.592
-213.523	-20.672	-0.235	0.188
-212.509	64.453	0.128	0.168
-211.494	-171.600	-0.231	0.010
-210.479	-102.655	0.385	0.119
-209.465	-19.740	-0.477	0.383
-208.450	-52.640	0.317	-0.190
-207.436	10.723	-0.087	-0.086
-206.421	-4.364	-0.368	-0.330
-205.406	-59.163	0.415	0.232
-204.392	-101.537	-0.223	0.070
-203.377	-140.890	-0.791	0.105
-202.363	372.750	-0.120	0.320
-201.348	450.187	-0.125	-0.360
-200.333	-143.440	0.365	0.045
-199.319	800.000	-0.124	-0.599
-198.304	31.463	0.235	-0.262
-197.290	-200.000	0.014	-0.402
-196.275	-4.570	-0.290	-0.260
-195.260	140.375	-0.046	0.080
-194.246	800.000	0.072	-0.307
-193.231	8.595	0.320	-0.313
-192.217	7.322	-0.175	-0.170
-191.202	-200.000	-0.044	0.352
-190.187	15.766	-0.145	-0.148
-189.173	-9.505	-0.363	0.315
-188.158	-152.291	0.406	-0.038
-187.144	-125.899	0.199	-0.039
-186.129	-40.531	-0.052	-0.035
-185.114	-200.000	0.012	0.164
-184.100	-36.959	-0.460	-0.320
-183.085	92.709	-0.252	-0.369
-182.071	22.287	0.213	0.226
-181.056	49.435	-0.178	-0.218
-180.042	-200.000	0.053	-0.618
-179.027	-31.886	0.322	0.234
-178.012	-101.904	0.150	-0.047
-176.998	72.481	0.028	-0.038
-175.983	104.149	-0.100	0.153
-174.969	433.801	0.061	-0.173
-173.954	800.000	-0.054	-0.204
-172.939	-49.891	0.190	-0.117
-171.925	-200.000	-0.004	-0.334
-170.910	-200.000	0.024	0.275
-169.896	800.000	-0.086	-0.351
-168.881	55.893	-0.314	0.396
-167.866	19.434	0.275	-0.287
-166.852	-55.063	-0.060	0.035
-165.837	-55.299	-0.154	-0.089
-164.823	92.749	0.083	-0.123
-163.808	-106.198	0.117	0.034
-162.793	169.464	0.222	0.412
-161.779	-200.000	-0.001	-0.136
-160.764	-31.054	0.153	-0.112
-159.750	-19.175	0.224	0.181
-158.735	0.290	-0.114	-0.105
-157.720	-71.385	0.453	0.219
-156.706	406.790	-0.104	-0.285
-155.691	-77.217	-0.480	-0.216
-154.677	-66.593	-0.244	-0.125
-153.662	152.434	-0.240	0.427
-152.647	-155.797	0.503	-0.041
-151.633	-15.663	0.304	0.252
-150.618	9.826	0.615	0.605
-149.604	-81.900	-0.098	-0.041
-148.589	142.992	-0.310	0.535
-147.574	-161.376	0.228	-0.015
-146.560	-30.886	0.358	-0.262
-145.545	720.757	0.065	-0.226
-144.531	10.706	-0.096	-0.095
-143.516	-117.542	0.585	-0.136
-142.502	-200.000	0.030	-0.396
-141.487	-23.277	0.138	0.108
-140.472	156.778	0.214	0.384
-139.458	145.068	-0.117	0.203
-138.443	800.000	0.192	1.028
-137.429	-143.623	-0.301	-0.037
-136.414	800.000	0.010	0.056
-135.399	-200.000	-0.030	0.400
-134.385	94.157	-0.169	0.250
-133.370	-43.509	-0.447	-0.292
-132.356	62.762	-0.111	-0.144
-131.341	-165.233	-0.253	0.014
-130.326	-200.000	0.029	-0.239
-129.312	-123.845	-0.256	-0.052
-128.297	-46.287	-0.259	0.165
-127.283	-121.660	-0.084	0.018
-126.268	70.934	-0.121	0.162
-125.253	623.815	-0.072	-0.238
-124.239	-119.056	-0.246	-0.055
-123.224	-200.000	0.022	0.496
-122.210	108.662	-0.084	-0.130
-121.195	-61.355	-0.367	-0.200
