DTS Sentinel unit serial number:	SN409020Multiplexer serial number:	ORYXHardware model number:	OX4-SRSoftware version number:	ORYX F/W v3.00 Oryx Data Collector v3.7.2.0data status	okinstallation	HaddamTimeLapsedifferential loss correction	single-endedforward channel	channel 3reverse channel	N/Adate	2011/06/22time	06:21:16forward acquisition time	30.00reverse acquisition time	0.00gamma	498.7831k internal	0.1752k external	0.1752temperature offset calibration	1.0074default loss term (dB/km)	0.3790temperature slope calibration	1.3530multiplexer offset coefficient	1.0000multiplexer slope coefficient	1.0000fibre end	0.00T internal ref (°C)	22.62T ext. ref 1 (°C)	18.40T ext. ref 2 (°C)	0.19length (m)	temperature (°C)	Stokes	anti-Stokes-747.200	-200.000	0.007	-0.225
-746.185	113.647	-0.275	0.444
-745.171	-184.965	-0.756	-0.016
-744.156	39.247	0.257	-0.305
-743.142	29.922	-0.138	-0.156
-742.127	-73.651	-0.077	0.037
-741.112	92.478	0.205	-0.307
-740.098	34.223	0.298	0.345
-739.083	-152.994	0.555	-0.051
-738.069	-156.495	-0.443	0.036
-737.054	63.919	-0.260	-0.348
-736.039	-69.170	-0.433	-0.220
-735.025	-105.913	0.130	-0.039
-734.010	-200.000	-0.007	-0.182
-732.996	-86.324	-0.034	0.014
-731.981	800.000	-0.085	-0.327
-730.966	67.407	-0.259	0.351
-729.952	-128.472	-0.371	0.069
-728.937	-200.000	-0.024	-0.235
-727.923	-75.957	0.070	0.033
-726.908	1.660	0.136	-0.130
-725.894	167.103	0.195	-0.369
-724.879	-99.648	0.089	0.030
-723.864	25.317	-0.137	0.151
-722.850	-140.211	-0.523	0.072
-721.835	-113.549	0.359	0.092
-720.821	32.255	-0.189	0.216
-719.806	-151.956	-0.682	0.065
-718.791	33.421	-0.150	0.172
-717.777	-134.051	-0.312	-0.051
-716.762	-138.407	-0.410	0.059
-715.748	-55.565	-0.114	-0.067
-714.733	-28.505	0.176	0.135
-713.718	-111.839	-0.248	0.066
-712.704	23.261	0.107	-0.116
-711.689	-80.230	0.128	0.057
-710.675	34.648	-0.082	0.095
-709.660	108.690	-0.151	0.240
-708.645	-90.795	-0.309	0.117
-707.631	161.105	0.180	-0.334
-706.616	445.740	0.051	0.149
-705.602	-21.264	0.143	-0.115
-704.587	13.053	-0.158	-0.162
-703.572	-49.294	-0.470	-0.297
-702.558	800.000	-0.218	0.809
-701.543	194.076	0.077	0.156
-700.529	-200.000	0.008	-0.390
-699.514	210.984	0.103	0.215
-698.499	35.403	-0.252	-0.293
-697.485	-46.462	0.199	-0.129
-696.470	-200.000	-0.008	0.203
-695.456	-52.975	-0.400	0.243
-694.441	31.733	-0.277	0.317
-693.426	-91.367	0.200	0.075
-692.412	69.266	-0.264	0.360
-691.397	-21.135	-0.080	-0.064
-690.383	-127.885	-1.171	-0.221
-689.368	-200.000	0.442	0.002
-688.354	-65.209	-0.330	-0.175
-687.339	800.000	-0.019	-0.108
-686.324	-200.000	-0.009	-0.560
-685.310	-200.000	0.009	-0.115
-684.295	-200.000	-0.026	-0.231
-683.281	34.290	-0.321	-0.371
-682.266	647.840	-0.172	-0.584
-681.251	-59.516	0.138	0.078
-680.237	-51.023	-0.241	0.150
-679.222	22.081	0.170	-0.184
-678.208	-91.553	0.350	-0.131
-677.193	111.029	0.271	-0.434
-676.178	143.552	-0.216	0.381
-675.164	-117.386	-0.419	0.100
-674.149	-10.032	-0.332	-0.292
-673.135	-200.000	-0.003	-0.041
-672.120	-156.790	0.408	-0.033
-671.105	76.978	0.127	0.179
-670.091	223.415	-0.251	0.539
-669.076	16.581	-0.078	-0.082
-668.062	661.130	-0.093	0.319
-667.047	-200.000	-0.007	0.314
-666.032	-50.271	-0.293	0.183
-665.018	-105.475	-0.188	-0.056
-664.003	-89.638	-0.488	-0.189
-662.989	-77.272	-0.230	0.105
-661.974	41.603	-0.224	-0.269
-660.959	-98.335	-0.183	0.062
-659.945	211.304	-0.139	0.291
-658.930	-149.847	-0.591	-0.061
-657.916	-106.704	0.338	-0.099
-656.901	26.891	0.183	-0.203
-655.886	-2.284	0.165	0.153
-654.872	-55.966	0.108	0.063
-653.857	-36.614	0.350	-0.249
-652.843	-42.763	-0.095	-0.064
-651.828	-200.000	0.030	0.296
-650.814	-150.299	-0.143	0.014
-649.799	-51.280	0.194	0.120
-648.784	343.968	0.099	0.257
-647.770	436.001	-0.080	-0.232
-646.755	-36.093	-0.123	0.087
-645.741	-20.952	0.146	-0.118
-644.726	-200.000	0.003	-0.440
-643.711	-180.320	0.132	0.004
-642.697	17.167	0.546	-0.572
-641.682	-6.356	-0.104	-0.094
-640.668	177.770	-0.067	-0.129
-639.653	-48.997	0.197	-0.124
-638.638	-110.392	-0.363	-0.099
-637.624	294.347	-0.148	0.359
-636.609	143.672	-0.281	0.496
-635.595	56.984	-0.157	0.202
-634.580	117.299	0.212	0.346
-633.565	-64.401	0.217	-0.116
-632.551	-200.000	0.076	0.482
-631.536	-3.427	-0.232	-0.213
-630.522	-169.120	0.318	0.015
-629.507	-90.825	0.355	-0.134
-628.492	-137.847	-0.301	0.044
-627.478	-62.189	0.573	-0.314
-626.463	96.915	0.036	-0.054
-625.449	-200.000	0.060	0.688
-624.434	134.423	0.201	0.345
-623.419	-130.465	-0.599	-0.106
-622.405	-200.000	0.031	0.574
-621.390	-110.894	0.434	0.117
-620.376	341.984	-0.179	-0.465
-619.361	-74.629	-0.499	0.236
-618.346	-35.235	0.239	0.171
-617.332	116.189	-0.229	0.371
-616.317	-194.258	-0.429	0.004
-615.303	-133.523	0.449	-0.074
-614.288	9.717	0.282	0.282
-613.273	733.920	-0.101	0.358
-612.259	73.629	-0.094	-0.130
-611.244	171.425	0.067	-0.128
-610.230	-31.696	0.278	-0.206
-609.215	-88.751	0.469	-0.183
-608.201	-10.469	0.145	0.127
-607.186	-69.247	-0.420	-0.212
-606.171	-77.984	-0.092	0.042
-605.157	800.000	-0.018	0.069
-604.142	-152.636	-0.244	-0.023
-603.128	71.674	0.175	-0.241
-602.113	101.541	-0.069	-0.107
-601.098	14.278	-0.388	-0.399
-600.084	193.584	0.085	-0.170
-599.069	-103.965	0.253	0.077
-598.055	116.809	0.215	0.349
-597.040	-200.000	0.004	0.226
-596.025	-200.000	0.022	-0.207
-595.011	-200.000	0.007	-0.672
-593.996	-177.547	-0.217	-0.007
-592.982	-35.166	-0.299	-0.215
-591.967	-54.157	0.162	-0.097
-590.952	95.171	0.298	-0.449
-589.938	-200.000	-0.070	-0.581
-588.923	463.773	-0.122	0.360
-587.909	-200.000	0.012	0.149
-586.894	-200.000	-0.053	0.389
-585.879	-32.955	-0.161	-0.117
-584.865	30.441	-0.101	-0.114
-583.850	38.735	-0.049	-0.058
-582.836	-122.168	-0.399	0.085
-581.821	-200.000	0.063	0.379
-580.806	-84.352	-0.070	-0.029
-579.792	-10.236	0.285	0.249
-578.777	-127.475	-0.486	-0.092
-577.763	36.514	0.235	0.274
-576.748	109.071	-0.122	-0.193
-575.733	-78.040	0.118	0.054
-574.719	629.942	0.072	-0.241
-573.704	-12.851	-0.170	0.146
-572.690	-112.246	0.296	0.078
-571.675	-54.946	0.155	0.092
-570.661	-99.872	-0.098	-0.032
-569.646	-120.296	0.348	-0.078
-568.631	-44.382	-0.178	0.117
-567.617	-10.398	-0.295	-0.258
-566.602	12.742	0.022	0.023
-565.588	214.316	-0.178	-0.372
-564.573	65.102	0.139	0.185
-563.558	-44.420	0.246	0.162
-562.544	-106.295	-0.376	-0.110
-561.529	800.000	0.010	0.053
-560.515	1.488	0.323	0.306
-559.500	-200.000	-0.004	-0.039
-558.485	-200.000	-0.012	0.366
-557.471	52.453	-0.340	0.428
-556.456	28.282	-0.114	-0.127
-555.442	-45.291	0.283	-0.185
-554.427	-101.820	-0.158	0.050
-553.412	-200.000	-0.001	-0.124
-552.398	-112.324	0.467	-0.122
-551.383	204.561	0.076	-0.156
-550.369	-200.000	0.017	-0.179
-549.354	45.222	0.363	-0.441
-548.339	200.441	-0.224	-0.456
-547.325	800.000	0.082	-0.462
-546.310	-112.958	0.134	-0.035
-545.296	-95.488	-0.261	-0.092
-544.281	-64.827	-0.331	-0.176
-543.266	634.404	-0.021	0.069
-542.252	-72.166	0.515	0.250
-541.237	-62.010	0.155	0.085
-540.223	38.575	-0.291	0.342
-539.208	78.348	-0.197	0.277
-538.193	-41.593	0.240	-0.162
-537.179	-90.275	-0.758	0.289
-536.164	800.000	-0.094	0.487
-535.150	-57.616	0.593	0.341
-534.135	-29.368	0.524	0.394
-533.121	289.978	0.061	-0.146
-532.106	45.507	-0.192	0.234
-531.091	-200.000	-0.009	-0.308
-530.077	-121.360	0.191	0.042
-529.062	338.471	-0.045	-0.115
-528.048	800.000	0.046	0.208
-527.033	240.754	0.237	0.523
-526.018	-141.169	-0.081	-0.011
-525.004	-159.926	0.506	0.036
-523.989	537.274	-0.125	-0.392
-522.975	-150.509	-0.756	-0.075
-521.960	231.627	0.208	0.450
-520.945	-107.674	0.229	-0.065
-519.931	114.133	0.122	-0.196
-518.916	-50.491	0.475	-0.294
-517.902	568.066	0.085	-0.274
-516.887	-91.661	0.451	-0.168
-515.872	196.231	-0.132	-0.266
-514.858	-200.000	-0.003	-0.434
-513.843	-47.627	0.517	-0.329
-512.829	51.554	0.066	-0.082
-511.814	51.694	-0.322	0.404
-510.799	77.120	-0.128	-0.180
-509.785	229.407	-0.195	-0.420
-508.770	-107.501	-0.327	-0.094
-507.756	1.606	-0.157	0.148
-506.741	13.083	0.212	0.216
-505.726	-160.884	-0.122	0.008
-504.712	-161.481	0.303	-0.020
-503.697	800.000	-0.123	-0.608
-502.683	800.000	-0.049	0.223
-501.668	35.963	0.121	-0.140
-500.653	219.419	0.027	-0.057
-499.639	316.732	0.110	0.276
-498.624	291.838	-0.179	0.430
-497.610	-15.275	-0.262	0.220
-496.595	436.499	0.072	0.207
-495.581	-200.000	0.024	0.487
-494.566	-87.194	0.405	-0.161
-493.551	-137.719	0.330	0.048
-492.537	96.670	0.323	0.487
-491.522	-136.423	0.178	0.027
-490.508	-176.233	-0.484	0.016
-489.493	503.651	0.103	0.314
-488.478	-84.771	-0.251	0.103
-487.464	-82.661	-0.609	-0.258
-486.449	47.451	-0.215	0.264
-485.435	800.000	0.060	0.230
-484.420	184.640	-0.151	0.296
-483.405	-44.651	0.306	0.200
-482.391	260.332	-0.116	-0.264
-481.376	-165.357	0.119	-0.007
-480.362	745.009	-0.258	-0.918
-479.347	-200.000	0.019	-0.404
-478.332	-70.437	-0.250	-0.124
-477.318	-77.167	-0.525	0.239
-476.303	704.350	-0.023	0.079
-475.289	-200.000	-0.002	0.126
-474.274	88.141	-0.136	-0.199
-473.259	55.389	-0.176	-0.224
-472.245	163.506	-0.085	0.158
-471.230	211.642	-0.160	-0.331
-470.216	-200.000	-0.004	0.165
-469.201	-0.750	0.320	0.298
-468.186	228.428	-0.155	0.332
-467.172	-99.553	-0.294	-0.096
-466.157	-51.391	-0.441	-0.270
-465.143	185.270	-0.219	-0.428
-464.128	-29.718	-0.137	-0.103
-463.113	-133.539	0.184	0.030
-462.099	-138.002	0.149	-0.022
-461.084	700.399	0.100	0.347
-460.070	85.583	0.097	0.141
-459.055	103.963	0.072	-0.111
-458.040	-200.000	0.007	-0.121
-457.026	-109.599	0.216	-0.059
-456.011	-200.000	-0.015	0.164
-454.997	5.497	-0.100	0.096
-453.982	-126.146	0.526	-0.103
-452.968	210.382	-0.125	-0.259
-451.953	800.000	-0.037	0.188
-450.938	280.335	0.029	0.069
-449.924	-143.658	-0.455	0.056
-448.909	623.016	-0.135	0.448
-447.895	60.574	-0.107	-0.139
-446.880	129.579	-0.038	0.064
-445.865	-71.829	-0.469	-0.228
-444.851	-200.000	-0.425	0.002
-443.836	-95.950	0.599	-0.208
-442.822	23.544	-0.321	-0.347
-441.807	558.659	-0.127	-0.406
-440.792	-200.000	-0.027	-0.158
-439.778	-95.682	0.115	-0.040
-438.763	-123.960	-0.221	-0.045
-437.749	280.030	0.020	-0.047
-436.734	-80.257	0.304	-0.133
-435.719	-34.524	0.397	-0.284
-434.705	-118.356	0.333	-0.077
-433.690	126.108	-0.136	0.226
-432.676	-1.486	0.232	0.215
-431.661	-80.776	-0.218	-0.094
-430.646	33.914	-0.218	0.249
-429.632	221.068	0.035	0.074
-428.617	-129.933	0.230	-0.041
-427.603	-200.000	-0.012	0.360
-426.588	102.837	-0.279	-0.430
-425.573	80.109	-0.236	-0.334
-424.559	-52.514	0.076	-0.046
-423.544	222.871	0.194	-0.410
-422.530	-24.225	-0.190	-0.149
-421.515	-81.950	0.256	0.109
-420.500	50.548	0.240	0.298
-419.486	-112.812	0.408	-0.105
-418.471	-53.030	0.030	0.018
-417.457	164.699	0.094	-0.174
-416.442	470.012	0.094	0.280
-415.428	800.000	-0.105	0.407
-414.413	-112.313	-0.568	-0.148
-413.398	-40.338	0.296	0.201
-412.384	16.931	0.185	0.192
-411.369	43.448	-0.210	0.252
-410.355	576.624	0.146	0.471
-409.340	-200.000	0.044	0.303
-408.325	-119.907	-0.282	-0.063
-407.311	-200.000	0.003	0.052
-406.296	-72.402	0.324	0.156
-405.282	166.734	0.173	-0.323
-404.267	117.609	-0.086	0.140
-403.252	78.239	0.128	-0.179
-402.238	-169.443	-0.419	-0.020
-401.223	-151.551	-0.374	-0.036
-400.209	800.000	-0.142	0.555
-399.194	7.260	-0.246	0.241
-398.179	-77.671	-0.158	0.071
-397.165	-200.000	-0.033	0.414
-396.150	-73.792	-0.087	0.041
-395.136	203.911	0.067	-0.137
-394.121	191.425	-0.138	-0.273
-393.106	-136.609	-0.571	0.086
-392.092	-200.000	0.035	-0.244
-391.077	540.300	0.156	-0.490
-390.063	-164.844	0.304	0.018
-389.048	388.318	0.048	-0.131
-388.033	320.292	-0.053	0.132
-387.019	-200.000	0.009	-0.170
-386.004	-93.056	-0.283	-0.103
-384.990	-148.691	-0.372	-0.039
-383.975	-10.945	0.357	0.308
-382.960	-13.644	0.361	0.305
-381.946	-60.650	0.294	0.163
-380.931	-133.254	-0.298	-0.049
-379.917	-185.091	0.524	0.011
-378.902	800.000	0.073	-0.284
-377.888	-40.183	-0.592	-0.403
-376.873	-52.237	-0.354	0.214
-375.858	-111.944	-0.063	0.016
-374.844	-200.000	0.038	0.275
-373.829	-99.594	-0.481	0.157
-372.815	-200.000	-0.025	0.384
-371.800	-84.616	-0.075	0.031
-370.785	-112.159	-0.556	0.145
-369.771	266.538	0.069	0.158
-368.756	84.762	-0.135	-0.193
-367.742	-97.725	0.310	-0.104
-366.727	288.962	-0.086	-0.205
-365.712	-46.990	0.042	0.026
-364.698	-181.855	-0.305	0.007
-363.683	26.837	0.154	-0.168
-362.669	-165.629	0.172	0.010
-361.654	-88.657	-0.186	-0.072
-360.639	-115.390	0.212	-0.052
-359.625	602.242	0.082	0.269
-358.610	-85.815	0.415	-0.167
-357.596	31.047	-0.393	0.441
-356.581	26.058	0.091	-0.099
-355.566	-66.521	0.371	-0.192
-354.552	-73.798	0.043	-0.020
-353.537	-171.567	0.225	-0.010
-352.523	169.534	0.219	0.411
-351.508	800.000	-0.092	0.371
-350.493	673.795	-0.025	-0.084
-349.479	-64.709	0.275	0.145
-348.464	800.000	0.018	0.102
-347.450	-79.101	0.287	-0.127
-346.435	-127.271	0.422	0.080
-345.420	501.475	-0.056	0.170
-344.406	-193.502	-0.438	0.005
-343.391	68.796	-0.270	-0.363
-342.377	359.925	0.073	0.191
-341.362	-174.408	0.348	-0.013
-340.348	64.713	-0.053	-0.070
-339.333	-200.000	-0.014	-0.241
-338.318	18.023	0.323	-0.336
-337.304	-200.000	0.021	-0.399
-336.289	-40.641	-0.285	0.193
-335.275	321.561	-0.070	-0.175
-334.260	89.828	0.210	-0.307
-333.245	-200.000	-0.025	0.207
-332.231	46.411	0.079	-0.096
-331.216	-68.378	0.201	0.102
-330.202	-29.839	-0.307	-0.229
-329.187	-135.280	0.212	-0.033
-328.172	-14.972	-0.303	-0.254
-327.158	218.447	-0.166	-0.347
-326.143	-95.024	-0.258	0.091
-325.129	-200.000	-0.028	0.207
-324.114	-153.942	-0.441	-0.039
-323.099	-82.905	0.313	0.131
-322.085	-200.000	-0.015	-0.305
-321.070	800.000	0.012	0.058
-320.056	-143.266	-0.048	0.006
-319.041	36.896	0.115	-0.132
-318.026	-137.438	-0.529	0.077
-317.012	-49.425	-0.394	0.244
-315.997	104.709	0.130	0.201
-314.983	-200.000	0.007	0.044
-313.968	-62.133	0.143	-0.077
-312.953	-156.423	-0.502	-0.040
-311.939	180.455	0.141	0.271
-310.924	185.773	0.067	0.130
-309.910	-71.545	0.411	0.200
-308.895	70.617	0.170	0.230
-307.880	-152.206	-0.128	-0.012
-306.866	0.030	0.161	-0.150
-305.851	411.693	-0.050	-0.140
-304.837	-102.483	0.479	-0.149
-303.822	-126.390	0.327	0.063
-302.807	-125.443	0.411	-0.081
-301.793	-46.850	-0.234	0.149
-300.778	-200.000	-0.094	0.631
-299.764	147.296	0.198	-0.349
-298.749	-72.913	0.528	-0.252
-297.735	477.079	-0.039	0.116
-296.720	-120.744	0.335	-0.073
-295.705	-69.353	0.265	0.132
-294.691	17.430	0.141	-0.146
-293.676	343.024	0.118	-0.303
-292.662	-200.000	0.024	-0.551
-291.647	-12.286	0.327	0.279
-290.632	680.678	0.151	-0.515
-289.618	-200.000	-0.017	-0.253
-288.603	61.264	0.359	0.466
-287.589	800.000	-0.094	-0.349
-286.574	430.354	0.164	0.465
-285.559	800.000	-0.043	-0.245
-284.545	-124.419	-0.270	0.054
-283.530	106.110	0.127	-0.196
-282.516	3.595	0.117	-0.111
-281.501	-152.530	-0.168	0.016
-280.486	800.000	-0.071	-0.356
-279.472	486.044	-0.105	0.314
-278.457	800.000	-0.106	-0.464
-277.443	152.035	-0.149	-0.266
-276.428	117.864	-0.118	-0.190
-275.413	194.400	0.192	0.381
-274.399	-40.892	-0.164	-0.110
-273.384	-171.006	0.120	-0.005
-272.370	-106.055	0.328	-0.095
-271.355	-200.000	-0.032	-0.196
-270.340	-107.925	0.150	0.042
-269.326	-22.469	-0.175	0.138
-268.311	-200.000	0.020	0.303
-267.297	-35.513	-0.175	0.123
-266.282	800.000	-0.076	0.416
-265.267	-58.747	0.370	0.208
-264.253	-56.002	0.125	0.072
-263.238	800.000	0.020	-0.115
-262.224	239.836	-0.139	-0.302
-261.209	-153.683	-0.178	-0.016
-260.195	18.107	-0.394	0.410
-259.180	50.164	-0.024	-0.030
-258.165	-115.282	0.576	0.141
-257.151	-87.889	0.059	-0.023
-256.136	-16.232	0.202	-0.167
-255.122	-200.000	-0.013	-0.642
-254.107	-146.400	-0.278	-0.031
-253.092	-200.000	0.008	0.327
-252.078	-192.055	-0.051	0.001
-251.063	32.757	-0.213	0.240
-250.049	95.537	0.105	0.157
-249.034	14.359	-0.484	0.491
-248.019	72.065	-0.159	0.215
-247.005	-140.568	-0.115	0.015
-245.990	-59.576	0.162	-0.090
-244.976	-11.982	-0.511	-0.436
-243.961	-185.240	-0.357	0.007
-242.946	-64.837	-0.121	-0.063
-241.932	534.386	0.113	-0.349
-240.917	-109.959	0.503	-0.136
-239.903	800.000	0.028	-0.121
-238.888	53.337	-0.274	0.342
-237.873	28.854	-0.106	0.116
-236.859	-200.000	0.012	0.446
-235.844	-86.407	-0.273	0.109
-234.830	116.098	0.124	-0.198
-233.815	-200.000	0.016	-0.115
-232.800	800.000	-0.082	-0.323
-231.786	210.989	0.185	-0.380
-230.771	-122.759	-0.162	-0.034
-229.757	-24.646	-0.192	-0.149
-228.742	143.236	-0.062	0.107
-227.727	-150.906	0.198	0.019
-226.713	-200.000	0.008	0.060
-225.698	-124.502	-0.514	0.103
-224.684	-70.643	0.096	-0.047
-223.669	565.358	0.202	-0.641
-222.655	105.860	0.193	-0.297
-221.640	271.505	0.190	-0.438
-220.625	-52.982	0.282	-0.168
-219.611	93.207	-0.303	-0.446
-218.596	124.903	0.188	0.309
-217.582	-157.468	-0.150	-0.012
-216.567	-28.333	-0.117	-0.088
-215.552	-200.000	-0.009	-0.494
-214.538	23.465	0.156	0.167
-213.523	-155.441	0.304	-0.025
-212.509	2.365	0.197	-0.186
-211.494	-200.000	-0.005	-0.508
-210.479	-200.000	-0.024	-0.520
-209.465	-115.103	-0.187	0.046
-208.450	26.200	0.145	-0.157
-207.436	140.271	-0.256	0.440
-206.421	-86.909	0.105	0.042
-205.406	-103.408	0.136	0.041
-204.392	118.191	-0.101	-0.162
-203.377	800.000	-0.075	-0.331
-202.363	267.048	0.311	0.710
-201.348	800.000	0.174	0.771
-200.333	-35.271	0.175	-0.123
-199.319	298.045	-0.171	0.410
-198.304	454.157	-0.083	0.242
-197.290	-75.252	0.325	-0.150
-196.275	77.475	0.227	-0.314
-195.260	97.277	-0.121	0.180
-194.246	151.737	-0.202	0.359
-193.231	-200.000	-0.040	0.468
-192.217	-200.000	0.004	-0.534
-191.202	-17.119	-0.374	-0.307
-190.187	358.323	-0.197	0.513
-189.173	120.001	-0.320	0.516
-188.158	48.798	-0.363	0.443
-187.144	-200.000	0.003	0.203
-186.129	-32.541	-0.246	0.178
-185.114	-90.679	-0.149	-0.056
-184.100	-181.680	0.210	0.005
-183.085	-102.906	0.655	-0.201
-182.071	-35.627	-0.236	0.166
-181.056	269.167	-0.112	-0.257
-180.042	-86.768	0.276	-0.109
-179.027	-170.739	-0.289	-0.013
-178.012	-95.770	-0.248	-0.086
-176.998	-119.699	0.174	-0.039
-175.983	361.875	0.172	-0.451
-174.969	-103.545	-0.173	-0.052
-173.954	-63.683	0.189	-0.100
-172.939	165.737	0.092	-0.170
-171.925	-76.173	0.078	0.036
-170.910	591.732	0.079	0.256
-169.896	-68.602	0.036	0.018
-168.881	800.000	0.032	0.134
-167.866	213.260	-0.211	-0.435
-166.852	-110.227	-0.367	-0.099
-165.837	-115.984	0.250	0.060
-164.823	-161.277	0.166	0.011
-163.808	511.415	0.138	0.418
-162.793	238.900	0.196	0.424
-161.779	-59.410	0.416	0.231
-160.764	21.789	-0.298	-0.315
-159.750	-35.363	-0.261	-0.183
-158.735	-200.000	0.040	0.392
-157.720	800.000	-0.018	0.080
-156.706	-37.999	-0.231	-0.159
-155.691	-5.098	-0.141	0.126
-154.677	4.250	-0.280	-0.266
-153.662	800.000	-0.026	0.124
-152.647	132.217	0.106	0.178
-151.633	365.750	0.117	0.306
-150.618	458.167	-0.087	0.251
-149.604	800.000	-0.072	-0.385
-148.589	-7.742	0.107	-0.094
-147.574	-200.000	-0.017	-0.178
-146.560	-200.000	-0.005	0.505
-145.545	-89.663	-0.431	-0.163
-144.531	82.407	-0.121	0.170
-143.516	-103.361	0.177	-0.054
-142.502	211.508	0.086	0.176
-141.487	603.610	-0.073	0.236
-140.472	-64.257	-0.059	-0.031
-139.458	800.000	-0.013	-0.049
-138.443	-128.236	-0.238	0.044
-137.429	-14.177	-0.558	0.466
-136.414	-7.502	-0.211	0.185
-135.399	-113.832	-0.304	0.076
-134.385	-176.737	-0.179	-0.006
-133.370	62.404	-0.381	-0.493
-132.356	-131.390	-0.393	-0.067
-131.341	483.278	0.140	0.415
-130.326	-103.765	0.248	-0.075
-129.312	-139.470	-0.296	-0.041
-128.297	15.764	0.149	0.152
-127.283	205.378	0.076	-0.153
-126.268	175.410	-0.082	0.154
-125.253	295.528	0.095	-0.226
-124.239	-53.718	-0.213	0.126
-123.224	-39.199	-0.050	0.034
-122.210	-108.313	-0.212	0.059
