DTS Sentinel unit serial number:	SN409020Multiplexer serial number:	ORYXHardware model number:	OX4-SRSoftware version number:	ORYX F/W v3.00 Oryx Data Collector v3.7.2.0data status	okinstallation	HaddamTimeLapsedifferential loss correction	single-endedforward channel	channel 3reverse channel	N/Adate	2011/06/22time	00:26:17forward acquisition time	30.00reverse acquisition time	0.00gamma	498.7831k internal	0.1752k external	0.1752temperature offset calibration	1.0074default loss term (dB/km)	0.3790temperature slope calibration	1.3530multiplexer offset coefficient	1.0000multiplexer slope coefficient	1.0000fibre end	0.00T internal ref (°C)	22.69T ext. ref 1 (°C)	17.99T ext. ref 2 (°C)	0.05length (m)	temperature (°C)	Stokes	anti-Stokes-747.200	-3.150	0.184	-0.170
-746.185	238.107	-0.151	0.335
-745.171	-200.000	0.120	-0.755
-744.156	28.559	-0.076	-0.086
-743.142	647.097	0.050	0.171
-742.127	-99.417	0.403	0.134
-741.112	-20.221	-0.160	0.130
-740.098	145.238	-0.160	0.286
-739.083	-65.968	-0.190	0.100
-738.069	-92.624	0.431	0.160
-737.054	-200.000	0.193	-0.001
-736.039	-200.000	-0.516	0.002
-735.025	461.747	-0.129	0.383
-734.010	369.473	0.081	0.220
-732.996	547.948	0.117	-0.373
-731.981	64.579	0.168	-0.225
-730.966	-200.000	0.004	-0.113
-729.952	222.561	-0.195	-0.418
-728.937	-200.000	0.016	-0.128
-727.923	-200.000	-0.011	0.069
-726.908	48.229	0.123	-0.153
-725.894	-92.144	0.166	-0.062
-724.879	-197.429	-0.302	-0.002
-723.864	-77.900	-0.264	0.121
-722.850	81.858	-0.219	0.315
-721.835	16.716	0.347	-0.364
-720.821	-95.139	-0.174	-0.062
-719.806	-200.000	0.017	0.364
-718.791	137.451	0.174	-0.302
-717.777	-91.642	-0.558	-0.209
-716.762	-196.933	-0.257	0.002
-715.748	84.693	0.112	0.163
-714.733	-3.997	0.211	-0.194
-713.718	29.457	0.246	0.278
-712.704	28.061	0.262	0.293
-711.689	367.404	-0.104	0.279
-710.675	-200.000	0.001	0.075
-709.660	-14.646	-0.152	0.130
-708.645	-72.294	0.417	0.204
-707.631	-163.077	0.325	-0.020
-706.616	-128.843	-0.355	0.066
-705.602	0.235	0.254	-0.240
-704.587	174.793	-0.190	-0.365
-703.572	-18.965	-0.285	0.235
-702.558	-93.884	-0.464	-0.168
-701.543	800.000	-0.081	0.400
-700.529	-200.000	-0.025	0.243
-699.514	-107.165	0.431	-0.125
-698.499	-156.903	0.509	0.041
-697.485	-132.914	0.241	0.040
-696.470	-75.280	-0.181	0.085
-695.456	-134.498	-0.325	0.052
-694.441	227.858	0.107	0.232
-693.426	-125.930	-0.541	-0.107
-692.412	-35.741	-0.377	0.270
-691.397	225.011	-0.034	0.073
-690.383	86.673	-0.196	-0.288
-689.368	184.143	-0.153	-0.301
-688.354	7.449	0.168	-0.166
-687.339	-66.307	0.611	-0.321
-686.324	388.057	0.063	0.173
-685.310	-176.468	0.232	-0.008
-684.295	375.700	0.131	0.355
-683.281	-25.794	-0.520	-0.405
-682.266	800.000	-0.054	0.218
-681.251	82.044	0.157	0.226
-680.237	-92.462	0.334	-0.124
-679.222	-36.199	-0.084	0.060
-678.208	410.224	0.073	0.205
-677.193	127.251	0.019	-0.033
-676.178	-200.000	-0.019	0.200
-675.164	26.059	-0.234	-0.258
-674.149	8.275	0.494	-0.492
-673.135	-160.831	-0.505	0.035
-672.120	13.837	-0.236	-0.243
-671.105	25.608	0.243	0.268
-670.091	-66.508	0.253	-0.133
-669.076	5.579	0.367	0.359
-668.062	-200.000	-0.022	-0.347
-667.047	-109.377	-0.354	0.098
-666.032	337.348	0.167	0.433
-665.018	-200.000	-0.014	0.353
-664.003	-200.000	0.022	0.310
-662.989	-103.593	-0.363	0.112
-661.974	43.959	-0.135	-0.164
-660.959	-46.880	0.341	0.220
-659.945	-108.241	0.317	0.090
-658.930	-144.033	-0.092	-0.011
-657.916	-109.552	-0.120	0.033
-656.901	-169.154	-0.152	0.007
-655.886	-15.189	0.554	-0.469
-654.872	66.577	0.302	-0.407
-653.857	-150.631	-0.536	-0.054
-652.843	-67.630	0.446	-0.230
-651.828	217.383	0.127	-0.268
-650.814	289.080	0.031	-0.074
-649.799	-21.083	-0.123	0.099
-648.784	115.743	-0.215	-0.349
-647.770	96.402	-0.187	-0.284
-646.755	-125.586	0.394	0.078
-645.741	402.132	0.075	-0.210
-644.726	-200.000	0.004	-0.301
-643.711	92.320	0.108	0.161
-642.697	-79.389	0.171	-0.076
-641.682	-136.680	-0.356	0.054
-640.668	-200.000	0.077	-0.659
-639.653	-75.598	0.259	0.121
-638.638	-111.276	0.069	-0.019
-637.624	-200.000	-0.058	-0.558
-636.609	-59.721	-0.336	-0.189
-635.595	61.568	-0.144	-0.190
-634.580	420.691	0.143	0.408
-633.565	-42.914	0.268	0.180
-632.551	-157.041	-0.260	0.021
-631.536	795.764	0.071	0.259
-630.522	83.298	-0.162	0.233
-629.507	-42.261	0.540	-0.364
-628.492	475.230	0.070	-0.209
-627.478	-62.042	-0.078	-0.043
-626.463	800.000	0.037	-0.184
-625.449	800.000	-0.104	-0.587
-624.434	132.070	-0.194	0.331
-623.419	-165.197	0.310	0.018
-622.405	-0.065	0.189	-0.177
-621.390	-71.322	0.167	-0.082
-620.376	-161.253	-0.137	-0.009
-619.361	140.309	0.289	0.506
-618.346	-200.000	0.020	0.141
-617.332	-126.575	0.257	0.050
-616.317	-121.671	0.141	0.031
-615.303	-200.000	-0.013	0.084
-614.288	-200.000	0.037	0.245
-613.273	-104.369	-0.359	-0.109
-612.259	20.436	-0.417	0.445
-611.244	-57.183	0.530	-0.307
-610.230	-200.000	-0.040	-0.426
-609.215	-200.000	0.048	-0.519
-608.201	5.653	0.287	-0.280
-607.186	-43.580	-0.238	-0.158
-606.171	-80.825	0.330	-0.144
-605.157	20.905	-0.312	0.334
-604.142	262.679	-0.152	-0.350
-603.128	260.609	0.130	-0.299
-602.113	132.650	-0.285	-0.487
-601.098	-200.000	0.006	-0.205
-600.084	-132.620	0.435	0.073
-599.069	-126.168	-0.316	0.062
-598.055	63.125	0.331	-0.439
-597.040	-200.000	0.006	0.413
-596.025	-27.248	0.116	0.089
-595.011	800.000	0.015	-0.082
-593.996	-200.000	0.025	0.468
-592.982	20.902	0.345	0.369
-591.967	-42.843	0.344	0.230
-590.952	-200.000	0.013	-0.217
-589.938	-28.175	-0.253	0.193
-588.923	153.536	-0.218	-0.395
-587.909	86.434	0.080	-0.116
-586.894	-88.647	-0.289	-0.113
-585.879	-83.159	0.365	-0.154
-584.865	-5.868	0.164	-0.148
-583.850	-75.505	0.295	-0.138
-582.836	800.000	0.051	0.218
-581.821	-83.924	0.415	-0.173
-580.806	800.000	-0.095	0.395
-579.792	-99.027	-0.507	0.169
-578.777	372.442	-0.201	-0.542
-577.763	-11.858	-0.296	-0.256
-576.748	574.095	0.204	-0.660
-575.733	-69.781	0.433	0.217
-574.719	31.797	-0.248	-0.282
-573.704	202.571	-0.038	-0.077
-572.690	233.748	-0.067	-0.146
-571.675	-200.000	0.008	-0.050
-570.661	530.688	0.066	-0.207
-569.646	-112.873	-0.280	0.073
-568.631	-185.686	-0.442	0.009
-567.617	-22.111	0.353	-0.282
-566.602	363.500	0.078	-0.207
-565.588	46.535	0.544	-0.666
-564.573	-89.589	0.390	-0.150
-563.558	105.447	-0.102	-0.159
-562.544	223.324	-0.159	0.339
-561.529	-91.104	0.133	-0.050
-560.515	-82.514	0.133	0.057
-559.500	-46.329	-0.257	0.166
-558.485	-99.910	0.537	0.176
-557.471	92.243	-0.232	0.346
-556.456	77.441	-0.190	-0.266
-555.442	-126.444	-0.711	0.138
-554.427	342.915	-0.068	0.177
-553.412	-108.919	0.317	-0.089
-552.398	-94.919	0.381	-0.135
-551.383	800.000	-0.110	-0.420
-550.369	82.750	0.156	-0.223
-549.354	76.517	-0.053	-0.074
-548.339	46.233	-0.121	0.148
-547.325	41.774	-0.354	-0.423
-546.310	-130.139	0.519	0.092
-545.296	-116.040	-0.268	0.065
-544.281	800.000	0.049	0.281
-543.266	284.799	-0.017	0.041
-542.252	-71.352	0.142	-0.070
-541.237	56.354	-0.240	0.308
-540.223	722.431	-0.058	0.205
-539.208	-136.655	0.613	0.092
-538.193	357.669	-0.113	0.298
-537.179	-99.164	-0.055	-0.018
-536.164	800.000	0.067	0.279
-535.150	-200.000	0.025	-0.311
-534.135	-73.836	-0.259	0.124
-533.121	-91.124	0.584	0.219
-532.106	-48.106	-0.237	-0.151
-531.091	52.545	-0.095	0.119
-530.077	-118.221	-0.747	-0.174
-529.062	1.877	-0.048	-0.046
-528.048	-153.655	0.368	0.033
-527.033	21.255	-0.378	-0.405
-526.018	-200.000	0.032	0.604
-525.004	3.068	0.196	0.188
-523.989	139.427	-0.346	0.601
-522.975	-103.747	-0.418	-0.128
-521.960	800.000	-0.032	-0.127
-520.945	-120.258	0.048	-0.011
-519.931	800.000	-0.173	0.839
-518.916	603.671	-0.048	0.157
-517.902	-90.197	-0.365	-0.139
-516.887	-200.000	-0.000	0.115
-515.872	-32.003	0.274	0.201
-514.858	61.081	0.146	-0.191
-513.843	245.566	-0.108	-0.239
-512.829	800.000	-0.076	0.376
-511.814	22.974	0.187	0.202
-510.799	-200.000	0.012	0.092
-509.785	-90.639	0.282	-0.107
-508.770	-141.114	-0.713	0.095
-507.756	-73.066	-0.185	-0.089
-506.741	5.831	-0.423	0.411
-505.726	-152.603	0.191	-0.018
-504.712	-104.956	0.119	0.036
-503.697	-135.145	0.325	0.051
-502.683	212.538	0.167	0.348
-501.668	416.320	-0.070	-0.199
-500.653	-134.719	0.448	-0.071
-499.639	-75.510	0.176	0.082
-498.624	-145.312	-0.509	-0.060
-497.610	147.461	-0.178	-0.316
-496.595	-170.119	0.293	0.013
-495.581	-144.805	-0.627	-0.075
-494.566	-61.922	-0.323	-0.177
-493.551	-200.000	-0.010	-0.071
-492.537	478.978	-0.067	-0.200
-491.522	-118.068	-0.373	0.087
-490.508	49.449	0.092	-0.114
-489.493	-53.252	0.169	-0.102
-488.478	-200.000	-0.016	-0.606
-487.464	72.290	-0.059	-0.081
-486.449	-117.223	-0.635	-0.151
-485.435	-200.000	0.070	-0.509
-484.420	800.000	0.056	0.281
-483.405	-29.840	0.338	0.253
-482.391	5.817	0.153	0.149
-481.376	751.114	0.064	-0.230
-480.362	155.871	-0.038	-0.069
-479.347	-102.330	-0.412	-0.129
-478.332	47.010	-0.073	0.089
-477.318	-135.454	0.555	-0.086
-476.303	-39.383	-0.357	-0.246
-475.289	-19.551	-0.431	-0.350
-474.274	-147.856	0.440	0.048
-473.259	48.208	-0.017	0.020
-472.245	-121.443	-0.316	0.068
-471.230	800.000	0.117	0.497
-470.216	145.098	-0.107	0.189
-469.201	-200.000	-0.021	0.184
-468.186	87.659	0.244	0.355
-467.172	414.212	0.076	0.214
-466.157	-32.051	0.174	-0.128
-465.143	-11.888	0.171	-0.147
-464.128	-200.000	0.009	-0.102
-463.113	116.249	0.018	-0.029
-462.099	84.650	-0.130	-0.188
-461.084	478.972	0.069	0.205
-460.070	-176.460	-0.140	-0.005
-459.055	197.391	0.150	-0.301
-458.040	800.000	0.076	0.287
-457.026	179.107	0.210	0.404
-456.011	315.742	0.152	0.378
-454.997	800.000	-0.131	0.620
-453.982	-61.854	0.210	0.115
-452.968	65.660	0.149	-0.198
-451.953	-188.466	0.239	-0.004
-450.938	334.262	-0.118	-0.301
-449.924	800.000	0.072	-0.325
-448.909	-170.337	-0.559	-0.025
-447.895	800.000	-0.127	-0.494
-446.880	440.558	-0.146	-0.422
-445.865	-200.000	0.002	-0.186
-444.851	-95.576	-0.275	-0.096
-443.836	30.010	-0.249	0.279
-442.822	800.000	-0.053	0.279
-441.807	-32.858	-0.310	0.226
-440.792	-24.542	-0.275	0.214
-439.778	-157.305	-0.166	0.013
-438.763	-200.000	-0.024	0.213
-437.749	-147.889	0.271	0.029
-436.734	132.287	0.052	0.088
-435.719	93.692	0.205	0.304
-434.705	-86.661	0.428	-0.171
-433.690	-200.000	0.114	0.714
-432.676	-126.713	0.318	0.061
-431.661	800.000	0.018	0.078
-430.646	800.000	-0.010	-0.044
-429.632	-47.040	0.075	0.048
-428.617	153.197	0.163	-0.293
-427.603	-84.096	0.290	-0.120
-426.588	16.090	-0.167	-0.173
-425.573	9.675	0.210	0.209
-424.559	542.985	-0.121	0.382
-423.544	708.943	0.107	0.374
-422.530	363.256	-0.080	-0.212
-421.515	207.478	0.200	0.410
-420.500	-28.129	-0.460	0.348
-419.486	-141.268	0.485	0.064
-418.471	-144.725	0.431	-0.051
-417.457	-81.404	0.252	0.108
-416.442	-86.716	0.339	0.135
-415.428	-185.714	0.023	0.000
-414.413	-200.000	-0.028	-0.320
-413.398	-137.971	-0.107	0.015
-412.384	15.946	-0.032	0.033
-411.369	-182.668	-0.383	-0.009
-410.355	-39.190	-0.359	0.247
-409.340	-77.920	0.356	0.160
-408.325	-101.700	-0.627	-0.198
-407.311	525.342	-0.151	0.469
-406.296	176.878	-0.084	0.160
-405.282	-13.446	0.322	-0.274
-404.267	157.187	-0.272	0.494
-403.252	-200.000	0.048	0.283
-402.238	-69.877	0.295	0.147
-401.223	-36.397	-0.125	-0.088
-400.209	-95.890	-0.703	-0.244
-399.194	240.654	0.313	-0.686
-398.179	194.856	0.067	-0.134
-397.165	-170.658	-0.435	0.019
-396.150	-174.774	-0.212	-0.008
-395.136	712.919	-0.036	-0.127
-394.121	-63.267	-0.136	0.073
-393.106	-40.788	-0.229	0.155
-392.092	-86.441	-0.660	0.264
-391.077	-3.109	0.287	0.262
-390.063	-110.336	-0.142	-0.038
-389.048	800.000	0.104	0.447
-388.033	-200.000	-0.009	-0.169
-387.019	-80.738	-0.249	0.108
-386.004	-82.550	0.147	0.062
-384.990	-29.219	-0.300	0.225
-383.975	579.907	0.100	-0.323
-382.960	-123.486	0.520	0.107
-381.946	-139.383	0.463	0.064
-380.931	-84.303	-0.416	0.172
-379.917	326.726	0.138	0.347
-378.902	-133.341	-0.237	-0.039
-377.888	23.810	-0.174	-0.187
-376.873	-35.626	-0.238	-0.169
-375.858	112.243	0.312	-0.494
-374.844	-109.263	0.383	-0.106
-373.829	-107.579	-0.213	0.060
-372.815	120.482	-0.079	-0.129
-371.800	-38.957	0.278	-0.191
-370.785	-155.063	-0.301	0.025
-369.771	36.619	0.034	0.039
-368.756	-85.691	-0.181	-0.073
-367.742	-20.496	0.175	0.140
-366.727	397.410	0.105	0.287
-365.712	-122.527	-0.511	-0.108
-364.698	143.738	0.335	0.585
-363.683	800.000	0.090	-0.514
-362.669	5.997	-0.316	0.306
-361.654	-112.342	-0.429	-0.112
-360.639	465.471	-0.099	-0.291
-359.625	65.238	-0.212	-0.281
-358.610	40.462	0.309	-0.364
-357.596	-97.816	0.146	-0.049
-356.581	-149.401	-0.518	0.053
-355.566	-141.778	-0.190	-0.025
-354.552	-80.591	-0.137	-0.059
-353.537	-105.059	-0.414	-0.123
-352.523	800.000	-0.063	-0.296
-351.508	167.644	0.212	-0.396
-350.493	-69.611	-0.082	-0.041
-349.479	-200.000	0.016	0.211
-348.464	-44.100	-0.233	-0.153
-347.450	-54.207	0.459	0.272
-346.435	-64.215	-0.108	-0.057
-345.420	-123.300	-0.337	0.070
-344.406	800.000	0.155	0.571
-343.391	800.000	0.126	0.474
-342.377	-200.000	-0.034	-0.231
-341.362	-42.210	0.314	0.210
-340.348	304.579	0.074	0.181
-339.333	-134.082	0.418	0.067
-338.318	-91.799	0.039	0.014
-337.304	16.311	0.317	-0.327
-336.289	188.625	0.094	-0.185
-335.275	16.113	-0.121	-0.125
-334.260	-79.298	0.254	-0.112
-333.245	-200.000	-0.036	-0.462
-332.231	-100.043	0.720	-0.233
-331.216	3.951	0.565	0.539
-330.202	26.918	0.320	-0.351
-329.187	-128.240	-0.214	-0.040
-328.172	112.158	-0.073	-0.116
-327.158	-86.467	0.238	0.095
-326.143	-149.030	0.089	-0.009
-325.129	439.221	0.259	0.743
-324.114	800.000	0.098	0.413
-323.099	-58.422	0.235	0.133
-322.085	10.051	0.227	0.225
-321.070	-30.316	0.409	-0.303
-320.056	-34.528	-0.578	0.412
-319.041	3.638	0.166	-0.158
-318.026	-200.000	0.023	0.374
-317.012	-67.210	0.186	-0.096
-315.997	800.000	-0.112	-0.557
-314.983	-18.478	-0.161	0.131
-313.968	99.550	0.109	0.164
-312.953	186.884	0.112	0.218
-311.939	63.581	-0.321	-0.421
-310.924	-2.558	0.443	0.405
-309.910	203.647	0.084	-0.171
-308.895	78.932	0.118	0.165
-307.880	76.827	0.133	0.185
-306.866	155.402	-0.232	0.418
-305.851	-170.078	-0.384	-0.018
-304.837	407.056	-0.065	0.181
-303.822	-13.343	0.440	0.373
-302.807	-155.181	0.425	0.036
-301.793	-75.267	0.509	0.236
-300.778	371.309	0.024	0.064
-299.764	-78.196	0.224	0.100
-298.749	-3.137	-0.296	0.269
-297.735	-101.388	-0.173	-0.055
-296.720	-69.968	0.128	-0.063
-295.705	800.000	0.057	-0.285
-294.691	-24.334	-0.213	-0.165
-293.676	-200.000	-0.016	0.159
-292.662	161.294	0.198	-0.362
-291.647	-93.689	-0.287	-0.103
-290.632	-121.344	-0.415	-0.090
-289.618	120.801	0.136	-0.220
-288.603	553.882	0.031	-0.097
-287.589	-200.000	-0.058	0.342
-286.574	-126.704	-0.381	0.073
-285.559	507.773	-0.017	-0.053
-284.545	-121.776	-0.484	0.103
-283.530	330.342	0.025	-0.064
-282.516	548.072	-0.173	0.544
-281.501	16.547	0.337	0.347
-280.486	366.635	-0.047	-0.123
-279.472	134.053	0.090	0.152
-278.457	-55.893	-0.240	0.139
-277.443	-154.423	-0.173	0.015
-276.428	218.504	-0.094	-0.196
-275.413	-41.245	-0.516	-0.346
-274.399	227.080	-0.075	0.159
-273.384	221.186	-0.213	-0.446
-272.370	-160.197	0.455	0.032
-271.355	-72.618	-0.135	-0.065
-270.340	-200.000	-0.003	0.226
-269.326	29.688	0.135	0.150
-268.311	-34.937	0.110	0.078
-267.297	-93.100	0.491	0.177
-266.282	726.407	0.118	0.412
-265.267	-42.314	0.255	0.169
-264.253	-92.512	-0.262	0.095
-263.238	-0.471	-0.037	-0.034
-262.224	-200.000	-0.010	0.102
-261.209	-133.539	0.059	-0.010
-260.195	15.068	0.209	-0.213
-259.180	0.129	-0.144	-0.134
-258.165	-45.388	-0.330	-0.213
-257.151	800.000	0.159	-0.682
-256.136	-200.000	-0.009	0.182
-255.122	52.604	-0.118	0.148
-254.107	177.588	0.468	-0.892
-253.092	186.973	0.143	0.279
-252.078	43.421	-0.219	-0.261
-251.063	66.663	-0.313	-0.416
-250.049	167.802	0.110	-0.204
-249.034	-11.244	0.165	0.141
-248.019	-21.601	0.180	-0.142
-247.005	800.000	0.079	-0.391
-245.990	585.701	-0.052	-0.169
-244.976	-20.102	-0.328	0.263
-243.961	291.250	0.118	0.280
-242.946	-200.000	0.050	0.308
-241.932	16.144	0.321	0.330
-240.917	-60.586	0.502	-0.276
-239.903	-111.191	-0.296	0.078
-238.888	195.076	0.274	-0.543
-237.873	221.073	0.122	0.256
-236.859	99.215	0.080	0.120
-235.844	800.000	-0.040	0.194
-234.830	51.282	0.132	0.163
-233.815	-130.948	-0.139	0.024
-232.800	-115.662	0.333	0.081
-231.786	-102.477	0.084	0.026
-230.771	-45.772	-0.371	0.238
-229.757	8.450	-0.216	-0.211
-228.742	25.571	0.313	-0.339
-227.727	-107.607	-0.207	-0.059
-226.713	533.517	-0.236	0.732
-225.698	-112.378	0.242	0.062
-224.684	-200.000	0.014	-0.418
-223.669	169.234	0.153	0.285
-222.655	31.834	-0.321	-0.360
-221.640	123.104	0.140	-0.229
-220.625	44.147	-0.391	-0.467
-219.611	34.494	0.274	-0.311
-218.596	157.018	-0.022	0.039
-217.582	-63.338	0.435	0.232
-216.567	-5.173	0.253	-0.227
-215.552	-19.955	-0.247	0.198
-214.538	-17.923	-0.441	0.359
-213.523	-95.982	0.435	0.150
-212.509	-102.876	0.335	0.103
-211.494	332.944	-0.154	-0.388
-210.479	-91.302	-0.411	0.152
-209.465	-40.891	-0.278	-0.187
-208.450	-37.385	0.171	0.118
-207.436	1.225	0.306	-0.285
-206.421	20.295	0.217	0.228
-205.406	215.487	-0.099	0.204
-204.392	133.903	-0.426	-0.719
-203.377	-9.531	0.172	0.149
-202.363	19.359	-0.311	0.324
-201.348	-62.115	0.318	-0.172
-200.333	800.000	0.026	0.132
-199.319	-171.726	0.150	0.006
-198.304	-172.998	0.232	0.009
-197.290	-3.275	0.206	0.186
-196.275	800.000	0.036	-0.148
-195.260	-125.032	-0.517	-0.102
-194.246	47.580	-0.170	-0.206
-193.231	336.238	0.104	-0.264
-192.217	102.036	0.025	0.038
-191.202	-200.000	0.062	-0.446
-190.187	554.543	-0.162	-0.511
-189.173	-172.883	-0.236	-0.009
-188.158	-91.956	-0.665	0.243
-187.144	-82.136	-0.157	0.066
-186.129	-174.640	0.085	0.003
-185.114	-200.000	-0.017	0.144
-184.100	275.944	-0.109	0.253
-183.085	800.000	-0.204	0.738
-182.071	800.000	-0.051	0.241
-181.056	28.664	0.096	0.106
-180.042	-200.000	-0.016	-0.187
-179.027	-79.117	0.365	0.160
-178.012	-84.577	-0.166	-0.068
-176.998	-158.424	-0.337	0.025
-175.983	83.570	0.110	0.156
-174.969	564.439	0.175	-0.555
-173.954	341.242	-0.272	-0.694
-172.939	-152.934	0.268	0.024
-171.925	-19.577	-0.186	0.149
-170.910	48.556	-0.264	0.321
-169.896	-29.508	-0.256	0.190
-168.881	-89.337	-0.207	-0.079
-167.866	-15.655	0.567	-0.469
-166.852	-78.270	-0.383	-0.170
-165.837	69.319	0.112	0.149
-164.823	41.095	-0.354	-0.415
-163.808	-40.356	0.021	-0.014
-162.793	-200.000	0.030	0.352
-161.779	-71.811	0.263	0.127
-160.764	-200.000	0.007	0.057
-159.750	-200.000	0.005	-0.266
-158.735	800.000	-0.043	-0.169
-157.720	321.844	0.225	0.557
-156.706	-60.273	-0.147	-0.081
-155.691	-129.449	-0.226	0.040
-154.677	113.223	0.247	0.389
-153.662	-72.183	-0.211	0.101
-152.647	29.208	-0.171	-0.189
-151.633	800.000	0.039	0.149
-150.618	-116.728	0.477	-0.113
-149.604	-61.046	-0.126	-0.069
-148.589	-88.026	0.347	0.134
-147.574	20.986	0.301	0.317
-146.560	451.351	-0.088	-0.253
-145.545	800.000	0.039	0.179
-144.531	277.082	0.099	-0.229
-143.516	-86.276	-0.259	-0.103
-142.502	800.000	0.129	0.470
-141.487	-144.729	0.440	0.052
-140.472	325.748	-0.193	-0.482
-139.458	423.723	0.104	0.292
-138.443	8.309	-0.241	0.235
-137.429	-48.821	0.191	0.119
-136.414	226.251	0.223	0.470
-135.399	1.270	0.478	0.445
-134.385	-200.000	-0.046	-0.344
-133.370	-87.204	0.191	-0.075
-132.356	8.047	0.323	-0.314
-131.341	484.708	0.244	-0.724
-130.326	-35.733	0.309	-0.217
-129.312	251.706	0.034	-0.074
-128.297	27.693	0.311	-0.339
-127.283	-200.000	-0.056	-0.415
-126.268	-22.061	0.282	-0.221
-125.253	-90.558	0.173	0.065
-124.239	800.000	-0.057	-0.218
-123.224	264.411	-0.192	-0.435
-122.210	236.638	0.060	-0.129
-121.195	-62.824	0.247	-0.132
-120.180	-175.860	0.330	0.011
-119.166	-200.000	0.004	0.244
