DTS Sentinel unit serial number:	SN409020Multiplexer serial number:	ORYXHardware model number:	OX4-SRSoftware version number:	ORYX F/W v3.00 Oryx Data Collector v3.7.2.0data status	okinstallation	HaddamTimeLapsedifferential loss correction	single-endedforward channel	channel 3reverse channel	N/Adate	2011/06/21time	19:56:16forward acquisition time	30.00reverse acquisition time	0.00gamma	498.7831k internal	0.1789k external	0.1789temperature offset calibration	1.0074default loss term (dB/km)	0.3790temperature slope calibration	1.3530multiplexer offset coefficient	1.0000multiplexer slope coefficient	1.0000fibre end	0.00T internal ref (°C)	32.72T ext. ref 1 (°C)	24.25T ext. ref 2 (°C)	0.02length (m)	temperature (°C)	Stokes	anti-Stokes-747.200	800.000	-0.089	-0.335
-746.185	800.000	-0.088	-0.327
-745.171	-44.171	-0.384	-0.250
-744.156	-5.651	-0.210	-0.187
-743.142	6.081	-0.196	-0.189
-742.127	-200.000	0.023	0.153
-741.112	2.402	0.267	-0.251
-740.098	377.339	0.160	0.427
-739.083	290.005	0.249	-0.589
-738.069	-200.000	0.039	0.487
-737.054	78.044	0.309	-0.429
-736.039	752.197	-0.092	-0.326
-735.025	-81.319	0.371	0.158
-734.010	-36.859	0.106	-0.074
-732.996	383.111	0.110	-0.296
-731.981	-127.250	0.213	0.040
-730.966	115.286	-0.194	-0.308
-729.952	-83.184	-0.119	-0.050
-728.937	-93.539	0.619	-0.221
-727.923	-71.386	-0.656	0.318
-726.908	-53.977	-0.272	0.160
-725.894	800.000	-0.026	0.102
-724.879	-102.547	0.579	-0.179
-723.864	139.186	0.048	0.082
-722.850	355.174	0.105	-0.274
-721.835	43.281	-0.355	0.422
-720.821	-116.975	0.537	-0.127
-719.806	23.633	0.298	0.318
-718.791	611.154	0.143	-0.468
-717.777	-115.398	-0.323	-0.079
-716.762	-33.753	0.195	0.139
-715.748	29.084	0.331	0.365
-714.733	-9.358	0.333	0.288
-713.718	98.776	-0.307	-0.461
-712.704	-179.878	-0.205	-0.006
-711.689	-200.000	-0.031	-0.275
-710.675	800.000	-0.073	-0.374
-709.660	-138.635	0.316	-0.044
-708.645	-33.869	0.227	0.162
-707.631	-200.000	-0.011	-0.317
-706.616	-116.293	-0.235	-0.056
-705.602	326.774	-0.132	-0.331
-704.587	-148.833	0.365	0.038
-703.572	-125.621	-0.127	0.025
-702.558	-110.181	-0.292	0.079
-701.543	-183.156	0.350	-0.008
-700.529	-79.806	-0.246	-0.107
-699.514	94.914	0.044	0.065
-698.499	178.906	0.201	-0.382
-697.485	655.626	-0.090	-0.302
-696.470	-200.000	0.010	-0.247
-695.456	800.000	-0.052	0.248
-694.441	62.426	0.143	0.186
-693.426	-25.938	0.401	0.306
-692.412	-143.201	0.211	0.026
-691.397	-33.371	0.341	0.244
-690.383	-200.000	0.011	0.130
-689.368	-73.632	0.233	-0.110
-688.354	155.530	0.137	-0.245
-687.339	-72.350	0.287	-0.137
-686.324	-124.121	-0.130	-0.026
-685.310	800.000	0.019	-0.075
-684.295	1.763	0.106	0.099
-683.281	-91.457	-0.465	-0.171
-682.266	-167.380	-0.321	0.016
-681.251	29.505	-0.542	0.597
-680.237	-116.145	0.435	0.104
-679.222	-77.273	0.121	0.054
-678.208	31.025	-0.371	0.412
-677.193	800.000	-0.167	0.667
-676.178	-166.147	0.432	0.023
-675.164	-134.449	0.363	0.057
-674.149	47.585	-0.246	-0.298
-673.135	-200.000	0.028	-0.238
-672.120	227.310	0.166	-0.350
-671.105	-18.361	0.351	-0.284
-670.091	-200.000	0.008	0.221
-669.076	-136.837	0.295	0.044
-668.062	-81.803	-0.087	0.037
-667.047	-24.373	-0.327	-0.253
-666.032	69.771	-0.176	-0.235
-665.018	254.632	0.081	-0.181
-664.003	50.123	0.119	-0.146
-662.989	-200.000	-0.036	0.233
-661.974	800.000	-0.027	-0.134
-660.959	-137.462	-0.096	0.014
-659.945	5.057	0.107	-0.102
-658.930	93.078	-0.222	0.325
-657.916	-39.764	0.385	-0.260
-656.901	-80.203	0.300	-0.130
-655.886	-20.864	-0.295	0.234
-654.872	800.000	-0.059	-0.263
-653.857	98.115	0.016	-0.024
-652.843	113.529	0.144	-0.227
-651.828	-200.000	0.019	-0.362
-650.814	-88.966	0.196	0.075
-649.799	-122.141	0.424	-0.089
-648.784	800.000	0.116	0.636
-647.770	216.511	0.159	-0.328
-646.755	33.696	0.140	-0.157
-645.741	342.721	-0.260	-0.661
-644.726	-200.000	-0.003	0.274
-643.711	-200.000	0.021	0.258
-642.697	578.832	0.155	-0.495
-641.682	6.124	-0.333	0.320
-640.668	96.362	0.071	0.105
-639.653	-56.895	-0.372	-0.212
-638.638	365.047	-0.105	0.276
-637.624	-200.000	0.009	-0.258
-636.609	278.417	0.146	0.337
-635.595	-8.611	-0.459	0.399
-634.580	-80.859	-0.435	-0.186
-633.565	39.641	-0.124	0.144
-632.551	-18.084	-0.159	0.129
-631.536	205.510	-0.094	-0.190
-630.522	-200.000	-0.006	-0.289
-629.507	17.852	-0.323	0.333
-628.492	-0.408	0.242	-0.223
-627.478	510.064	0.076	0.231
-626.463	-200.000	0.002	0.183
-625.449	-151.143	-0.136	-0.013
-624.434	647.054	-0.132	0.438
-623.419	-72.631	0.365	0.173
-622.405	-89.011	0.410	0.156
-621.390	-157.336	0.240	-0.018
-620.376	-137.973	0.274	-0.039
-619.361	-161.872	0.545	0.035
-618.346	-200.000	0.086	-0.508
-617.332	61.117	0.202	-0.259
-616.317	30.336	0.202	0.223
-615.303	221.788	0.227	-0.473
-614.288	-159.231	-0.392	-0.028
-613.273	678.167	0.030	0.101
-612.259	134.990	0.317	-0.535
-611.244	552.862	0.180	-0.561
-610.230	800.000	0.013	0.053
-609.215	-0.260	0.121	0.111
-608.201	168.548	0.105	0.193
-607.186	406.244	-0.126	-0.346
-606.171	-111.141	0.276	0.073
-605.157	54.082	-0.054	-0.068
-604.142	33.819	-0.090	-0.101
-603.128	-200.000	-0.037	0.322
-602.113	800.000	0.117	0.431
-601.098	-55.897	-0.383	-0.220
-600.084	55.253	-0.128	-0.160
-599.069	127.284	0.376	0.618
-598.055	362.841	0.103	0.267
-597.040	-200.000	-0.006	-0.224
-596.025	-173.956	-0.298	-0.011
-595.011	304.415	-0.101	0.244
-593.996	643.290	-0.159	-0.527
-592.982	-200.000	0.023	-0.244
-591.967	65.882	-0.305	-0.400
-590.952	586.868	0.037	-0.119
-589.938	240.310	-0.022	-0.048
-588.923	-133.399	-0.425	0.068
-587.909	-77.852	-0.218	-0.097
-586.894	-94.062	0.197	0.069
-585.879	-165.641	-0.190	-0.010
-584.865	-75.176	-0.095	-0.043
-583.850	48.015	0.242	-0.292
-582.836	272.515	-0.191	-0.436
-581.821	-173.545	0.322	-0.012
-580.806	-184.467	-0.504	-0.010
-579.792	49.997	-0.170	-0.207
-578.777	-200.000	0.026	-0.352
-577.763	-156.025	-0.576	0.046
-576.748	-200.000	-0.030	-0.172
-575.733	-139.848	0.215	-0.029
-574.719	-74.592	-0.115	0.053
-573.704	321.805	0.121	-0.299
-572.690	499.241	-0.132	0.396
-571.675	-117.049	0.256	0.060
-570.661	354.857	-0.080	-0.206
-569.646	-79.385	0.064	-0.028
-568.631	137.923	0.417	-0.706
-567.617	256.720	-0.186	-0.414
-566.602	-27.422	0.607	0.455
-565.588	-92.525	-0.447	-0.161
-564.573	-200.000	-0.029	0.196
-563.558	-200.000	0.073	0.499
-562.544	151.711	0.147	0.259
-561.529	234.881	0.177	0.378
-560.515	-79.825	-0.130	0.056
-559.500	679.662	-0.136	-0.459
-558.485	-92.806	0.385	0.138
-557.471	-85.245	-0.336	-0.135
-556.456	-107.609	0.312	-0.087
-555.442	-27.318	-0.220	-0.165
-554.427	-200.000	-0.014	0.356
-553.412	47.948	0.064	0.077
-552.398	-104.519	-0.363	-0.108
-551.383	-113.491	-0.293	-0.074
-550.369	155.739	-0.235	0.419
-549.354	-129.269	0.168	0.030
-548.339	-200.000	-0.007	0.364
-547.325	-72.167	-0.291	0.139
-546.310	-127.593	-0.479	0.089
-545.296	800.000	0.024	-0.093
-544.281	289.968	-0.042	-0.099
-543.266	-200.000	-0.008	0.074
-542.252	-109.859	0.147	-0.040
-541.237	299.983	-0.139	-0.332
-540.223	302.093	0.110	0.263
-539.208	-125.748	-0.201	0.039
-538.193	-90.310	0.079	0.029
-537.179	52.689	-0.055	0.068
-536.164	800.000	0.022	0.111
-535.150	-55.445	0.144	-0.083
-534.135	66.402	-0.181	-0.237
-533.121	-85.971	-0.417	-0.165
-532.106	-83.726	-0.543	-0.222
-531.091	-15.125	0.082	-0.068
-530.077	44.055	-0.178	0.211
-529.062	-107.334	-0.452	-0.127
-528.048	-200.000	0.027	-0.418
-527.033	-200.000	-0.034	0.288
-526.018	28.195	0.210	0.228
-525.004	270.643	-0.115	-0.262
-523.989	88.120	0.187	0.268
-522.975	-122.697	-0.292	0.060
-521.960	-200.000	0.011	0.098
-520.945	-52.796	0.223	0.132
-519.931	-193.542	-0.245	-0.003
-518.916	309.649	-0.113	0.274
-517.902	-184.045	-0.343	0.007
-516.887	-3.186	0.041	0.036
-515.872	46.062	-0.085	-0.101
-514.858	244.392	0.144	0.312
-513.843	-77.396	-0.377	0.168
-512.829	-0.769	-0.374	-0.342
-511.814	-200.000	-0.001	0.259
-510.799	-147.479	0.446	0.048
-509.785	-134.888	0.317	0.049
-508.770	-9.601	0.065	0.056
-507.756	-185.502	0.402	0.008
-506.741	355.357	0.029	-0.076
-505.726	800.000	0.041	-0.227
-504.712	42.952	0.091	0.107
-503.697	-39.987	0.276	-0.185
-502.683	-78.053	-0.160	-0.071
-501.668	390.988	0.124	0.334
-500.653	-200.000	0.001	0.619
-499.639	-200.000	0.056	-0.466
-498.624	58.910	0.199	-0.252
-497.610	-53.480	0.233	0.137
-496.595	-16.226	0.290	0.237
-495.581	95.454	0.347	0.510
-494.566	-200.000	-0.002	0.068
-493.551	-200.000	-0.044	-0.347
-492.537	-68.099	0.229	-0.114
-491.522	24.773	0.260	-0.277
-490.508	172.989	-0.113	0.211
-489.493	204.999	0.168	-0.337
-488.478	-190.281	-0.492	0.007
-487.464	554.591	-0.128	0.400
-486.449	-200.000	-0.034	0.430
-485.435	96.025	-0.262	0.386
-484.420	9.339	0.242	-0.235
-483.405	109.520	0.186	0.288
-482.391	-87.058	0.362	-0.141
-481.376	-139.403	0.056	-0.008
-480.362	61.276	0.331	-0.424
-479.347	-70.539	-0.685	0.332
-478.332	-19.085	0.206	0.164
-477.318	-200.000	-0.012	0.080
-476.303	-169.176	0.134	0.006
-475.289	800.000	0.049	0.211
-474.274	9.054	0.182	0.176
-473.259	-12.395	-0.177	-0.148
-472.245	-92.156	-0.512	-0.185
-471.230	-80.621	-0.173	-0.074
-470.216	296.976	0.037	0.089
-469.201	-200.000	0.033	0.204
-468.186	94.785	-0.216	0.316
-467.172	-120.580	0.324	-0.070
-466.157	89.737	-0.166	0.238
-465.143	-33.342	-0.371	0.264
-464.128	133.963	-0.145	0.242
-463.113	158.894	0.217	-0.390
-462.099	-105.086	0.270	-0.079
-461.084	-134.126	-0.245	0.039
-460.070	-68.263	-0.122	-0.061
-459.055	-16.740	0.265	-0.215
-458.040	800.000	-0.075	0.371
-457.026	30.596	-0.055	-0.061
-456.011	238.657	-0.158	-0.339
-454.997	-200.000	-0.055	0.321
-453.982	-16.824	0.240	0.194
-452.968	-158.525	-0.155	-0.011
-451.953	-36.886	-0.398	-0.274
-450.938	33.210	0.127	-0.142
-449.924	247.196	0.053	0.115
-448.909	-59.606	0.230	-0.126
-447.895	86.323	0.282	-0.400
-446.880	-123.080	0.081	0.017
-445.865	-83.657	0.245	0.100
-444.851	-200.000	0.026	-0.357
-443.836	208.754	0.168	0.338
-442.822	49.032	0.270	-0.326
-441.807	568.217	0.057	-0.179
-440.792	-103.732	0.269	0.080
-439.778	28.787	0.373	0.406
-438.763	9.308	-0.173	0.168
-437.749	-100.640	-0.064	0.020
-436.734	27.208	0.144	0.155
-435.719	309.528	-0.224	0.541
-434.705	800.000	-0.033	0.138
-433.690	800.000	0.034	0.148
-432.676	504.622	-0.037	-0.111
-431.661	536.138	-0.093	0.284
-430.646	-200.000	0.005	-0.368
-429.632	-44.692	-0.038	0.024
-428.617	-138.647	0.548	-0.076
-427.603	-33.058	0.116	0.082
-426.588	87.291	0.132	0.188
-425.573	551.305	-0.071	0.219
-424.559	-134.242	-0.804	0.126
-423.544	-183.816	0.175	-0.004
-422.530	-130.565	-0.244	0.042
-421.515	93.058	0.100	0.146
-420.500	479.920	0.089	-0.259
-419.486	-133.401	-0.505	0.081
-418.471	-99.857	-0.026	0.008
-417.457	-200.000	-0.027	-0.390
-416.442	-157.411	0.097	0.007
-415.428	-148.891	0.587	0.060
-414.413	-200.000	0.087	0.569
-413.398	-10.518	0.251	-0.213
-412.384	-54.791	0.286	0.165
-411.369	87.507	-0.158	0.224
-410.355	267.023	-0.184	-0.415
-409.340	9.878	0.030	-0.029
-408.325	464.567	-0.019	-0.055
-407.311	-129.135	0.282	0.050
-406.296	151.822	0.258	0.453
-405.282	-8.238	-0.197	0.170
-404.267	-125.264	0.107	-0.021
-403.252	-169.584	-0.160	-0.007
-402.238	50.336	-0.105	-0.127
-401.223	-146.355	0.634	-0.070
-400.209	272.345	0.073	-0.166
-399.194	29.196	0.113	0.123
-398.179	-88.595	0.127	0.048
-397.165	800.000	-0.113	-0.588
-396.150	-70.297	0.131	-0.064
-395.136	-70.688	0.122	0.059
-394.121	-200.000	0.001	-0.127
-393.106	-200.000	0.007	0.186
-392.092	-170.974	0.429	0.018
-391.077	20.468	0.412	-0.427
-390.063	15.471	0.147	-0.148
-389.048	19.793	0.218	0.225
-388.033	-77.775	0.046	0.020
-387.019	399.304	0.159	-0.429
-386.004	-114.102	0.506	-0.125
-384.990	288.682	0.088	-0.206
-383.975	-29.427	0.425	-0.311
-382.960	-168.711	0.287	0.014
-381.946	-72.592	0.458	-0.216
-380.931	-32.799	-0.093	-0.066
-379.917	-200.000	-0.015	0.261
-378.902	-172.166	-0.620	-0.025
-377.888	-26.531	0.305	0.229
-376.873	248.273	-0.045	0.097
-375.858	35.678	-0.153	0.173
-374.844	-200.000	-0.006	-0.410
-373.829	206.356	-0.151	0.302
-372.815	-200.000	-0.054	-0.402
-371.800	-200.000	0.014	-0.143
-370.785	-54.113	-0.300	0.174
-369.771	-121.879	0.207	-0.043
-368.756	-130.288	0.344	0.059
-367.742	-71.745	0.116	-0.055
-366.727	-200.000	0.025	0.221
-365.712	152.480	-0.111	-0.195
-364.698	532.407	0.170	-0.518
-363.683	172.847	0.084	-0.156
-362.669	-59.282	0.430	0.236
-361.654	258.533	0.112	0.248
-360.639	126.817	-0.285	0.463
-359.625	179.621	0.068	0.127
-358.610	70.500	0.157	0.208
-357.596	268.138	0.147	-0.332
-356.581	-130.721	-0.160	0.027
-355.566	-165.726	0.387	0.021
-354.552	-9.986	0.064	-0.054
-353.537	20.970	-0.080	0.083
-352.523	-115.054	0.246	0.059
-351.508	-131.394	0.355	0.059
-350.493	-149.230	-0.353	-0.036
-349.479	46.645	0.281	-0.334
-348.464	696.870	0.020	-0.068
-347.450	161.748	0.209	-0.375
-346.435	-45.559	0.333	-0.210
-345.420	-137.924	-0.268	0.038
-344.406	800.000	-0.132	0.570
-343.391	70.712	-0.187	0.248
-342.377	-68.959	-0.447	0.220
-341.362	-147.450	-0.337	-0.036
-340.348	-22.909	-0.319	0.246
-339.333	-200.000	0.037	0.515
-338.318	-200.000	-0.024	0.832
-337.304	-41.983	-0.446	0.291
-336.289	800.000	-0.047	-0.244
-335.275	74.302	0.201	-0.270
-334.260	23.962	-0.169	-0.178
-333.245	800.000	0.049	-0.234
-332.231	-78.793	0.412	0.179
-331.216	-200.000	0.041	-0.387
-330.202	152.215	0.188	0.328
-329.187	190.927	-0.115	0.222
-328.172	-99.989	-0.404	-0.128
-327.158	-29.558	-0.528	-0.385
-326.143	-33.894	-0.189	0.133
-325.129	-171.034	-0.505	-0.022
-324.114	-138.276	-0.770	0.108
-323.099	-10.180	-0.264	-0.224
-322.085	163.269	0.070	0.126
-321.070	-70.717	-0.320	-0.154
-320.056	187.250	-0.134	-0.256
-319.041	73.897	-0.137	0.184
-318.026	-155.771	-0.608	-0.049
-317.012	-22.380	-0.457	-0.353
-315.997	-86.279	-0.408	-0.160
-314.983	-143.805	0.409	0.049
-313.968	-192.510	-0.174	0.002
-312.953	-52.163	-0.154	-0.091
-311.939	-179.749	-0.336	0.009
-310.924	-133.682	-0.108	-0.017
-309.910	5.506	0.355	-0.335
-308.895	-16.488	-0.023	-0.018
-307.880	362.715	-0.152	0.391
-306.866	800.000	-0.069	0.272
-305.851	106.756	0.242	-0.367
-304.837	165.056	-0.138	-0.250
-303.822	-104.364	0.322	0.095
-302.807	-112.276	-0.579	-0.147
-301.793	-23.177	0.149	-0.114
-300.778	-10.352	0.501	0.424
-299.764	-200.000	0.006	0.330
-298.749	-4.922	-0.091	-0.080
-297.735	76.618	0.259	-0.352
-296.720	800.000	0.034	0.155
-295.705	199.631	-0.015	-0.029
-294.691	-78.514	-0.290	-0.126
-293.676	-54.591	-0.199	0.115
-292.662	55.464	0.075	0.093
-291.647	-13.798	-0.126	0.104
-290.632	-9.734	-0.253	0.215
-289.618	-18.461	-0.271	-0.216
-288.603	4.026	0.305	0.285
-287.589	-141.068	0.053	0.007
-286.574	-67.452	0.168	-0.084
-285.559	-116.094	-0.031	-0.007
-284.545	-113.143	0.045	-0.011
-283.530	772.572	0.195	0.683
-282.516	-96.820	-0.264	0.088
-281.501	101.388	-0.022	-0.033
-280.486	220.661	0.248	-0.509
-279.472	-8.499	0.289	0.248
-278.457	-186.023	-0.081	-0.001
-277.443	-170.853	-0.427	-0.018
-276.428	6.592	-0.378	-0.358
-275.413	66.337	0.261	0.339
-274.399	-106.038	-0.305	0.087
-273.384	269.714	-0.203	0.457
-272.370	-104.862	0.595	0.173
-271.355	-160.751	0.508	-0.034
-270.340	-45.397	0.267	-0.168
-269.326	-99.913	-0.347	0.110
-268.311	86.025	0.162	-0.228
-267.297	281.288	0.213	-0.489
-266.282	5.552	-0.168	0.159
-265.267	24.131	-0.183	0.192
-264.253	-116.148	-0.679	-0.160
-263.238	5.203	0.047	0.044
-262.224	-141.224	0.405	-0.052
-261.209	-87.580	0.213	0.082
-260.195	-200.000	0.030	0.209
-259.180	-168.353	0.432	-0.021
-258.165	-133.019	0.192	0.031
-257.151	-40.375	0.218	0.144
-256.136	285.605	0.101	-0.233
-255.122	-50.440	-0.323	-0.194
-254.107	-200.000	-0.063	-0.361
-253.092	-112.530	0.371	0.094
-252.078	-78.030	0.168	-0.074
-251.063	329.475	0.037	-0.091
-250.049	322.289	-0.025	-0.060
-249.034	800.000	-0.049	0.223
-248.019	133.802	0.111	0.183
-247.005	-19.346	-0.026	-0.020
-245.990	-200.000	0.004	0.221
-244.976	-74.095	0.315	0.145
-243.961	-200.000	-0.013	-0.272
-242.946	-115.018	0.455	0.109
-241.932	95.137	0.244	0.355
-240.917	-116.570	-0.270	-0.063
-239.903	-94.553	-0.417	-0.144
-238.888	-137.026	0.041	0.006
-237.873	320.795	-0.064	-0.155
-236.859	67.396	0.065	0.085
-235.844	-18.598	0.233	-0.185
-234.830	-121.090	-0.119	-0.025
-233.815	-36.983	-0.223	0.152
-232.800	-121.184	-0.364	-0.077
-231.786	-25.493	0.495	0.372
-230.771	-82.822	-0.258	-0.106
-229.757	800.000	0.083	0.382
-228.742	-130.815	0.129	0.022
-227.727	800.000	0.049	0.277
-226.713	-32.386	-0.124	0.088
-225.698	-200.000	-0.058	-0.447
-224.684	221.581	-0.060	0.122
-223.669	-93.539	-0.275	-0.096
-222.655	267.793	-0.061	-0.136
-221.640	-84.668	-0.218	-0.087
-220.625	-200.000	0.021	-0.294
-219.611	-200.000	-0.041	-0.326
-218.596	88.430	0.316	-0.447
-217.582	178.729	0.176	0.328
-216.567	144.456	-0.062	-0.107
-215.552	-112.396	0.394	-0.100
-214.538	-58.538	0.373	-0.206
-213.523	800.000	-0.048	0.213
-212.509	-61.038	0.138	0.074
-211.494	381.178	-0.097	-0.254
-210.479	-94.415	0.340	-0.118
-209.465	-83.173	0.267	-0.109
-208.450	39.539	-0.145	-0.165
-207.436	-42.465	0.110	-0.071
-206.421	-31.753	-0.305	-0.217
-205.406	-129.105	-0.278	-0.049
-204.392	119.536	-0.256	0.404
-203.377	800.000	-0.112	0.483
-202.363	99.905	0.156	-0.231
-201.348	-137.694	-0.500	-0.071
-200.333	-58.344	-0.471	-0.260
-199.319	-53.840	0.179	-0.104
-198.304	105.648	-0.072	-0.108
-197.290	-200.000	0.009	-0.164
-196.275	62.095	-0.157	0.199
-195.260	35.567	-0.298	0.333
-194.246	-200.000	-0.009	-0.295
-193.231	312.418	-0.057	-0.138
-192.217	-200.000	0.035	-0.199
-191.202	-46.429	-0.290	0.181
-190.187	29.510	0.348	0.376
-189.173	154.526	-0.031	0.054
-188.158	2.358	-0.006	0.006
-187.144	-74.999	-0.081	0.037
-186.129	287.762	0.073	-0.169
-185.114	-200.000	-0.020	0.161
-184.100	-99.879	-0.234	-0.074
-183.085	493.635	0.067	0.196
-182.071	120.893	-0.254	0.402
-181.056	-107.488	-0.180	0.050
-180.042	-89.128	0.361	-0.135
-179.027	196.143	-0.186	0.360
-178.012	99.733	-0.205	-0.303
-176.998	584.253	0.073	0.230
-175.983	-53.123	-0.190	0.111
-174.969	-42.663	-0.110	-0.071
-173.954	265.556	-0.136	-0.302
-172.939	617.169	-0.191	-0.613
-171.925	-200.000	-0.010	-0.351
-170.910	-149.739	-0.099	-0.010
-169.896	-74.350	0.442	-0.202
-168.881	-114.881	0.088	0.021
-167.866	-36.393	0.169	0.115
-166.852	-117.796	-0.142	0.032
-165.837	-59.366	-0.354	0.193
-164.823	-97.510	-0.377	-0.124
-163.808	800.000	0.067	-0.334
-162.793	56.230	-0.178	0.220
-161.779	-36.209	-0.431	-0.295
-160.764	326.011	0.106	0.260
-159.750	-77.492	0.394	0.173
-158.735	-200.000	0.040	0.240
-157.720	-200.000	-0.023	-0.551
-156.706	4.847	-0.041	0.038
-155.691	-200.000	0.057	-0.350
-154.677	-127.834	0.429	0.078
-153.662	-101.122	0.340	-0.105
-152.647	-14.052	0.139	-0.114
-151.633	-134.354	0.222	0.034
-150.618	-200.000	0.005	-0.066
-149.604	173.398	0.127	0.233
-148.589	-181.544	-0.115	0.003
-147.574	-59.674	-0.107	0.058
-146.560	-43.102	0.310	-0.199
-145.545	-22.835	-0.476	-0.364
-144.531	22.937	-0.543	0.565
-143.516	-200.000	-0.009	-0.119
-142.502	199.672	0.247	0.482
-141.487	-103.775	-0.192	0.057
-140.472	-173.892	0.442	0.016
-139.458	-99.263	0.263	-0.084
-138.443	229.531	-0.181	0.376
-137.429	-85.440	-0.241	-0.095
-136.414	72.652	-0.203	0.270
-135.399	248.380	0.045	0.096
-134.385	-89.838	-0.533	-0.197
-133.370	-56.954	0.212	0.118
-132.356	-200.000	-0.046	0.292
-131.341	-121.091	-0.189	-0.040
-130.326	-179.178	1.014	0.028
-129.312	-200.000	-0.008	0.311
-128.297	49.067	-0.305	0.364
-127.283	-82.025	-0.134	-0.055
-126.268	11.374	0.072	-0.070
-125.253	134.906	-0.178	-0.294
-124.239	-46.398	-0.130	0.081
-123.224	-200.000	0.008	-0.270
-122.210	-200.000	0.031	0.383
-121.195	-7.608	-0.305	0.261
