DTS Sentinel unit serial number:	SN409020Multiplexer serial number:	ORYXHardware model number:	OX4-SRSoftware version number:	ORYX F/W v3.00 Oryx Data Collector v3.7.2.0data status	okinstallation	HaddamTimeLapsedifferential loss correction	single-endedforward channel	channel 3reverse channel	N/Adate	2011/06/22time	02:41:17forward acquisition time	30.00reverse acquisition time	0.00gamma	498.7831k internal	0.1750k external	0.1750temperature offset calibration	1.0074default loss term (dB/km)	0.3790temperature slope calibration	1.3530multiplexer offset coefficient	1.0000multiplexer slope coefficient	1.0000fibre end	0.00T internal ref (°C)	22.34T ext. ref 1 (°C)	17.59T ext. ref 2 (°C)	0.02length (m)	temperature (°C)	Stokes	anti-Stokes-747.200	-114.410	-0.440	-0.112
-746.185	-127.129	0.272	-0.053
-745.171	-127.808	-0.226	-0.043
-744.156	797.980	-0.111	0.408
-743.142	-101.099	-0.395	0.128
-742.127	212.616	-0.282	0.593
-741.112	-40.326	-0.327	0.225
-740.098	122.385	-0.127	0.211
-739.083	-200.000	0.028	0.244
-738.069	179.908	-0.248	0.484
-737.054	129.188	0.099	0.168
-736.039	126.783	0.245	0.413
-735.025	-200.000	-0.039	-0.269
-734.010	800.000	0.031	-0.177
-732.996	-161.129	-0.244	-0.017
-731.981	-87.186	0.168	-0.068
-730.966	138.489	-0.142	-0.248
-729.952	627.375	-0.040	-0.136
-728.937	-109.877	0.511	0.141
-727.923	462.055	0.129	0.384
-726.908	-64.246	0.140	0.076
-725.894	-200.000	-0.071	0.442
-724.879	-136.016	-0.516	-0.080
-723.864	-33.017	-0.168	0.124
-722.850	800.000	-0.019	0.073
-721.835	-24.459	-0.050	-0.039
-720.821	-54.928	-0.347	0.207
-719.806	-200.000	-0.500	-0.002
-718.791	74.245	0.144	0.201
-717.777	349.032	0.065	0.171
-716.762	51.985	-0.273	-0.346
-715.748	-200.000	-0.012	-0.272
-714.733	112.676	0.188	0.302
-713.718	635.159	-0.127	-0.430
-712.704	-107.914	-0.356	-0.102
-711.689	27.802	0.288	-0.322
-710.675	-200.000	0.042	-0.512
-709.660	551.439	0.048	0.153
-708.645	-63.133	-0.153	-0.083
-707.631	800.000	-0.073	-0.350
-706.616	-128.525	0.500	-0.093
-705.602	-85.662	0.431	-0.177
-704.587	5.333	-0.238	-0.233
-703.572	800.000	0.064	0.322
-702.558	-139.225	-0.419	0.059
-701.543	-81.847	0.146	-0.063
-700.529	38.166	-0.359	-0.425
-699.514	-116.878	0.189	-0.046
-698.499	-46.619	-0.370	0.240
-697.485	-41.954	0.365	-0.247
-696.470	-129.681	-0.152	0.028
-695.456	-165.476	0.311	0.018
-694.441	-164.173	-0.283	0.017
-693.426	-177.477	0.231	0.007
-692.412	-89.788	0.182	0.070
-691.397	-86.592	-0.342	-0.138
-690.383	-170.201	-0.081	0.004
-689.368	-22.658	0.346	0.277
-688.354	800.000	0.035	0.163
-687.339	-86.608	-0.108	0.044
-686.324	800.000	-0.055	0.233
-685.310	-113.298	-0.429	-0.111
-684.295	-3.510	0.231	0.213
-683.281	26.050	-0.241	0.266
-682.266	84.349	0.113	-0.164
-681.251	-200.000	0.057	-0.653
-680.237	-149.852	0.466	-0.048
-679.222	333.901	0.101	0.260
-678.208	-99.403	-0.194	-0.064
-677.193	34.130	0.384	0.444
-676.178	-200.000	-0.207	0.001
-675.164	-200.000	-0.105	-0.632
-674.149	-81.740	0.450	-0.195
-673.135	-200.000	-0.025	-0.445
-672.120	-135.251	0.146	0.023
-671.105	-89.658	0.268	0.104
-670.091	417.375	0.032	0.092
-669.076	30.847	0.014	-0.016
-668.062	-25.099	0.361	0.283
-667.047	9.628	-0.605	-0.607
-666.032	13.701	-0.241	-0.248
-665.018	800.000	-0.026	0.112
-664.003	224.436	-0.125	-0.269
-662.989	-183.907	0.325	-0.007
-661.974	-79.579	0.069	-0.031
-660.959	4.642	-0.292	0.284
-659.945	-24.002	-0.251	0.199
-658.930	-122.901	0.165	-0.035
-657.916	-13.115	0.383	-0.329
-656.901	49.995	-0.246	-0.307
-655.886	210.306	-0.196	0.409
-654.872	-84.705	-0.773	-0.321
-653.857	-82.764	-0.790	0.337
-652.843	-100.920	-0.197	-0.064
-651.828	-111.887	-0.416	-0.110
-650.814	366.568	0.190	-0.509
-649.799	-104.518	0.018	-0.005
-648.784	725.552	-0.050	-0.179
-647.770	-25.394	0.373	0.291
-646.755	-132.745	0.330	0.055
-645.741	-84.349	-0.543	-0.226
-644.726	299.657	0.034	0.084
-643.711	-69.341	-0.167	-0.085
-642.697	-97.150	-0.225	-0.077
-641.682	-3.968	0.379	0.348
-640.668	-42.958	-0.273	-0.183
-639.653	-200.000	0.014	0.200
-638.638	-64.534	0.163	-0.087
-637.624	800.000	-0.096	0.377
-636.609	-200.000	-0.038	-0.284
-635.595	-56.749	-0.250	-0.146
-634.580	-164.844	-0.284	0.017
-633.565	-200.000	0.036	0.347
-632.551	1.940	0.318	-0.304
-631.536	-32.826	-0.145	-0.107
-630.522	-80.264	-0.340	0.150
-629.507	124.098	0.039	-0.065
-628.492	25.392	-0.192	0.211
-627.478	-200.000	0.010	0.065
-626.463	80.169	0.010	-0.014
-625.449	-200.000	-0.030	-0.234
-624.434	-47.230	-0.228	-0.146
-623.419	207.829	-0.092	0.190
-622.405	24.976	0.234	-0.257
-621.390	-128.245	-0.089	0.017
-620.376	-50.243	0.532	0.332
-619.361	338.212	-0.165	-0.427
-618.346	294.551	-0.171	-0.414
-617.332	-104.285	0.214	-0.065
-616.317	60.912	0.394	0.517
-615.303	-200.000	0.021	-0.407
-614.288	-200.000	0.005	0.116
-613.273	-87.995	0.215	0.085
-612.259	-9.615	0.192	0.169
-611.244	-93.038	-0.287	-0.105
-610.230	201.978	-0.118	-0.240
-609.215	800.000	-0.094	0.516
-608.201	800.000	0.031	0.176
-607.186	770.253	-0.126	-0.456
-606.171	-200.000	0.018	0.270
-605.157	800.000	-0.032	0.166
-604.142	-54.635	-0.475	-0.283
-603.128	260.831	-0.255	-0.586
-602.113	127.634	0.261	-0.438
-601.098	-131.386	-0.283	0.049
-600.084	-72.419	-0.199	-0.097
-599.069	-27.498	-0.384	-0.295
-598.055	800.000	-0.071	-0.331
-597.040	381.418	0.189	0.514
-596.025	527.471	-0.029	0.090
-595.011	-113.606	-0.128	-0.033
-593.996	31.532	0.425	0.483
-592.982	-53.978	-0.241	0.144
-591.967	-200.000	0.027	-0.225
-590.952	-83.078	0.408	-0.173
-589.938	-114.022	0.142	0.036
-588.923	-60.507	0.219	-0.122
-587.909	-57.456	0.345	-0.200
-586.894	-200.000	-0.049	0.433
-585.879	14.040	-0.253	-0.260
-584.865	37.888	0.212	-0.248
-583.850	800.000	-0.041	-0.163
-582.836	11.315	-0.188	-0.190
-581.821	-117.158	0.549	-0.131
-580.806	23.375	0.175	-0.190
-579.792	-90.272	0.181	0.069
-578.777	351.319	-0.109	0.287
-577.763	-162.425	0.503	-0.032
-576.748	-200.000	-0.019	-0.206
-575.733	-200.000	0.011	-0.152
-574.719	-80.307	0.286	0.126
-573.704	-51.175	0.292	0.180
-572.690	-94.357	0.323	-0.116
-571.675	-200.000	-0.046	-0.473
-570.661	-114.780	-0.083	-0.021
-569.646	-89.428	-0.466	-0.180
-568.631	-16.703	0.100	-0.083
-567.617	42.453	-0.060	0.072
-566.602	-12.492	0.132	0.114
-565.588	800.000	-0.104	-0.387
-564.573	-200.000	0.069	0.441
-563.558	-127.026	-0.159	0.030
-562.544	-101.597	0.287	-0.091
-561.529	-31.935	0.338	-0.249
-560.515	-86.029	-0.061	-0.025
-559.500	-192.686	0.545	-0.006
-558.485	-16.461	0.109	-0.091
-557.471	399.308	0.212	-0.590
-556.456	800.000	0.133	-0.661
-555.442	141.807	-0.226	-0.396
-554.427	-200.000	0.006	-0.411
-553.412	295.939	0.157	-0.381
-552.398	26.133	-0.218	0.240
-551.383	-171.402	0.149	-0.006
-550.369	-80.417	-0.359	-0.157
-549.354	-200.000	-0.026	-0.311
-548.339	60.084	-0.158	-0.206
-547.325	5.855	0.362	0.353
-546.310	-140.819	-0.421	0.057
-545.296	526.411	-0.079	0.247
-544.281	-65.785	0.149	0.078
-543.266	-97.483	-0.285	0.097
-542.252	-72.229	-0.356	-0.173
-541.237	-200.000	-0.034	0.224
-540.223	-91.623	-0.420	-0.157
-539.208	317.575	-0.173	0.434
-538.193	-147.397	0.189	0.021
-537.179	18.712	-0.408	-0.431
-536.164	65.992	-0.242	-0.324
-535.150	800.000	-0.031	-0.130
-534.135	-200.000	0.041	-0.317
-533.121	-200.000	-0.002	0.466
-532.106	-163.714	0.325	-0.020
-531.091	-122.672	0.727	0.154
-530.077	202.461	0.265	0.541
-529.062	206.846	-0.181	-0.372
-528.048	-12.668	-0.530	-0.455
-527.033	150.954	0.190	-0.341
-526.018	-101.335	0.402	0.128
-525.004	-124.069	0.092	-0.019
-523.989	25.106	-0.076	-0.083
-522.975	-18.952	0.281	0.230
-521.960	-70.571	0.211	0.105
-520.945	75.177	0.146	0.203
-519.931	241.390	-0.017	-0.036
-518.916	-200.000	0.026	-0.522
-517.902	12.437	0.171	-0.173
-516.887	23.994	-0.169	-0.184
-515.872	59.837	-0.120	0.157
-514.858	-111.383	-0.617	0.165
-513.843	228.794	0.081	-0.174
-512.829	-12.811	-0.406	-0.348
-511.814	-142.357	0.144	-0.019
-510.799	800.000	-0.032	0.126
-509.785	-200.000	-0.014	-0.311
-508.770	356.929	0.099	-0.262
-507.756	-180.564	0.660	0.018
-506.741	80.331	0.146	-0.207
-505.726	-36.362	0.122	0.086
-504.712	-121.421	0.534	0.116
-503.697	249.376	-0.138	0.308
-502.683	-76.166	0.467	-0.216
-501.668	612.262	-0.085	0.282
-500.653	-183.186	-0.168	-0.004
-499.639	122.149	-0.274	0.451
-498.624	800.000	-0.063	0.362
-497.610	107.970	-0.246	-0.386
-496.595	-200.000	0.005	0.087
-495.581	-36.055	0.189	0.134
-494.566	-127.700	0.256	-0.048
-493.551	-92.558	-0.298	-0.110
-492.537	67.943	-0.137	0.185
-491.522	-111.242	-0.198	-0.053
-490.508	800.000	-0.047	0.188
-489.493	800.000	0.050	-0.188
-488.478	-64.386	-0.032	0.017
-487.464	-40.807	-0.273	0.186
-486.449	9.455	-0.202	0.201
-485.435	-146.861	-0.242	0.027
-484.420	135.883	0.147	0.253
-483.405	-129.014	0.296	0.054
-482.391	800.000	-0.023	0.103
-481.376	-73.567	-0.449	-0.215
-480.362	-101.536	0.317	-0.101
-479.347	-122.381	0.491	-0.104
-478.332	-200.000	0.026	0.248
-477.318	175.056	-0.022	0.041
-476.303	800.000	-0.024	-0.112
-475.289	103.324	0.217	0.335
-474.274	184.177	-0.116	0.226
-473.259	22.142	0.200	0.215
-472.245	-38.652	-0.185	-0.128
-471.230	-69.564	-0.122	0.061
-470.216	213.663	-0.231	0.481
-469.201	-97.494	-0.524	0.178
-468.186	-85.969	-0.310	0.125
-467.172	800.000	-0.105	0.385
-466.157	-43.528	-0.178	-0.118
-465.143	-55.819	-0.349	-0.204
-464.128	-76.944	-0.175	0.080
-463.113	-50.427	-0.218	0.135
-462.099	-200.000	-0.018	0.400
-461.084	317.476	-0.249	0.621
-460.070	800.000	0.078	0.377
-459.055	-17.610	-0.106	0.087
-458.040	-166.512	0.320	0.017
-457.026	-152.673	0.223	-0.021
-456.011	-53.202	-0.320	0.193
-454.997	-200.000	0.003	-0.336
-453.982	22.436	-0.058	0.063
-452.968	-35.251	-0.572	0.408
-451.953	-72.962	-0.475	0.228
-450.938	133.643	0.149	0.254
-449.924	-123.549	0.192	-0.040
-448.909	-105.744	-0.040	-0.012
-447.895	-81.771	-0.215	0.092
-446.880	800.000	-0.049	0.207
-445.865	-21.837	-0.373	-0.298
-444.851	800.000	-0.063	0.269
-443.836	-71.435	-0.184	-0.090
-442.822	-46.748	-0.175	-0.112
-441.807	-107.331	0.257	0.074
-440.792	-27.455	-0.309	0.236
-439.778	-152.540	-0.436	0.040
-438.763	-121.118	0.302	0.066
-437.749	-0.301	-0.143	-0.133
-436.734	1.838	0.165	0.156
-435.719	-189.749	0.515	0.008
-434.705	-32.605	0.339	-0.248
-433.690	-18.994	-0.225	0.184
-432.676	-200.000	0.035	0.513
-431.661	246.397	-0.120	-0.266
-430.646	786.614	0.071	-0.258
-429.632	98.067	-0.066	0.101
-428.617	-58.716	-0.212	0.120
-427.603	-143.079	0.372	-0.047
-426.588	-116.456	-0.209	0.050
-425.573	800.000	-0.036	0.143
-424.559	-74.309	0.112	-0.053
-423.544	-126.709	-0.289	-0.056
-422.530	-200.000	-0.011	0.258
-421.515	-200.000	-0.016	0.140
-420.500	-200.000	-0.029	0.183
-419.486	-9.525	-0.123	0.107
-418.471	800.000	-0.007	-0.030
-417.457	34.145	0.293	0.335
-416.442	800.000	-0.042	0.171
-415.428	3.004	-0.206	-0.196
-414.413	-5.059	0.355	-0.321
-413.398	-200.000	-0.046	-0.279
-412.384	403.606	-0.020	0.057
-411.369	14.214	-0.266	0.272
-410.355	-68.757	-0.294	0.149
-409.340	58.563	0.147	-0.190
-408.325	-20.672	0.136	-0.110
-407.311	-49.675	-0.406	0.253
-406.296	-135.940	0.405	-0.062
-405.282	-77.124	-0.218	-0.099
-404.267	-156.450	-0.401	-0.032
-403.252	105.257	0.034	-0.053
-402.238	800.000	0.077	0.314
-401.223	-7.520	-0.090	-0.080
-400.209	-200.000	0.005	0.275
-399.194	-102.699	0.106	-0.033
-398.179	-155.987	0.128	0.010
-397.165	78.029	0.147	0.206
-396.150	-4.572	0.457	0.413
-395.136	12.508	-0.252	0.254
-394.121	-200.000	-0.018	0.370
-393.106	-88.290	-0.320	0.125
-392.092	97.116	0.034	-0.051
-391.077	-80.053	-0.262	0.115
-390.063	145.026	0.122	-0.215
-389.048	-5.280	0.329	0.296
-388.033	-53.336	-0.113	-0.068
-387.019	-75.995	-0.248	-0.114
-386.004	346.192	0.025	-0.065
-384.990	-200.000	-0.041	-0.261
-383.975	508.694	0.025	-0.077
-382.960	88.419	0.111	0.162
-381.946	-109.951	0.130	0.035
-380.931	-84.432	0.268	-0.111
-379.917	657.227	0.116	-0.394
-378.902	800.000	-0.088	-0.391
-377.888	800.000	0.055	0.234
-376.873	-43.903	-0.281	0.185
-375.858	-157.368	-0.295	0.023
-374.844	71.354	-0.154	0.210
-373.829	214.315	0.105	0.218
-372.815	-165.065	-0.074	0.004
-371.800	-35.818	0.068	-0.048
-370.785	-163.018	-0.316	0.020
-369.771	-2.142	-0.196	-0.180
-368.756	-43.958	0.050	-0.033
-367.742	93.558	-0.274	-0.407
-366.727	205.288	-0.068	0.139
-365.712	12.724	-0.159	0.161
-364.698	800.000	0.098	0.356
-363.683	477.451	-0.108	0.320
-362.669	-156.987	0.390	0.031
-361.654	108.583	0.231	0.362
-360.639	-200.000	-0.065	0.000
-359.625	-126.904	-0.595	0.114
-358.610	800.000	0.066	-0.276
-357.596	89.121	0.383	-0.559
-356.581	32.160	-0.159	-0.179
-355.566	226.649	-0.081	0.173
-354.552	-104.590	-0.152	-0.045
-353.537	57.854	-0.153	0.196
-352.523	47.951	0.181	-0.222
-351.508	-36.441	0.266	0.187
-350.493	51.320	0.218	-0.271
-349.479	299.772	-0.113	-0.274
-348.464	-127.877	-0.263	-0.049
-347.450	800.000	0.066	-0.272
-346.435	-32.808	-0.485	-0.352
-345.420	-51.188	-0.224	0.137
-344.406	-122.360	0.324	0.068
-343.391	-200.000	-0.089	-0.659
-342.377	262.520	0.101	-0.230
-341.362	-76.274	-0.124	0.057
-340.348	3.017	-0.182	-0.172
-339.333	-20.249	0.063	0.051
-338.318	20.237	-0.246	0.259
-337.304	-70.765	-0.322	0.158
-336.289	-200.000	-0.042	0.339
-335.275	-31.331	0.037	0.027
-334.260	90.765	-0.342	-0.502
-333.245	140.182	0.117	-0.202
-332.231	800.000	-0.064	-0.246
-331.216	-117.361	0.142	-0.033
-330.202	-41.626	-0.020	-0.013
-329.187	-118.320	0.188	0.043
-328.172	449.061	-0.198	-0.573
-327.158	21.825	0.348	-0.371
-326.143	-200.000	0.027	-0.257
-325.129	-200.000	-0.013	0.329
-324.114	42.186	0.181	0.215
-323.099	-121.773	-0.444	-0.095
-322.085	113.430	0.093	-0.148
-321.070	-96.147	0.444	-0.153
-320.056	-200.000	0.014	-0.095
-319.041	30.895	0.272	0.305
-318.026	646.542	-0.037	-0.123
-317.012	502.282	-0.143	-0.433
-315.997	-200.000	-0.004	0.371
-314.983	-31.169	-0.219	0.161
-313.968	226.894	0.173	0.368
-312.953	58.554	0.141	-0.182
-311.939	800.000	-0.064	0.250
-310.924	-91.586	0.175	0.065
-309.910	-155.602	0.243	-0.020
-308.895	800.000	0.062	-0.255
-307.880	-20.315	-0.438	-0.352
-306.866	554.278	0.050	-0.157
-305.851	181.552	0.077	0.148
-304.837	-127.053	-0.343	-0.065
-303.822	-49.795	-0.314	0.194
-302.807	-45.607	0.223	0.144
-301.793	800.000	0.039	0.217
-300.778	-200.000	0.013	0.086
-299.764	289.356	0.055	0.132
-298.749	-146.793	-0.611	-0.068
-297.735	-65.394	-0.257	0.134
-296.720	-199.018	0.206	0.001
-295.705	-31.135	0.212	-0.156
-294.691	208.542	0.212	-0.435
-293.676	766.696	0.144	0.514
-292.662	-69.493	-0.370	-0.184
-291.647	-192.480	0.274	0.003
-290.632	800.000	-0.083	-0.310
-289.618	469.267	0.009	-0.027
-288.603	-61.517	0.304	0.166
-287.589	-200.000	0.019	0.211
-286.574	-55.591	-0.309	-0.180
-285.559	316.523	0.245	-0.606
-284.545	143.526	-0.157	0.274
-283.530	-66.551	0.598	-0.309
-282.516	-200.000	-0.004	-0.146
-281.501	-134.824	-0.295	0.046
-280.486	112.613	-0.137	0.217
-279.472	160.001	0.257	0.469
-278.457	-175.761	-0.400	0.014
-277.443	16.602	0.114	0.117
-276.428	21.543	0.239	0.254
-275.413	-178.324	-0.375	-0.011
-274.399	141.191	-0.008	0.015
-273.384	18.738	-0.087	0.091
-272.370	-128.788	0.296	-0.054
-271.355	-84.826	-0.033	0.013
-270.340	63.333	-0.123	-0.160
-269.326	-80.204	-0.189	-0.082
-268.311	-156.029	-0.158	-0.013
-267.297	629.827	-0.059	0.194
-266.282	64.813	0.222	-0.292
-265.267	-35.151	-0.304	-0.215
-264.253	-148.603	0.592	0.062
-263.238	-48.304	-0.110	0.069
-262.224	-145.292	-0.228	0.027
-261.209	256.257	0.130	0.292
-260.195	665.194	-0.067	-0.226
-259.180	174.231	-0.042	0.080
-258.165	494.296	0.062	-0.186
-257.151	16.288	-0.332	0.342
-256.136	75.132	0.257	-0.354
-255.122	-121.540	0.235	-0.050
-254.107	7.572	-0.077	-0.075
-253.092	-35.894	0.229	-0.161
-252.078	-123.311	-0.379	0.078
-251.063	269.019	0.072	-0.164
-250.049	-67.991	0.159	0.081
-249.034	-176.039	0.356	-0.012
-248.019	-158.669	-0.224	-0.017
-247.005	96.244	-0.047	0.070
-245.990	25.806	-0.204	0.222
-244.976	77.712	0.137	0.191
-243.961	-56.594	0.107	-0.061
-242.946	757.214	-0.063	0.224
-241.932	-97.889	-0.140	-0.047
-240.917	-51.142	0.555	0.338
-239.903	-94.739	0.310	-0.109
-238.888	-119.244	-0.245	-0.055
-237.873	312.640	-0.122	-0.300
-236.859	-200.000	0.001	-0.063
-235.844	-15.116	0.298	-0.249
-234.830	-118.121	0.405	-0.093
-233.815	-93.420	0.554	-0.199
-232.800	48.972	0.132	0.162
-231.786	800.000	-0.058	-0.274
-230.771	800.000	0.042	0.185
-229.757	-200.000	0.078	0.556
-228.742	58.850	-0.116	-0.148
-227.727	800.000	-0.051	-0.247
-226.713	-118.569	-0.116	-0.027
-225.698	592.665	0.124	-0.402
-224.684	800.000	-0.057	-0.236
-223.669	144.039	-0.278	0.483
-222.655	698.761	0.070	-0.240
-221.640	570.308	0.104	0.330
-220.625	-200.000	0.039	-0.298
-219.611	-51.420	-0.205	0.124
-218.596	-35.341	0.195	0.138
-217.582	-117.692	0.241	0.056
-216.567	-200.000	-0.007	0.128
-215.552	13.085	0.371	0.373
-214.538	800.000	-0.033	0.174
-213.523	-132.519	-0.434	0.072
-212.509	800.000	0.074	-0.282
-211.494	110.207	0.209	0.328
-210.479	-26.145	-0.207	0.158
-209.465	-60.135	0.155	-0.086
-208.450	-62.430	-0.300	-0.162
-207.436	-120.086	0.224	-0.049
-206.421	-27.843	0.416	-0.313
-205.406	234.348	0.124	-0.268
-204.392	209.867	0.237	0.485
-203.377	-153.930	-0.409	-0.036
-202.363	-3.804	0.126	0.113
-201.348	-110.718	0.402	0.107
-200.333	-125.911	0.359	-0.070
-199.319	-97.554	0.376	0.126
-198.304	-4.890	-0.171	-0.153
-197.290	4.249	-0.137	-0.130
-196.275	-83.376	-0.316	0.131
-195.260	-82.088	0.438	-0.185
-194.246	-200.000	0.031	-0.392
-193.231	68.994	-0.332	-0.444
-192.217	584.316	-0.107	-0.342
-191.202	-37.043	-0.125	-0.087
-190.187	667.652	0.090	-0.305
-189.173	8.459	0.148	0.145
-188.158	158.468	0.283	-0.512
-187.144	-5.478	-0.244	0.217
-186.129	248.122	-0.097	0.214
-185.114	71.970	0.103	0.139
-184.100	-115.854	0.566	-0.137
-183.085	800.000	-0.059	0.338
-182.071	-158.222	-0.403	-0.030
-181.056	95.814	0.326	-0.484
-180.042	412.475	0.120	0.332
-179.027	800.000	-0.065	0.288
-178.012	-30.223	-0.167	0.123
-176.998	90.251	0.169	0.247
-175.983	185.635	-0.201	0.389
-174.969	258.382	-0.095	-0.214
-173.954	-82.490	-0.419	0.176
-172.939	-200.000	0.029	-0.792
-171.925	86.999	-0.127	0.182
-170.910	-21.134	0.262	0.208
-169.896	237.839	0.271	0.587
-168.881	-76.174	0.452	0.206
-167.866	-28.972	0.170	-0.126
-166.852	130.403	0.118	0.196
-165.837	111.952	0.278	0.437
-164.823	-76.096	0.358	-0.164
-163.808	-90.463	0.308	0.115
-162.793	-34.006	-0.383	0.273
-161.779	-126.955	-0.143	0.027
-160.764	-10.101	0.316	-0.273
-159.750	800.000	-0.060	0.281
-158.735	-200.000	0.001	-0.009
-157.720	-17.784	-0.204	-0.166
-156.706	125.197	0.260	0.427
-155.691	-31.422	-0.284	-0.207
-154.677	-11.889	-0.287	-0.244
-153.662	-12.719	0.287	-0.242
-152.647	607.007	-0.074	0.241
-151.633	800.000	0.055	0.254
-150.618	-61.948	-0.178	-0.096
-149.604	-200.000	-0.060	0.362
-148.589	-138.852	-0.211	-0.030
-147.574	20.319	-0.090	-0.095
-146.560	-200.000	0.011	-0.247
-145.545	-200.000	0.043	-0.366
-144.531	-32.030	-0.199	-0.144
-143.516	-130.107	-0.412	0.072
-142.502	19.543	0.298	0.311
-141.487	145.628	0.383	0.667
-140.472	-107.941	-0.203	0.057
-139.458	-92.919	0.489	0.176
-138.443	11.758	-0.426	0.424
-137.429	7.826	-0.242	-0.235
-136.414	113.195	0.087	0.137
-135.399	-200.000	0.466	0.003
-134.385	-93.665	0.360	-0.128
-133.370	-200.000	-0.012	0.182
-132.356	-89.166	0.066	-0.025
-131.341	-70.152	-0.555	0.273
-130.326	89.905	-0.267	-0.387
-129.312	-14.266	0.352	-0.294
-128.297	-46.556	0.342	0.217
-127.283	-4.481	0.438	0.392
-126.268	-122.635	-0.425	0.089
-125.253	196.169	-0.121	0.240
-124.239	285.714	0.089	-0.210
-123.224	-12.554	0.247	-0.209
-122.210	-200.000	0.003	-0.037
-121.195	220.525	0.110	0.230
