DTS Sentinel unit serial number:	SN409020Multiplexer serial number:	ORYXHardware model number:	OX4-SRSoftware version number:	ORYX F/W v3.00 Oryx Data Collector v3.7.2.0data status	okinstallation	HaddamTimeLapsedifferential loss correction	single-endedforward channel	channel 3reverse channel	N/Adate	2011/06/22time	03:56:17forward acquisition time	30.00reverse acquisition time	0.00gamma	498.7831k internal	0.1751k external	0.1751temperature offset calibration	1.0074default loss term (dB/km)	0.3790temperature slope calibration	1.3530multiplexer offset coefficient	1.0000multiplexer slope coefficient	1.0000fibre end	0.00T internal ref (°C)	22.50T ext. ref 1 (°C)	18.14T ext. ref 2 (°C)	0.09length (m)	temperature (°C)	Stokes	anti-Stokes-747.200	473.396	0.049	0.149
-746.185	-49.106	-0.600	0.380
-745.171	506.153	-0.200	-0.620
-744.156	472.492	-0.213	0.640
-743.142	-137.769	-0.185	-0.027
-742.127	226.594	-0.108	0.234
-741.112	800.000	-0.155	-0.695
-740.098	134.053	-0.120	0.207
-739.083	-128.951	-0.291	0.054
-738.069	-145.402	0.356	-0.042
-737.054	-191.834	0.134	0.002
-736.039	-146.766	-0.644	-0.073
-735.025	107.312	0.271	0.429
-734.010	-129.780	-0.085	-0.015
-732.996	372.737	-0.050	0.136
-731.981	-168.467	-0.635	0.032
-730.966	-16.839	-0.275	-0.230
-729.952	20.152	-0.506	0.542
-728.937	-161.252	0.192	0.013
-727.923	365.905	0.128	-0.344
-726.908	-75.983	-0.265	0.124
-725.894	-101.828	-0.503	0.160
-724.879	129.670	-0.341	-0.580
-723.864	37.895	-0.181	-0.214
-722.850	259.023	0.147	0.338
-721.835	-23.711	-0.177	0.140
-720.821	8.407	-0.250	-0.250
-719.806	-84.375	-0.311	-0.130
-718.791	-82.354	-0.220	-0.094
-717.777	70.190	-0.108	0.148
-716.762	-44.918	-0.092	0.060
-715.748	-200.000	0.050	0.605
-714.733	64.083	0.302	0.404
-713.718	-89.789	-0.419	-0.162
-712.704	83.345	0.144	-0.209
-711.689	-200.000	-0.022	-0.139
-710.675	-184.624	-0.262	0.005
-709.660	-76.015	-0.531	-0.248
-708.645	-129.101	0.279	-0.051
-707.631	648.985	0.092	-0.313
-706.616	60.305	-0.137	-0.179
-705.602	-37.718	-0.478	-0.337
-704.587	-200.000	0.053	0.361
-703.572	-95.640	-0.254	0.090
-702.558	-160.194	0.234	-0.017
-701.543	-200.000	0.028	-0.252
-700.529	189.687	0.059	0.118
-699.514	210.421	-0.145	0.303
-698.499	-71.008	-0.680	-0.338
-697.485	-66.426	0.198	-0.104
-696.470	-200.000	0.035	-0.557
-695.456	800.000	0.059	-0.274
-694.441	239.623	0.054	0.119
-693.426	-4.093	-0.328	0.301
-692.412	221.608	0.174	-0.373
-691.397	-35.958	0.433	-0.310
-690.383	-8.795	-0.312	-0.277
-689.368	-12.880	-0.230	-0.199
-688.354	-60.930	-0.431	0.240
-687.339	406.275	0.102	0.288
-686.324	-102.307	0.225	0.071
-685.310	-200.000	0.042	-0.606
-684.295	57.944	-0.195	0.253
-683.281	-200.000	-0.028	-0.312
-682.266	-123.684	-0.340	-0.071
-681.251	37.159	-0.372	-0.437
-680.237	2.646	-0.070	-0.067
-679.222	40.289	-0.166	-0.198
-678.208	-64.865	0.242	0.129
-677.193	1.503	0.320	-0.305
-676.178	105.871	-0.229	-0.360
-675.164	141.123	0.183	0.321
-674.149	-137.272	-0.298	-0.044
-673.135	-113.266	0.451	0.117
-672.120	167.975	0.219	0.413
-671.105	-28.202	-0.434	0.331
-670.091	-78.560	0.575	0.259
-669.076	-92.546	0.457	-0.169
-668.062	-22.892	-0.377	0.300
-667.047	92.550	-0.243	0.364
-666.032	197.796	0.193	0.392
-665.018	228.292	-0.050	0.109
-664.003	197.738	-0.172	0.348
-662.989	-168.537	-0.559	0.028
-661.974	-200.000	0.003	0.603
-660.959	131.074	0.182	0.310
-659.945	800.000	0.081	0.415
-658.930	-66.186	0.212	-0.112
-657.916	-102.503	-0.181	-0.057
-656.901	617.595	0.048	-0.161
-655.886	92.828	-0.342	-0.512
-654.872	74.891	0.284	-0.396
-653.857	-47.305	-0.386	-0.248
-652.843	800.000	-0.058	0.221
-651.828	42.468	0.145	-0.174
-650.814	-84.424	-0.348	0.145
-649.799	-200.000	0.047	0.314
-648.784	102.470	0.024	0.038
-647.770	800.000	-0.054	-0.255
-646.755	34.419	0.234	-0.270
-645.741	-101.965	-0.575	0.182
-644.726	-111.295	-0.427	0.114
-643.711	-56.297	0.431	-0.252
-642.697	-151.555	0.574	0.055
-641.682	243.886	0.043	-0.095
-640.668	-12.479	-0.270	-0.233
-639.653	-118.108	-0.609	-0.143
-638.638	-76.159	-0.152	-0.071
-637.624	136.220	-0.136	-0.236
-636.609	58.860	-0.332	-0.432
-635.595	70.961	-0.166	-0.228
-634.580	-129.490	0.268	0.049
-633.565	-170.399	0.131	0.006
-632.551	64.444	-0.191	-0.255
-631.536	175.080	0.095	-0.182
-630.522	-32.248	-0.409	0.301
-629.507	-69.318	-0.441	-0.223
-628.492	213.188	0.155	0.324
-627.478	-4.395	-0.392	0.358
-626.463	-145.201	0.131	-0.016
-625.449	-113.261	-0.417	-0.108
-624.434	84.191	-0.231	-0.334
-623.419	-200.000	0.016	-0.137
-622.405	75.074	-0.415	-0.579
-621.390	-106.334	-0.244	-0.072
-620.376	2.792	-0.155	-0.149
-619.361	-15.657	-0.163	-0.137
-618.346	800.000	0.033	-0.167
-617.332	-200.000	-0.059	0.496
-616.317	83.742	-0.318	-0.459
-615.303	-126.497	0.346	-0.067
-614.288	800.000	0.074	0.281
-613.273	-52.077	0.149	-0.091
-612.259	28.610	-0.076	-0.085
-611.244	-152.302	-0.426	-0.040
-610.230	562.092	0.155	-0.498
-609.215	41.120	0.219	-0.261
-608.201	-200.000	-0.038	0.241
-607.186	-200.000	-0.053	-0.319
-606.171	41.587	-0.111	0.133
-605.157	-16.844	0.245	-0.205
-604.142	-92.194	0.308	0.114
-603.128	-16.751	-0.253	-0.211
-602.113	55.373	-0.213	0.273
-601.098	197.754	0.090	0.183
-600.084	-200.000	0.000	-0.137
-599.069	37.972	0.199	0.234
-598.055	800.000	-0.124	0.509
-597.040	-124.292	0.112	0.023
-596.025	92.560	-0.131	0.196
-595.011	-105.345	-0.515	0.154
-593.996	-200.000	-0.003	0.126
-592.982	800.000	0.010	0.053
-591.967	-70.513	-0.231	0.115
-590.952	-37.799	0.095	0.066
-589.938	274.999	-0.272	-0.639
-588.923	-91.404	0.332	0.124
-587.909	-158.215	-0.266	0.020
-586.894	84.888	-0.188	-0.273
-585.879	139.019	-0.148	-0.257
-584.865	-145.457	-0.683	0.080
-583.850	-0.596	0.165	0.154
-582.836	800.000	0.154	-0.582
-581.821	-37.004	0.175	0.123
-580.806	174.573	-0.063	-0.121
-579.792	-9.928	-0.175	0.153
-578.777	-200.000	0.053	-0.325
-577.763	-200.000	-0.008	-0.229
-576.748	87.948	0.264	-0.387
-575.733	-200.000	-0.045	-0.334
-574.719	71.176	0.125	-0.171
-573.704	-200.000	0.023	0.250
-572.690	-183.791	0.520	0.011
-571.675	-200.000	0.004	0.541
-570.661	-140.972	-0.460	0.062
-569.646	386.800	0.144	0.395
-568.631	70.477	-0.174	-0.237
-567.617	-116.880	-0.339	0.081
-566.602	-78.043	-0.163	-0.074
-565.588	45.323	0.102	0.124
-564.573	-71.166	-0.184	0.091
-563.558	113.207	0.111	0.177
-562.544	71.661	0.076	0.105
-561.529	800.000	0.095	-0.545
-560.515	-38.298	0.101	-0.071
-559.500	108.095	-0.386	0.608
-558.485	-52.391	0.465	0.283
-557.471	-113.121	0.308	0.080
-556.456	-47.318	0.044	-0.028
-555.442	47.747	0.314	-0.387
-554.427	760.624	0.037	0.134
-553.412	-7.852	-0.350	-0.311
-552.398	231.430	-0.150	0.325
-551.383	79.193	0.084	0.118
-550.369	4.766	0.295	-0.286
-549.354	140.962	0.301	0.525
-548.339	167.782	-0.318	-0.597
-547.325	-130.063	-0.352	-0.063
-546.310	-198.537	0.173	-0.001
-545.296	-149.473	-0.449	-0.046
-544.281	8.443	-0.166	0.164
-543.266	58.163	0.077	-0.100
-542.252	-59.432	-0.069	0.039
-541.237	6.032	-0.070	-0.069
-540.223	-200.000	-0.026	0.181
-539.208	-165.489	0.316	0.018
-538.193	-25.033	-0.186	-0.145
-537.179	-39.604	-0.211	0.145
-536.164	-94.825	0.151	0.054
-535.150	-121.924	0.309	-0.066
-534.135	800.000	-0.109	0.514
-533.121	410.659	0.125	0.351
-532.106	-200.000	0.018	-0.195
-531.091	695.248	-0.175	-0.607
-530.077	-154.035	-0.378	-0.033
-529.062	143.883	-0.141	-0.248
-528.048	-18.973	-0.048	-0.039
-527.033	-164.235	-0.194	-0.012
-526.018	-87.563	-0.427	-0.169
-525.004	-71.076	0.199	0.098
-523.989	-104.279	0.301	0.091
-522.975	-99.555	0.405	-0.133
-521.960	408.701	0.160	0.449
-520.945	-200.000	-0.054	-0.606
-519.931	-59.692	-0.202	0.114
-518.916	-32.899	-0.154	-0.112
-517.902	-200.000	-0.024	0.285
-516.887	-30.176	0.485	-0.362
-515.872	133.271	0.102	0.174
-514.858	-87.916	-0.502	-0.198
-513.843	196.192	0.239	0.481
-512.829	800.000	0.043	-0.238
-511.814	-134.260	-0.828	0.133
-510.799	-18.033	0.068	0.056
-509.785	154.284	0.116	0.211
-508.770	-200.000	0.017	0.385
-507.756	-200.000	-0.005	-0.031
-506.741	-62.134	0.197	-0.108
-505.726	227.124	-0.261	0.561
-504.712	-186.204	0.416	-0.008
-503.697	108.623	0.311	0.489
-502.683	7.855	0.358	-0.353
-501.668	-200.000	-0.006	-0.122
-500.653	-200.000	0.071	0.471
-499.639	353.048	-0.074	0.194
-498.624	-86.107	-0.406	-0.164
-497.610	-200.000	0.005	0.374
-496.595	1.043	0.419	-0.395
-495.581	-92.714	0.155	-0.057
-494.566	-96.247	0.389	0.135
-493.551	-20.114	-0.265	0.215
-492.537	135.669	-0.206	-0.354
-491.522	-82.132	0.297	-0.127
-490.508	-122.012	-0.363	0.078
-489.493	800.000	0.112	-0.455
-488.478	-118.336	-0.193	-0.045
-487.464	-200.000	0.045	-0.385
-486.449	-32.506	-0.223	-0.163
-485.435	35.648	-0.084	-0.097
-484.420	-110.962	0.235	-0.063
-483.405	-48.076	0.032	-0.020
-482.391	-87.590	0.411	-0.162
-481.376	-70.572	-0.164	-0.081
-480.362	-200.000	0.003	-0.444
-479.347	-200.000	0.066	0.638
-478.332	90.413	-0.213	-0.314
-477.318	-58.973	0.325	-0.184
-476.303	-44.147	0.324	0.213
-475.289	-188.273	-0.269	-0.004
-474.274	169.465	-0.117	-0.221
-473.259	-79.340	-0.237	-0.105
-472.245	800.000	0.032	0.143
-471.230	365.384	-0.149	0.395
-470.216	4.040	0.114	0.110
-469.201	23.185	0.248	-0.267
-468.186	112.457	-0.268	0.426
-467.172	-200.000	0.010	0.345
-466.157	4.083	-0.088	0.084
-465.143	-182.161	-0.113	-0.003
-464.128	253.236	0.065	0.145
-463.113	-97.776	-0.388	0.131
-462.099	269.586	-0.115	0.267
-461.084	347.506	-0.192	-0.500
-460.070	-135.861	-0.325	0.050
-459.055	-105.149	0.352	-0.105
-458.040	800.000	0.054	-0.227
-457.026	227.927	-0.166	-0.356
-456.011	-170.170	-0.336	-0.015
-454.997	-200.000	-0.018	0.386
-453.982	-5.685	0.268	0.241
-452.968	112.477	0.171	0.273
-451.953	151.154	-0.172	-0.308
-450.938	20.546	-0.108	0.115
-449.924	108.447	0.289	0.454
-448.909	-140.764	-0.578	-0.078
-447.895	-23.865	0.448	-0.351
-446.880	13.937	-0.212	-0.216
-445.865	154.832	-0.077	0.140
-444.851	-99.110	0.448	-0.148
-443.836	200.717	0.082	0.166
-442.822	385.698	-0.109	-0.298
-441.807	-81.367	-0.118	0.051
-440.792	-77.942	-0.168	0.076
-439.778	160.001	0.102	0.186
-438.763	-80.393	0.100	0.044
-437.749	800.000	-0.135	0.548
-436.734	245.189	-0.118	0.262
-435.719	69.387	0.268	0.362
-434.705	-200.000	-0.033	0.385
-433.690	83.304	-0.182	-0.260
-432.676	-200.000	-0.016	0.158
-431.661	-82.520	-0.278	-0.118
-430.646	-108.385	-0.234	0.066
-429.632	27.401	0.206	0.227
-428.617	-3.971	0.142	-0.129
-427.603	35.796	-0.039	0.044
-426.588	19.525	-0.183	0.193
-425.573	-45.317	-0.536	0.348
-424.559	714.984	0.240	0.839
-423.544	-107.490	0.517	-0.148
-422.530	750.316	-0.108	-0.385
-421.515	-156.551	0.403	0.032
-420.500	750.799	0.154	-0.547
-419.486	-29.598	-0.169	-0.126
-418.471	-47.768	0.504	0.319
-417.457	-53.592	0.153	0.091
-416.442	-35.411	-0.229	-0.163
-415.428	-154.468	-0.535	0.046
-414.413	-200.000	-0.025	-0.213
-413.398	-48.258	0.312	-0.197
-412.384	-162.020	0.218	0.014
-411.369	182.550	0.150	0.291
-410.355	161.563	0.318	0.585
-409.340	175.197	0.256	-0.488
-408.325	-5.549	-0.253	0.227
-407.311	-99.475	-0.284	0.093
-406.296	-108.057	-0.367	-0.104
-405.282	800.000	-0.125	0.458
-404.267	-200.000	-0.009	0.482
-403.252	-57.066	-0.241	-0.139
-402.238	-54.472	-0.352	0.208
-401.223	800.000	0.084	0.487
-400.209	800.000	0.176	-0.659
-399.194	800.000	0.078	-0.325
-398.179	800.000	-0.033	-0.138
-397.165	-51.333	0.386	0.236
-396.150	-200.000	-0.000	0.021
-395.136	800.000	0.200	-0.815
-394.121	-196.289	0.737	0.006
-393.106	-29.746	0.365	0.272
-392.092	-200.000	0.030	-0.189
-391.077	225.721	-0.201	0.427
-390.063	1.276	0.178	0.168
-389.048	-103.703	0.108	0.033
-388.033	488.725	0.084	0.253
-387.019	82.318	-0.170	-0.242
-386.004	41.350	0.126	0.149
-384.990	800.000	-0.057	-0.258
-383.975	-200.000	-0.004	0.296
-382.960	-4.485	-0.161	0.146
-381.946	159.272	-0.017	0.032
-380.931	-65.921	-0.505	0.263
-379.917	-132.538	0.173	0.029
-378.902	-180.872	-0.376	-0.010
-377.888	400.455	0.065	0.180
-376.873	-70.039	-0.032	0.016
-375.858	-102.544	-0.359	0.112
-374.844	-200.000	0.019	-0.353
-373.829	-128.542	0.149	0.027
-372.815	800.000	0.029	0.167
-371.800	297.200	0.189	-0.457
-370.785	77.625	-0.466	0.650
-369.771	-80.315	0.294	0.128
-368.756	0.820	0.087	0.081
-367.742	289.281	-0.113	-0.270
-366.727	-66.802	-0.308	0.159
-365.712	284.961	0.208	-0.492
-364.698	406.412	-0.015	-0.043
-363.683	-39.400	0.441	-0.302
-362.669	696.066	0.093	-0.323
-361.654	194.296	0.197	0.391
-360.639	-4.423	-0.209	-0.189
-359.625	-25.581	-0.077	0.059
-358.610	-15.451	0.233	-0.194
-357.596	267.524	-0.204	0.470
-356.581	-190.091	-0.200	-0.003
-355.566	-148.738	0.202	-0.021
-354.552	158.150	0.137	-0.249
-353.537	383.957	-0.084	-0.227
-352.523	-159.472	0.207	-0.015
-351.508	-129.353	-0.428	0.077
-350.493	-200.000	-0.041	-0.256
-349.479	-79.628	-0.241	0.106
-348.464	-84.037	0.241	0.099
-347.450	-146.167	0.595	-0.068
-346.435	-82.878	0.185	0.078
-345.420	-200.000	0.072	-0.445
-344.406	-21.899	-0.178	-0.142
-343.391	236.925	-0.113	-0.246
-342.377	-57.015	-0.251	0.144
-341.362	216.311	0.064	-0.134
-340.348	30.390	-0.481	0.538
-339.333	-50.703	0.524	0.321
-338.318	-167.888	-0.245	-0.012
-337.304	23.872	0.367	-0.396
-336.289	-151.271	-0.369	-0.036
-335.275	-9.945	0.376	0.326
-334.260	-89.702	0.199	-0.076
-333.245	30.996	-0.187	-0.210
-332.231	-93.001	-0.275	-0.100
-331.216	135.966	-0.202	-0.345
-330.202	-72.531	0.207	0.100
-329.187	-114.528	-0.322	-0.080
-328.172	204.662	0.206	0.419
-327.158	-120.829	0.462	0.101
-326.143	-200.000	0.026	-0.171
-325.129	31.362	-0.114	0.128
-324.114	471.883	0.056	0.165
-323.099	446.277	0.087	-0.250
-322.085	-37.836	-0.484	0.335
-321.070	109.481	0.246	-0.385
-320.056	5.449	0.355	-0.342
-319.041	369.379	-0.089	-0.236
-318.026	-80.998	-0.228	-0.098
-317.012	45.118	0.195	0.234
-315.997	-200.000	-0.015	-0.167
-314.983	800.000	0.025	-0.128
-313.968	-29.799	-0.603	0.448
-312.953	-49.603	0.098	-0.061
-311.939	-82.200	0.415	-0.176
-310.924	74.764	-0.219	-0.301
-309.910	-200.000	-0.035	0.241
-308.895	125.020	0.204	0.336
-307.880	800.000	-0.044	0.250
-306.866	-104.134	0.300	-0.091
-305.851	-114.856	-0.497	-0.123
-304.837	-200.000	0.033	-0.000
-303.822	-166.138	0.517	-0.028
-302.807	37.267	-0.041	-0.047
-301.793	-124.966	0.586	0.117
-300.778	-200.000	-0.004	-0.292
-299.764	-149.177	-0.331	-0.034
-298.749	-200.000	-0.545	0.001
-297.735	11.362	0.162	-0.162
-296.720	-99.865	0.419	-0.136
-295.705	-184.005	0.343	0.007
-294.691	-36.350	0.283	0.199
-293.676	-140.020	-0.139	0.019
-292.662	-53.971	0.059	0.035
-291.647	-79.241	0.273	0.120
-290.632	800.000	0.054	0.229
-289.618	-30.869	0.256	-0.188
-288.603	-21.267	0.171	-0.136
-287.589	-100.060	-0.187	-0.060
-286.574	555.737	-0.090	-0.283
-285.559	-124.520	0.378	0.076
-284.545	169.076	-0.218	-0.406
-283.530	-200.000	0.084	0.512
-282.516	-80.724	0.488	0.210
-281.501	-91.288	-0.209	-0.078
-280.486	-96.288	0.161	-0.055
-279.472	-200.000	-0.053	-0.309
-278.457	-200.000	0.422	-0.001
-277.443	-200.000	-0.048	-0.459
-276.428	-136.758	0.226	-0.034
-275.413	-200.000	0.053	-0.312
-274.399	471.167	-0.086	0.253
-273.384	-70.957	0.323	-0.158
-272.370	304.496	-0.062	-0.150
-271.355	-200.000	-0.058	-0.485
-270.340	-14.891	-0.403	0.337
-269.326	48.385	0.166	0.203
-268.311	-116.576	-0.330	0.079
-267.297	-25.587	-0.166	0.128
-266.282	-57.491	0.098	-0.056
-265.267	-76.811	0.018	0.008
-264.253	-148.790	-0.056	0.006
-263.238	-74.716	0.169	0.079
-262.224	-40.258	0.435	0.294
-261.209	87.795	0.087	-0.126
-260.195	197.429	-0.291	0.581
-259.180	-181.703	0.096	-0.002
-258.165	-89.716	0.297	0.113
-257.151	107.627	0.159	-0.247
-256.136	-45.781	-0.369	-0.237
-255.122	-115.995	-0.182	0.044
-254.107	434.352	0.143	0.405
-253.092	-157.218	0.387	-0.030
-252.078	-181.569	-0.402	-0.010
-251.063	-30.736	0.274	-0.201
-250.049	-73.603	-0.264	-0.125
-249.034	-13.949	-0.098	-0.083
-248.019	74.902	0.146	0.201
-247.005	-113.249	-0.693	0.176
-245.990	-28.396	0.036	-0.027
-244.976	405.190	0.110	-0.304
-243.961	-125.048	-0.411	-0.081
-242.946	3.456	0.324	-0.307
-241.932	-71.232	-0.099	0.048
-240.917	-76.776	0.164	0.074
-239.903	-4.388	-0.124	0.111
-238.888	21.867	-0.464	0.492
-237.873	-82.142	0.082	0.035
-236.859	-42.612	-0.145	0.096
-235.844	561.474	0.079	0.249
-234.830	-53.551	0.360	0.214
-233.815	-47.153	0.152	0.096
-232.800	524.220	-0.172	-0.529
-231.786	-46.612	-0.420	0.267
-230.771	-126.653	-0.380	-0.073
-229.757	39.090	0.307	-0.358
-228.742	800.000	0.051	0.229
-227.727	63.090	-0.072	-0.094
-226.713	-94.971	0.359	-0.126
-225.698	800.000	-0.121	0.521
-224.684	44.419	0.274	0.328
-223.669	-103.824	-0.288	-0.087
-222.655	-46.937	0.712	0.452
-221.640	800.000	-0.148	-0.585
-220.625	87.968	0.376	0.544
-219.611	10.687	-0.151	0.150
-218.596	164.822	-0.019	-0.035
-217.582	-91.891	-0.220	0.081
-216.567	-187.315	-0.271	-0.005
-215.552	321.656	-0.126	0.313
-214.538	70.772	0.313	-0.422
-213.523	493.285	0.223	-0.668
-212.509	-30.800	0.186	-0.137
-211.494	-21.118	0.050	-0.040
-210.479	-96.006	-0.257	0.088
-209.465	89.725	-0.391	-0.569
-208.450	-127.478	-0.226	0.042
-207.436	8.705	0.068	-0.066
-206.421	-2.265	0.102	-0.093
-205.406	-5.369	0.227	-0.203
-204.392	-200.000	0.037	-0.421
-203.377	82.420	-0.201	-0.284
-202.363	-121.723	-0.221	-0.047
-201.348	48.320	0.049	-0.059
-200.333	17.273	0.128	0.132
-199.319	86.056	0.209	0.299
-198.304	35.308	0.258	0.294
-197.290	-200.000	-0.021	-0.393
-196.275	-162.639	-0.472	-0.030
-195.260	55.461	-0.157	0.197
-194.246	-101.877	0.404	-0.126
-193.231	-23.265	-0.344	0.268
-192.217	-49.459	0.223	0.137
-191.202	-200.000	-0.020	-0.289
-190.187	-110.136	0.506	0.136
-189.173	-200.000	0.028	0.596
-188.158	-77.781	0.235	0.105
-187.144	-12.764	0.061	0.051
-186.129	-49.450	0.175	0.108
-185.114	258.749	0.049	0.110
-184.100	112.382	0.107	0.168
-183.085	-74.772	0.365	-0.170
-182.071	-134.588	-0.146	0.023
-181.056	-58.575	0.588	-0.330
-180.042	-63.724	-0.356	0.189
-179.027	337.347	0.064	0.161
-178.012	-81.128	0.139	0.060
-176.998	-54.869	0.219	-0.128
-175.983	-179.430	-0.325	-0.009
-174.969	89.440	0.374	-0.542
-173.954	195.950	0.208	0.412
-172.939	-55.807	0.431	-0.249
-171.925	1.419	0.279	0.261
-170.910	-45.385	0.306	-0.196
-169.896	102.506	-0.118	-0.180
-168.881	62.165	-0.099	-0.128
-167.866	-91.850	-0.522	-0.191
-166.852	101.315	-0.155	0.234
-165.837	-35.550	-0.059	0.042
-164.823	118.273	0.334	0.536
-163.808	-163.352	-0.516	-0.032
-162.793	-4.998	-0.282	0.252
-161.779	-98.784	-0.472	-0.155
-160.764	0.120	-0.298	0.276
-159.750	-160.928	-0.255	-0.017
-158.735	-42.450	0.156	-0.103
-157.720	-66.251	0.241	0.124
-156.706	-110.976	0.087	-0.023
-155.691	2.587	0.528	0.496
-154.677	13.996	0.059	-0.060
-153.662	-167.212	0.319	-0.017
-152.647	-35.785	-0.150	0.105
-151.633	282.794	0.134	-0.313
-150.618	43.250	0.339	-0.402
-149.604	-3.079	0.446	0.403
-148.589	209.091	-0.151	-0.308
-147.574	-43.011	0.126	-0.082
-146.560	-139.384	-0.162	0.022
-145.545	-147.265	0.276	0.030
-144.531	-124.095	-0.603	-0.122
-143.516	-108.404	0.572	-0.159
-142.502	228.640	-0.058	0.123
-141.487	-200.000	-0.006	-0.459
-140.472	-26.710	0.190	-0.144
-139.458	-200.000	0.285	-0.002
-138.443	61.169	-0.310	-0.400
-137.429	304.097	-0.083	0.201
-136.414	39.515	-0.312	0.362
-135.399	157.843	0.179	-0.323
-134.385	-23.131	0.107	0.084
-133.370	209.863	-0.227	-0.464
-132.356	-200.000	0.046	-0.299
-131.341	-200.000	0.029	-0.404
-130.326	-23.580	0.348	-0.270
-129.312	125.912	-0.312	-0.513
-128.297	-116.284	-0.315	-0.075
-127.283	-58.172	0.172	0.097
-126.268	-200.000	0.001	-0.209
-125.253	136.292	0.042	-0.070
-124.239	278.353	-0.029	-0.067
-123.224	-172.402	-0.464	-0.019
-122.210	-183.155	0.355	0.008
-121.195	7.192	-0.427	-0.413
