DTS Sentinel unit serial number:	SN409020Multiplexer serial number:	ORYXHardware model number:	OX4-SRSoftware version number:	ORYX F/W v3.00 Oryx Data Collector v3.7.2.0data status	okinstallation	HaddamTimeLapsedifferential loss correction	single-endedforward channel	channel 3reverse channel	N/Adate	2011/06/22time	07:31:17forward acquisition time	30.00reverse acquisition time	0.00gamma	498.7831k internal	0.1757k external	0.1757temperature offset calibration	1.0074default loss term (dB/km)	0.3790temperature slope calibration	1.3530multiplexer offset coefficient	1.0000multiplexer slope coefficient	1.0000fibre end	0.00T internal ref (°C)	23.47T ext. ref 1 (°C)	20.85T ext. ref 2 (°C)	0.12length (m)	temperature (°C)	Stokes	anti-Stokes-747.200	30.307	0.355	0.402
-746.185	84.387	-0.158	0.229
-745.171	-40.064	0.103	-0.071
-744.156	67.004	-0.108	0.146
-743.142	405.952	0.149	0.418
-742.127	-115.524	0.342	0.085
-741.112	-120.356	-0.229	0.051
-740.098	-113.045	0.471	-0.122
-739.083	800.000	-0.044	0.258
-738.069	800.000	0.025	0.138
-737.054	32.347	-0.226	0.259
-736.039	-91.174	-0.236	0.089
-735.025	-65.523	-0.142	0.075
-734.010	-200.000	0.079	-0.541
-732.996	-104.367	-0.735	-0.224
-731.981	-88.045	0.424	0.167
-730.966	-33.956	-0.088	-0.064
-729.952	-124.550	-0.359	-0.073
-728.937	78.410	-0.218	0.308
-727.923	61.513	-0.132	-0.173
-726.908	-63.500	-0.283	-0.153
-725.894	-73.014	-0.135	-0.065
-724.879	158.439	0.138	-0.254
-723.864	-46.013	-0.246	-0.160
-722.850	800.000	-0.089	-0.370
-721.835	-124.092	0.174	-0.036
-720.821	44.566	-0.362	-0.441
-719.806	10.825	0.386	-0.389
-718.791	-61.867	-0.043	0.023
-717.777	-78.114	-0.302	0.137
-716.762	445.640	-0.267	0.779
-715.748	-12.187	-0.177	0.153
-714.733	1.943	0.331	-0.315
-713.718	-54.631	-0.196	0.117
-712.704	39.728	-0.196	0.233
-711.689	-168.945	0.545	0.027
-710.675	254.719	0.231	-0.525
-709.660	-99.924	0.764	-0.251
-708.645	-76.912	-0.079	0.036
-707.631	-102.173	-0.256	0.081
-706.616	-200.000	0.049	-0.575
-705.602	-80.691	-0.111	-0.048
-704.587	-96.904	-0.282	0.097
-703.572	423.581	0.069	-0.198
-702.558	116.140	0.377	-0.612
-701.543	-16.419	0.228	-0.191
-700.529	-130.079	0.351	-0.063
-699.514	-94.110	0.163	0.059
-698.499	-149.922	0.492	-0.050
-697.485	463.175	0.094	0.279
-696.470	-200.000	-0.040	-0.325
-695.456	-200.000	-0.041	-0.363
-694.441	-5.286	0.221	0.201
-693.426	11.045	0.330	0.333
-692.412	-87.971	-0.362	0.143
-691.397	-61.889	0.390	0.215
-690.383	69.141	0.314	-0.427
-689.368	85.340	-0.356	0.518
-688.354	66.302	-0.248	0.333
-687.339	83.924	0.223	0.322
-686.324	155.587	-0.188	-0.342
-685.310	93.180	-0.300	0.449
-684.295	-84.595	0.168	-0.069
-683.281	-80.672	-0.416	0.182
-682.266	-100.953	0.330	-0.106
-681.251	-60.520	0.619	0.346
-680.237	-155.138	-0.206	-0.018
-679.222	-55.710	-0.467	0.275
-678.208	-115.650	0.340	-0.084
-677.193	-123.637	0.457	0.095
-676.178	-45.758	-0.255	0.166
-675.164	60.046	-0.412	-0.539
-674.149	726.195	-0.108	-0.384
-673.135	132.203	0.168	0.286
-672.120	800.000	0.093	-0.417
-671.105	-50.550	-0.257	0.159
-670.091	26.250	-0.385	-0.424
-669.076	-129.543	0.222	0.040
-668.062	459.361	-0.054	0.159
-667.047	-81.051	0.306	0.133
-666.032	-200.000	0.066	-0.831
-665.018	800.000	0.045	0.174
-664.003	800.000	0.033	0.187
-662.989	186.521	-0.200	0.394
-661.974	363.400	-0.104	-0.278
-660.959	800.000	-0.021	-0.106
-659.945	-154.051	-0.323	0.029
-658.930	-110.202	0.197	0.054
-657.916	-80.149	-0.203	0.089
-656.901	184.444	0.049	0.096
-655.886	-66.007	0.429	-0.225
-654.872	99.298	-0.115	-0.175
-653.857	800.000	-0.134	-0.574
-652.843	-111.781	-0.290	-0.077
-651.828	160.797	-0.189	-0.349
-650.814	94.251	0.042	0.063
-649.799	-65.590	-0.291	0.153
-648.784	-38.341	-0.221	0.154
-647.770	-115.433	0.288	0.071
-646.755	20.703	-0.230	0.245
-645.741	-16.117	0.681	-0.570
-644.726	800.000	-0.090	-0.422
-643.711	-62.377	0.032	0.018
-642.697	-200.000	0.012	0.203
-641.682	-84.971	-0.291	0.120
-640.668	153.470	-0.124	-0.224
-639.653	800.000	-0.117	-0.458
-638.638	-98.887	-0.036	-0.012
-637.624	-150.375	-0.300	-0.030
-636.609	-14.193	0.245	0.208
-635.595	-157.790	-0.227	-0.018
-634.580	49.375	0.146	-0.181
-633.565	20.621	-0.214	0.228
-632.551	-82.586	0.265	-0.113
-631.536	485.085	0.127	-0.383
-630.522	-66.041	-0.399	-0.209
-629.507	232.022	0.058	0.125
-628.492	-3.937	-0.500	0.457
-627.478	-78.460	-0.509	0.229
-626.463	-43.604	-0.270	-0.179
-625.449	-92.277	0.490	0.181
-624.434	-70.932	-0.432	0.214
-623.419	220.050	-0.064	0.135
-622.405	-200.000	0.050	0.523
-621.390	162.862	0.104	-0.192
-620.376	25.682	-0.067	-0.073
-619.361	65.258	-0.327	0.436
-618.346	318.507	-0.108	0.272
-617.332	9.603	-0.306	0.305
-616.317	-157.338	0.052	-0.004
-615.303	-108.095	-0.452	-0.128
-614.288	-97.590	-0.379	0.129
-613.273	284.013	-0.046	0.109
-612.259	-200.000	0.079	-0.652
-611.244	165.830	-0.135	-0.252
-610.230	800.000	0.066	-0.320
-609.215	800.000	0.112	0.543
-608.201	-200.000	0.016	0.477
-607.186	-71.759	-0.808	0.395
-606.171	246.763	-0.088	0.197
-605.157	22.720	-0.262	-0.283
-604.142	161.764	0.144	0.266
-603.128	-68.334	-0.172	-0.088
-602.113	37.669	-0.220	-0.257
-601.098	85.995	0.170	0.246
-600.084	-200.000	0.012	-0.435
-599.069	-114.582	-0.288	0.072
-598.055	-37.188	-0.590	0.414
-597.040	800.000	0.106	0.424
-596.025	397.618	-0.164	0.452
-595.011	213.928	-0.070	-0.147
-593.996	690.508	0.098	-0.341
-592.982	21.127	0.148	-0.158
-591.967	-26.955	0.399	0.306
-590.952	-21.035	0.325	-0.262
-589.938	-117.632	0.070	-0.016
-588.923	-104.987	0.282	-0.084
-587.909	379.723	-0.081	0.220
-586.894	-80.184	-0.424	0.186
-585.879	800.000	0.152	0.557
-584.865	-200.000	0.013	0.155
-583.850	-112.644	-0.076	-0.020
-582.836	-32.675	0.205	-0.150
-581.821	-38.105	-0.188	0.131
-580.806	43.026	-0.392	0.470
-579.792	64.977	-0.317	0.421
-578.777	-139.411	0.206	0.029
-577.763	216.833	0.228	0.478
-576.748	-200.000	0.065	0.428
-575.733	-87.280	0.350	0.139
-574.719	-94.132	0.335	-0.120
-573.704	-200.000	0.007	0.502
-572.690	-140.087	0.589	0.081
-571.675	800.000	0.007	-0.038
-570.661	-59.366	-0.083	-0.047
-569.646	-160.805	-0.453	0.031
-568.631	-200.000	-0.028	-0.341
-567.617	-27.119	-0.241	-0.184
-566.602	800.000	0.044	-0.220
-565.588	471.525	0.129	-0.384
-564.573	15.769	0.054	-0.056
-563.558	-42.521	-0.381	-0.255
-562.544	738.443	-0.091	-0.324
-561.529	83.940	0.041	-0.059
-560.515	-200.000	0.038	0.224
-559.500	-200.000	0.002	0.318
-558.485	-33.038	-0.639	-0.465
-557.471	-138.286	-0.401	0.058
-556.456	-93.361	0.328	0.119
-555.442	-200.000	-0.006	0.371
-554.427	800.000	0.063	0.279
-553.412	-113.281	0.426	-0.109
-552.398	800.000	-0.054	-0.251
-551.383	94.404	0.123	0.184
-550.369	132.732	-0.092	-0.156
-549.354	691.333	-0.040	0.138
-548.339	390.619	-0.103	-0.283
-547.325	196.342	0.081	0.162
-546.310	119.935	0.204	-0.333
-545.296	-38.475	-0.382	-0.264
-544.281	259.508	0.111	0.254
-543.266	461.998	-0.117	-0.345
-542.252	-8.077	-0.220	-0.194
-541.237	-200.000	0.066	-0.435
-540.223	129.794	-0.147	0.248
-539.208	-111.207	0.140	0.037
-538.193	-12.853	-0.255	0.217
-537.179	564.431	0.042	0.134
-536.164	-200.000	-0.045	-0.428
-535.150	-33.815	0.194	-0.140
-534.135	-116.139	-0.117	0.028
-533.121	-152.345	-0.193	0.018
-532.106	18.545	0.160	0.168
-531.091	371.246	-0.271	-0.724
-530.077	296.587	-0.058	-0.141
-529.062	-123.815	-0.079	0.016
-528.048	28.689	0.066	0.074
-527.033	-34.487	-0.045	-0.032
-526.018	183.199	0.070	-0.136
-525.004	800.000	0.059	0.257
-523.989	-200.000	0.027	-0.332
-522.975	4.709	0.275	0.265
-521.960	-174.404	-0.220	-0.008
-520.945	65.760	-0.215	0.285
-519.931	352.997	0.039	-0.102
-518.916	53.203	0.224	0.282
-517.902	-137.406	0.183	0.027
-516.887	-32.917	0.266	0.194
-515.872	334.851	0.024	-0.060
-514.858	366.446	-0.142	-0.377
-513.843	-28.185	0.218	-0.165
-512.829	-200.000	0.084	0.512
-511.814	-33.367	0.528	-0.382
-510.799	345.928	0.184	-0.476
-509.785	-73.208	-0.658	-0.315
-508.770	16.988	0.345	-0.358
-507.756	800.000	-0.057	0.263
-506.741	-39.616	-0.272	0.186
-505.726	-137.628	-0.337	-0.049
-504.712	73.955	0.073	0.101
-503.697	-200.000	0.018	0.543
-502.683	111.756	-0.072	-0.115
-501.668	-200.000	-0.028	-0.352
-500.653	-66.691	0.217	-0.112
-499.639	257.556	-0.126	0.285
-498.624	232.529	-0.061	-0.131
-497.610	486.000	0.087	0.261
-496.595	-200.000	-0.056	0.000
-495.581	-65.602	0.077	0.040
-494.566	-155.132	-0.387	-0.033
-493.551	-46.631	-0.061	-0.039
-492.537	-117.308	-0.408	0.096
-491.522	304.813	0.042	0.104
-490.508	45.530	-0.292	-0.353
-489.493	-122.486	0.254	0.054
-488.478	-120.474	-0.149	0.033
-487.464	-200.000	-0.020	0.151
-486.449	-179.213	-0.125	-0.004
-485.435	-113.211	0.165	0.042
-484.420	-200.000	-0.012	0.233
-483.405	173.634	0.246	-0.467
-482.391	-154.957	0.454	0.039
-481.376	5.090	-0.151	-0.145
-480.362	-62.122	-0.487	-0.265
-479.347	-200.000	0.034	-0.264
-478.332	-182.686	-0.348	0.008
-477.318	-175.051	-0.209	0.007
-476.303	133.301	0.188	0.319
-475.289	-109.259	-0.414	-0.114
-474.274	126.142	-0.263	-0.437
-473.259	256.571	0.272	-0.615
-472.245	548.016	0.089	-0.281
-471.230	-79.596	0.353	-0.155
-470.216	800.000	0.095	-0.469
-469.201	398.348	-0.036	-0.099
-468.186	-91.195	-0.242	0.090
-467.172	-200.000	-0.025	-0.148
-466.157	-24.688	0.208	-0.162
-465.143	-55.779	0.302	-0.176
-464.128	-43.447	0.299	-0.197
-463.113	-71.635	-0.366	0.178
-462.099	-200.000	0.018	-0.555
-461.084	-200.000	0.011	-0.520
-460.070	-24.995	-0.085	-0.066
-459.055	-37.961	0.315	-0.218
-458.040	320.093	0.219	-0.547
-457.026	-59.725	-0.198	0.111
-456.011	736.723	-0.075	-0.265
-454.997	521.369	0.069	-0.214
-453.982	-93.442	-0.230	0.083
-452.968	349.016	-0.217	0.563
-451.953	-26.083	0.461	-0.354
-450.938	-169.148	0.384	0.018
-449.924	-106.974	0.231	0.066
-448.909	-95.667	-0.468	0.163
-447.895	-76.428	-0.271	-0.124
-446.880	-138.933	-0.601	-0.085
-445.865	8.324	0.338	0.332
-444.851	128.612	-0.149	0.249
-443.836	37.190	-0.103	0.119
-442.822	-117.167	0.225	-0.053
-441.807	271.297	-0.128	0.297
-440.792	-74.649	0.733	-0.343
-439.778	-200.000	0.047	-0.341
-438.763	-13.078	-0.418	-0.355
-437.749	63.643	0.117	-0.154
-436.734	-106.373	0.333	-0.097
-435.719	-200.000	-0.010	-0.110
-434.705	-57.917	0.209	0.119
-433.690	-121.683	0.258	-0.055
-432.676	48.835	0.154	-0.189
-431.661	313.282	0.073	-0.179
-430.646	-135.550	0.233	-0.036
-429.632	249.084	0.222	-0.495
-428.617	-111.112	-0.212	0.056
-427.603	-18.687	0.154	-0.125
-426.588	93.287	0.272	-0.403
-425.573	-60.257	0.351	-0.195
-424.559	-186.065	0.346	-0.007
-423.544	-200.000	0.026	-0.296
-422.530	303.273	-0.185	0.449
-421.515	361.238	-0.195	0.513
-420.500	-109.151	-0.358	0.099
-419.486	716.101	0.070	0.243
-418.471	-129.463	-0.445	0.080
-417.457	-104.249	-0.059	-0.018
-416.442	-163.031	0.147	-0.009
-415.428	-200.000	-0.009	-0.193
-414.413	45.601	-0.306	-0.369
-413.398	188.193	0.050	-0.098
-412.384	97.950	0.162	-0.244
-411.369	31.437	-0.059	0.066
-410.355	-115.238	-0.423	0.104
-409.340	-113.084	-0.312	0.080
-408.325	17.212	0.470	0.487
-407.311	-54.680	-0.307	-0.180
-406.296	-88.796	0.454	0.175
-405.282	-37.883	0.153	-0.106
-404.267	-59.282	-0.365	-0.205
-403.252	-200.000	0.006	-0.103
-402.238	500.128	-0.260	0.787
-401.223	15.447	0.348	0.357
-400.209	-64.795	0.521	0.275
-399.194	800.000	0.151	-0.723
-398.179	142.446	-0.260	0.451
-397.165	47.723	0.247	0.301
-396.150	800.000	0.065	-0.240
-395.136	-0.511	-0.019	-0.018
-394.121	-178.613	-0.159	-0.005
-393.106	94.364	-0.179	-0.266
-392.092	-151.863	-0.224	0.021
-391.077	208.077	0.080	-0.163
-390.063	-15.711	-0.186	0.155
-389.048	-106.853	0.168	0.048
-388.033	-43.570	0.202	0.132
-387.019	-163.725	0.284	0.017
-386.004	-87.214	0.472	-0.186
-384.990	-178.106	-0.009	-0.000
-383.975	-122.490	-0.058	-0.012
-382.960	137.433	-0.123	-0.210
-381.946	-200.000	-0.006	0.136
-380.931	-159.870	0.307	-0.022
-379.917	124.829	0.163	-0.269
-378.902	-200.000	0.056	0.332
-377.888	-144.916	0.125	0.015
-376.873	-200.000	0.022	0.287
-375.858	-10.229	-0.283	0.244
-374.844	-117.513	-0.269	0.063
-373.829	259.674	-0.093	0.209
-372.815	-3.616	-0.187	0.170
-371.800	-4.190	0.363	0.328
-370.785	-124.468	-0.204	-0.041
-369.771	-200.000	-0.029	-0.375
-368.756	-92.226	0.167	0.061
-367.742	24.182	-0.150	-0.162
-366.727	-200.000	-0.015	-0.218
-365.712	442.580	0.023	-0.067
-364.698	26.050	-0.200	0.218
-363.683	47.456	-0.214	0.260
-362.669	-9.669	-0.229	0.199
-361.654	52.704	-0.055	0.068
-360.639	90.256	-0.243	0.355
-359.625	101.156	0.149	-0.227
-358.610	-84.229	-0.332	-0.136
-357.596	-135.367	0.303	-0.047
-356.581	-140.810	-0.244	-0.032
-355.566	-158.228	-0.742	0.056
-354.552	-62.593	-0.177	-0.095
-353.537	163.956	0.160	-0.294
-352.523	453.217	-0.159	0.461
-351.508	-51.524	0.036	0.022
-350.493	241.805	0.092	0.201
-349.479	800.000	0.027	-0.116
-348.464	-82.024	0.228	0.096
-347.450	-74.161	0.487	-0.229
-346.435	169.828	-0.227	-0.424
-345.420	800.000	-0.028	-0.123
-344.406	-105.937	0.319	-0.093
-343.391	220.584	0.203	-0.426
-342.377	-139.546	-0.140	-0.019
-341.362	-140.628	-0.110	-0.015
-340.348	427.286	-0.131	0.371
-339.333	800.000	0.113	0.583
-338.318	-148.903	-0.050	0.005
-337.304	-10.090	0.162	-0.140
-336.289	-2.572	-0.289	-0.263
-335.275	-67.974	0.437	0.221
-334.260	-86.739	-0.291	0.115
-333.245	266.495	-0.008	-0.018
-332.231	76.277	-0.106	-0.146
-331.216	108.792	-0.057	0.088
-330.202	27.397	0.151	0.165
-329.187	47.320	0.319	0.387
-328.172	-23.280	-0.264	0.207
-327.158	-200.000	-0.034	0.338
-326.143	-78.271	0.265	0.118
-325.129	-155.660	-0.171	0.014
-324.114	-109.468	0.361	-0.099
-323.099	3.067	-0.130	0.123
-322.085	-89.597	0.619	-0.235
-321.070	37.092	-0.051	0.059
-320.056	-129.351	-0.172	-0.031
-319.041	114.124	-0.074	-0.117
-318.026	218.183	-0.153	0.320
-317.012	-200.000	0.004	0.557
-315.997	-200.000	-0.007	0.621
-314.983	-151.487	-0.103	-0.010
-313.968	251.767	-0.041	0.091
-312.953	-94.708	0.310	-0.109
-311.939	-142.277	0.202	-0.026
-310.924	22.507	0.210	0.223
-309.910	277.788	0.011	0.026
-308.895	147.841	-0.101	0.178
-307.880	60.362	-0.257	-0.331
-306.866	-107.167	0.147	-0.042
-305.851	800.000	0.023	-0.124
-304.837	-56.415	0.132	0.076
-303.822	-123.190	0.730	0.151
-302.807	13.572	0.327	0.330
-301.793	-32.688	-0.201	-0.146
-300.778	-74.644	0.695	0.324
-299.764	-200.000	-0.077	0.630
-298.749	800.000	-0.027	0.129
-297.735	466.956	-0.119	0.349
-296.720	-22.470	0.225	0.177
-295.705	-34.211	0.191	0.136
-294.691	17.092	-0.424	0.437
-293.676	-200.000	-0.056	0.523
-292.662	-200.000	0.034	0.266
-291.647	296.840	-0.169	0.404
-290.632	148.718	0.166	-0.292
-289.618	-123.140	0.446	-0.092
-288.603	-145.197	0.313	0.036
-287.589	451.380	-0.069	-0.198
-286.574	-200.000	-0.001	-0.414
-285.559	800.000	-0.143	-0.533
-284.545	477.907	0.024	-0.071
-283.530	156.366	-0.043	-0.078
-282.516	132.358	0.197	-0.331
-281.501	125.677	-0.145	-0.238
-280.486	66.559	0.095	-0.125
-279.472	11.107	0.185	0.184
-278.457	438.897	-0.053	-0.150
-277.443	-119.204	0.678	0.152
-276.428	-200.000	0.005	0.323
-275.413	285.430	-0.050	0.117
-274.399	210.262	0.242	-0.495
-273.384	377.286	0.072	0.191
-272.370	39.633	-0.162	-0.189
-271.355	-93.524	0.216	-0.077
-270.340	800.000	0.019	-0.079
-269.326	800.000	0.128	-0.507
-268.311	278.156	0.047	-0.109
-267.297	-200.000	-0.042	0.248
-266.282	-200.000	-0.008	0.257
-265.267	-155.318	0.562	0.047
-264.253	6.149	-0.157	-0.151
-263.238	-100.257	-0.482	-0.154
-262.224	-98.280	0.165	0.055
-261.209	237.470	0.105	-0.226
-260.195	800.000	0.113	-0.412
-259.180	800.000	-0.086	0.431
-258.165	-46.552	-0.070	0.045
-257.151	-142.962	0.367	0.046
-256.136	29.460	-0.108	0.119
-255.122	-51.969	-0.198	0.119
-254.107	188.509	-0.133	-0.260
-253.092	-13.941	-0.376	-0.315
-252.078	-200.000	-0.097	0.588
-251.063	762.174	0.049	0.173
-250.049	71.148	-0.128	-0.172
-249.034	-72.662	0.171	-0.081
-248.019	-9.682	0.387	-0.335
-247.005	-139.098	-0.674	0.094
-245.990	428.389	-0.131	0.370
-244.976	-200.000	0.006	0.103
-243.961	-167.301	0.177	-0.009
-242.946	-138.341	0.564	-0.080
-241.932	-24.549	0.153	-0.118
-240.917	86.611	-0.143	0.205
-239.903	-200.000	-0.188	0.000
-238.888	-136.731	0.845	-0.125
-237.873	-200.000	-0.014	-0.142
-236.859	-21.776	0.190	0.150
-235.844	105.290	-0.245	-0.377
-234.830	-129.075	-0.384	0.069
-233.815	59.828	-0.096	0.124
-232.800	-7.850	0.112	-0.098
-231.786	154.653	-0.180	-0.322
-230.771	-200.000	0.024	0.281
-229.757	800.000	0.042	-0.155
-228.742	-22.067	0.408	-0.321
-227.727	466.355	0.104	-0.303
-226.713	-66.694	-0.308	-0.157
-225.698	36.990	-0.025	0.028
-224.684	-167.882	0.091	-0.005
-223.669	800.000	-0.122	0.544
-222.655	-97.278	0.375	-0.126
-221.640	-68.387	0.122	0.061
-220.625	5.297	0.433	-0.414
-219.611	-14.983	0.261	-0.217
-218.596	-85.415	-0.153	-0.062
-217.582	-19.444	-0.111	0.089
-216.567	-176.975	0.752	0.024
-215.552	192.678	-0.047	0.092
-214.538	-185.070	0.337	-0.007
-213.523	386.663	-0.232	-0.624
-212.509	-126.271	0.095	0.018
-211.494	-51.862	-0.455	0.274
-210.479	-200.000	0.038	-0.225
-209.465	-33.191	0.291	-0.208
-208.450	800.000	-0.048	-0.177
-207.436	-166.048	0.077	-0.004
-206.421	513.700	-0.118	-0.359
-205.406	313.257	-0.199	0.486
-204.392	-200.000	-0.015	-0.204
-203.377	-83.640	-0.393	-0.162
-202.363	-97.414	-0.350	-0.117
-201.348	204.363	0.180	0.364
-200.333	-200.000	-0.002	-0.120
-199.319	-95.026	0.349	-0.121
-198.304	457.992	0.010	0.030
-197.290	-200.000	0.011	0.483
-196.275	-108.592	0.202	-0.056
-195.260	-55.362	-0.397	-0.230
-194.246	-107.658	-0.464	0.130
-193.231	-26.863	-0.050	0.038
-192.217	139.247	0.033	-0.056
-191.202	30.850	-0.142	-0.157
-190.187	0.427	-0.106	-0.098
-189.173	139.303	0.212	0.362
-188.158	-106.645	-0.216	0.062
-187.144	-51.404	0.314	0.190
-186.129	-6.927	-0.163	-0.143
-185.114	-107.269	-0.193	0.055
-184.100	-200.000	0.015	0.206
-183.085	-82.394	-0.191	-0.080
-182.071	-156.282	0.219	-0.018
-181.056	800.000	-0.109	-0.430
-180.042	48.211	-0.259	-0.314
-179.027	-125.744	-0.226	-0.044
-178.012	317.358	-0.145	0.356
-176.998	-43.346	0.135	0.088
-175.983	800.000	0.097	0.503
-174.969	-200.000	-0.012	0.072
-173.954	401.447	-0.062	0.168
-172.939	-137.661	-0.113	0.016
-171.925	-159.996	0.188	0.013
-170.910	70.923	-0.193	0.258
-169.896	-92.456	0.428	0.155
-168.881	-103.330	0.363	0.110
-167.866	-119.250	-0.673	-0.150
-166.852	322.470	-0.033	-0.081
-165.837	-143.393	-0.111	-0.014
-164.823	-123.424	-0.164	0.034
-163.808	120.311	0.243	-0.391
-162.793	-27.349	-0.152	0.115
-161.779	354.306	0.166	-0.428
-160.764	170.594	0.132	0.245
-159.750	-85.371	0.287	0.115
-158.735	-36.523	-0.334	-0.232
-157.720	16.734	-0.150	0.154
-156.706	29.606	0.218	0.239
-155.691	-98.181	0.256	-0.085
-154.677	800.000	-0.053	-0.262
-153.662	568.375	0.089	0.281
-152.647	-91.926	0.241	-0.088
-151.633	108.521	0.075	0.116
-150.618	-173.611	-0.210	0.008
-149.604	800.000	0.052	-0.296
-148.589	-200.000	0.036	0.258
-147.574	-82.335	-0.257	0.108
-146.560	-94.497	0.346	-0.121
-145.545	9.945	0.274	0.269
-144.531	-200.000	0.034	-0.258
-143.516	-61.428	0.130	-0.070
-142.502	60.561	0.130	-0.167
-141.487	-132.447	0.199	-0.033
-140.472	-162.059	-0.302	-0.019
-139.458	-197.418	0.390	-0.003
-138.443	118.765	0.050	-0.079
-137.429	-73.125	-0.334	-0.158
-136.414	-107.929	-0.246	0.069
-135.399	570.137	-0.125	0.394
-134.385	-184.288	0.297	-0.006
-133.370	-62.086	0.127	0.068
-132.356	-186.474	0.241	0.004
-131.341	-64.911	-0.166	0.086
-130.326	-200.000	0.028	0.443
-129.312	208.946	0.237	0.481
-128.297	800.000	0.089	0.413
-127.283	-71.599	0.146	-0.070
-126.268	-61.624	0.616	-0.333
-125.253	-62.191	0.152	-0.081
-124.239	156.269	0.253	-0.451
-123.224	-200.000	-0.012	0.311
-122.210	458.472	0.059	-0.170
