DTS Sentinel unit serial number:	SN409020Multiplexer serial number:	ORYXHardware model number:	OX4-SRSoftware version number:	ORYX F/W v3.00 Oryx Data Collector v3.7.2.0data status	okinstallation	HaddamTimeLapsedifferential loss correction	single-endedforward channel	channel 3reverse channel	N/Adate	2011/06/22time	01:31:17forward acquisition time	30.00reverse acquisition time	0.00gamma	498.7831k internal	0.1751k external	0.1751temperature offset calibration	1.0074default loss term (dB/km)	0.3790temperature slope calibration	1.3530multiplexer offset coefficient	1.0000multiplexer slope coefficient	1.0000fibre end	0.00T internal ref (°C)	22.50T ext. ref 1 (°C)	17.73T ext. ref 2 (°C)	0.00length (m)	temperature (°C)	Stokes	anti-Stokes-747.200	-2.101	-0.082	0.076
-746.185	251.545	0.141	0.320
-745.171	-71.726	-0.359	0.177
-744.156	-99.289	-0.712	0.237
-743.142	-105.217	0.159	-0.048
-742.127	98.585	0.115	0.176
-741.112	211.914	-0.219	-0.460
-740.098	-99.116	0.683	0.228
-739.083	694.373	0.081	-0.283
-738.069	12.031	-0.356	0.364
-737.054	-114.110	-0.401	0.102
-736.039	-19.159	-0.242	0.199
-735.025	800.000	0.053	-0.231
-734.010	-99.347	0.182	-0.060
-732.996	-86.159	-0.311	-0.127
-731.981	800.000	-0.135	-0.502
-730.966	124.595	0.111	-0.186
-729.952	666.250	-0.088	-0.305
-728.937	796.199	-0.135	-0.497
-727.923	800.000	-0.097	-0.411
-726.908	-44.242	-0.405	-0.269
-725.894	-200.000	-0.010	0.147
-724.879	77.059	-0.362	-0.511
-723.864	-107.220	0.419	-0.122
-722.850	-13.806	0.447	-0.383
-721.835	-184.930	-0.097	0.002
-720.821	-116.006	0.107	-0.026
-719.806	39.378	0.135	-0.161
-718.791	-140.947	0.654	-0.088
-717.777	603.578	0.119	-0.394
-716.762	-62.466	0.309	-0.170
-715.748	242.811	0.020	0.044
-714.733	58.100	0.178	-0.231
-713.718	-200.000	-0.067	0.551
-712.704	800.000	-0.041	-0.162
-711.689	-130.497	-0.444	-0.079
-710.675	-87.018	-0.349	-0.140
-709.660	-127.514	-0.237	0.045
-708.645	263.765	0.167	0.386
-707.631	-200.000	0.012	-0.212
-706.616	-176.187	0.178	-0.006
-705.602	-11.689	-0.095	0.083
-704.587	89.036	-0.136	0.201
-703.572	-49.988	0.389	0.244
-702.558	448.653	0.095	0.278
-701.543	-34.075	0.281	-0.204
-700.529	-12.331	-0.098	0.085
-699.514	-61.092	-0.730	0.407
-698.499	605.013	0.214	0.709
-697.485	800.000	-0.054	0.233
-696.470	-76.216	-0.249	-0.116
-695.456	-164.570	-0.378	-0.022
-694.441	-73.057	0.191	-0.092
-693.426	102.949	-0.123	-0.191
-692.412	-86.363	0.456	0.185
-691.397	136.766	0.296	0.514
-690.383	-110.110	-0.339	-0.093
-689.368	-69.113	0.172	-0.087
-688.354	-79.040	-0.508	0.228
-687.339	53.760	-0.225	0.286
-686.324	800.000	-0.081	0.384
-685.310	-115.598	-0.412	0.102
-684.295	146.291	-0.041	-0.072
-683.281	-85.504	0.559	-0.230
-682.266	-33.827	-0.292	-0.212
-681.251	558.191	-0.175	-0.562
-680.237	-25.119	-0.164	0.129
-679.222	41.807	-0.202	0.242
-678.208	4.677	0.090	-0.088
-677.193	103.351	-0.377	-0.587
-676.178	-38.742	-0.195	-0.136
-675.164	-152.236	-0.414	-0.039
-674.149	27.175	0.091	-0.101
-673.135	306.423	0.206	-0.509
-672.120	76.394	-0.129	0.182
-671.105	-65.339	-0.159	-0.085
-670.091	-15.725	-0.102	0.086
-669.076	-98.699	0.320	0.107
-668.062	800.000	0.138	-0.538
-667.047	-168.752	-0.328	-0.016
-666.032	-94.009	0.331	0.120
-665.018	43.079	0.247	0.299
-664.003	68.699	0.125	0.170
-662.989	-73.100	0.523	0.253
-661.974	-49.622	-0.382	-0.240
-660.959	-28.527	-0.381	-0.290
-659.945	42.287	-0.246	0.296
-658.930	-200.000	-0.023	-0.330
-657.916	28.137	0.352	-0.393
-656.901	-64.556	-0.211	-0.113
-655.886	-45.055	-0.336	-0.221
-654.872	-200.000	-0.028	-0.459
-653.857	-200.000	0.062	-0.402
-652.843	-89.182	-0.459	0.179
-651.828	113.316	-0.358	-0.576
-650.814	-176.967	-0.322	0.011
-649.799	-97.856	-0.484	0.164
-648.784	-99.056	-0.467	0.155
-647.770	-147.923	0.086	0.009
-646.755	21.073	-0.218	-0.234
-645.741	-38.811	-0.175	0.122
-644.726	-96.670	-0.224	0.078
-643.711	-66.343	-0.355	-0.186
-642.697	1.707	0.296	0.282
-641.682	567.895	-0.101	0.327
-640.668	192.796	-0.146	0.293
-639.653	123.773	0.172	0.286
-638.638	2.221	0.117	0.112
-637.624	-200.000	-0.001	0.454
-636.609	128.441	0.108	0.182
-635.595	-10.399	0.384	0.337
-634.580	27.103	-0.090	-0.099
-633.565	800.000	0.045	-0.217
-632.551	-200.000	0.426	0.002
-631.536	240.544	0.019	0.042
-630.522	-200.000	0.027	0.272
-629.507	-200.000	0.024	-0.275
-628.492	178.005	0.112	0.216
-627.478	269.958	0.078	-0.181
-626.463	-166.471	0.399	0.022
-625.449	-87.167	0.262	-0.105
-624.434	238.074	-0.018	-0.041
-623.419	309.215	0.116	0.289
-622.405	-88.234	0.406	0.160
-621.390	-78.496	-0.269	0.121
-620.376	-16.306	-0.298	-0.249
-619.361	-92.481	-0.311	0.115
-618.346	484.495	0.086	0.260
-617.332	-200.000	0.195	-0.001
-616.317	-200.000	0.015	-0.099
-615.303	-72.535	0.278	-0.135
-614.288	-143.797	-0.319	0.039
-613.273	-134.777	-0.108	0.017
-612.259	-63.576	-0.417	-0.225
-611.244	-51.453	-0.544	-0.335
-610.230	-133.417	-0.644	-0.106
-609.215	-96.441	0.437	0.152
-608.201	-27.775	0.489	0.374
-607.186	-8.351	0.257	-0.228
-606.171	-47.106	-0.047	-0.030
-605.157	-132.251	0.394	-0.067
-604.142	127.288	0.045	0.076
-603.128	72.152	0.107	0.148
-602.113	103.865	-0.396	0.615
-601.098	127.598	0.214	0.359
-600.084	-151.953	0.310	0.029
-599.069	73.425	0.075	0.104
-598.055	-200.000	0.010	-0.261
-597.040	-116.064	-0.052	-0.013
-596.025	-121.883	0.146	-0.031
-595.011	-38.439	0.294	0.205
-593.996	-120.891	0.336	-0.074
-592.982	-36.501	-0.017	-0.012
-591.967	-125.627	-0.105	0.021
-590.952	-150.567	0.205	-0.020
-589.938	-89.619	0.236	-0.091
-588.923	-54.622	0.123	-0.073
-587.909	128.878	-0.154	0.260
-586.894	8.196	-0.481	0.477
-585.879	-200.000	-0.013	0.413
-584.865	34.563	-0.360	0.415
-583.850	-63.743	-0.091	0.049
-582.836	72.516	-0.228	0.314
-581.821	-145.383	-0.249	-0.029
-580.806	344.423	0.118	-0.306
-579.792	105.257	-0.229	-0.358
-578.777	23.837	-0.253	-0.275
-577.763	-200.000	-0.463	-0.002
-576.748	-38.185	-0.134	-0.094
-575.733	-49.424	0.405	-0.254
-574.719	26.980	-0.169	0.187
-573.704	110.026	-0.207	0.328
-572.690	257.708	0.242	0.551
-571.675	192.718	0.190	-0.380
-570.661	19.920	-0.144	0.154
-569.646	800.000	-0.024	0.125
-568.631	36.766	-0.235	-0.275
-567.617	-21.624	-0.497	-0.399
-566.602	192.354	0.112	0.224
-565.588	-200.000	0.067	-0.492
-564.573	-200.000	0.067	-0.659
-563.558	93.388	-0.210	-0.314
-562.544	29.557	0.296	-0.332
-561.529	-48.561	0.251	-0.159
-560.515	184.950	0.148	-0.290
-559.500	800.000	-0.046	0.177
-558.485	800.000	0.057	0.215
-557.471	-70.065	-0.094	-0.047
-556.456	-117.179	0.272	0.065
-555.442	34.442	-0.051	0.059
-554.427	109.501	0.251	-0.396
-553.412	-173.376	-0.419	-0.016
-552.398	-76.137	-0.441	0.204
-551.383	-71.986	0.235	-0.115
-550.369	-160.855	0.101	0.007
-549.354	-118.737	0.356	0.082
-548.339	-200.000	-0.040	0.261
-547.325	-122.490	0.619	-0.132
-546.310	70.726	-0.180	0.246
-545.296	-172.540	-0.173	-0.007
-544.281	139.810	0.067	-0.116
-543.266	-4.221	0.292	0.266
-542.252	-103.317	-0.382	0.118
-541.237	-126.510	0.392	0.076
-540.223	268.158	0.142	0.328
-539.208	14.968	-0.519	-0.535
-538.193	800.000	0.099	-0.381
-537.179	-32.998	0.152	0.111
-536.164	-20.120	0.305	0.247
-535.150	154.554	-0.076	0.138
-534.135	-125.483	-0.656	-0.130
-533.121	220.697	0.122	0.259
-532.106	54.843	-0.245	0.311
-531.091	-157.091	0.479	0.038
-530.077	2.903	-0.177	-0.169
-529.062	179.671	-0.096	0.186
-528.048	-45.620	0.195	-0.127
-527.033	34.206	0.320	-0.367
-526.018	-37.112	-0.254	-0.178
-525.004	-102.148	0.050	0.016
-523.989	-97.218	-0.258	-0.088
-522.975	23.277	-0.076	-0.083
-521.960	325.652	-0.067	0.169
-520.945	-200.000	0.016	-0.299
-519.931	-200.000	0.027	-0.208
-518.916	63.662	-0.210	-0.278
-517.902	800.000	-0.107	-0.429
-516.887	-16.267	0.031	-0.026
-515.872	-200.000	0.030	0.495
-514.858	-6.172	0.081	-0.072
-513.843	-43.821	0.336	-0.222
-512.829	11.821	0.362	-0.366
-511.814	-132.138	0.522	-0.088
-510.799	-117.627	0.353	-0.083
-509.785	-97.501	-0.502	-0.171
-508.770	665.766	0.132	-0.452
-507.756	-76.890	0.251	0.115
-506.741	-125.090	-0.236	-0.047
-505.726	-61.839	-0.405	0.222
-504.712	-200.000	-0.009	0.172
-503.697	159.036	-0.140	0.257
-502.683	-81.728	0.105	0.045
-501.668	125.878	0.070	0.116
-500.653	-84.013	0.203	-0.084
-499.639	-200.000	-0.024	-0.200
-498.624	252.279	0.255	0.573
-497.610	-129.397	0.382	-0.069
-496.595	759.215	-0.084	0.300
-495.581	-43.749	0.203	0.134
-494.566	-18.571	0.162	-0.133
-493.551	10.188	0.088	-0.088
-492.537	-98.823	-0.250	0.083
-491.522	-71.914	0.237	0.115
-490.508	-200.000	0.020	-0.264
-489.493	14.552	0.142	-0.145
-488.478	-200.000	-0.007	-0.048
-487.464	-75.005	-0.232	-0.109
-486.449	262.983	-0.042	0.097
-485.435	381.972	-0.300	-0.814
-484.420	84.855	-0.128	0.185
-483.405	-38.269	0.170	0.118
-482.391	-10.691	0.274	-0.238
-481.376	-82.180	0.532	0.227
-480.362	-109.856	0.271	-0.074
-479.347	-107.947	0.475	-0.135
-478.332	-106.486	-0.210	0.061
-477.318	-11.761	0.309	-0.266
-476.303	419.919	-0.020	-0.055
-475.289	-200.000	-0.016	0.245
-474.274	259.840	-0.255	0.581
-473.259	773.925	0.097	0.349
-472.245	-71.505	0.352	-0.172
-471.230	-142.864	-0.293	-0.037
-470.216	-41.130	0.255	-0.173
-469.201	800.000	0.020	-0.101
-468.186	800.000	0.038	-0.156
-467.172	-159.865	-0.197	0.014
-466.157	-42.574	0.312	0.208
-465.143	-143.674	-0.270	0.033
-464.128	-120.883	-0.548	-0.120
-463.113	-116.706	-0.206	-0.049
-462.099	-76.209	0.403	0.186
-461.084	-66.316	-0.157	-0.082
-460.070	-200.000	0.018	-0.137
-459.055	-12.461	-0.134	-0.115
-458.040	-42.971	0.103	0.068
-457.026	308.747	0.138	-0.340
-456.011	800.000	-0.073	0.301
-454.997	21.848	0.127	-0.135
-453.982	-14.522	-0.210	-0.177
-452.968	524.144	0.111	0.345
-451.953	-158.556	-0.271	0.020
-450.938	-49.383	-0.271	-0.169
-449.924	-132.032	-0.265	0.045
-448.909	-82.512	0.049	-0.021
-447.895	538.913	0.157	-0.492
-446.880	-156.016	-0.239	0.020
-445.865	-67.078	-0.309	-0.159
-444.851	-91.308	-0.141	0.053
-443.836	800.000	0.048	-0.251
-442.822	-63.240	0.370	-0.199
-441.807	134.466	-0.378	-0.644
-440.792	800.000	0.156	0.584
-439.778	228.206	0.145	0.311
-438.763	11.093	-0.120	-0.120
-437.749	-2.503	0.430	-0.395
-436.734	342.365	-0.121	-0.312
-435.719	-200.000	0.007	0.686
-434.705	273.153	-0.147	0.343
-433.690	-200.000	0.011	0.303
-432.676	28.345	-0.315	-0.350
-431.661	574.108	0.067	-0.215
-430.646	-60.789	0.173	-0.096
-429.632	257.191	-0.104	-0.236
-428.617	-156.455	-0.345	-0.028
-427.603	-200.000	-0.049	-0.339
-426.588	-96.140	-0.217	0.075
-425.573	-101.970	0.261	-0.082
-424.559	800.000	0.036	-0.180
-423.544	160.303	-0.163	-0.299
-422.530	-105.616	0.471	-0.139
-421.515	342.447	0.067	0.171
-420.500	-13.862	0.195	-0.165
-419.486	22.776	0.300	0.322
-418.471	-152.687	0.600	-0.055
-417.457	-200.000	0.001	-0.522
-416.442	-200.000	-0.016	-0.255
-415.428	1.197	-0.361	0.340
-414.413	72.979	-0.262	-0.360
-413.398	598.697	0.064	0.211
-412.384	-114.517	0.029	-0.007
-411.369	19.756	-0.071	-0.075
-410.355	-41.316	0.340	-0.229
-409.340	91.206	-0.189	-0.279
-408.325	-104.111	0.547	0.166
-407.311	-73.201	-0.023	0.011
-406.296	-101.404	0.593	0.188
-405.282	89.061	-0.067	0.098
-404.267	-200.000	-0.061	-0.502
-403.252	41.462	0.251	-0.298
-402.238	-200.000	-0.001	0.313
-401.223	-200.000	-0.027	-0.177
-400.209	-86.049	0.274	0.110
-399.194	209.584	-0.173	-0.356
-398.179	-9.287	-0.328	-0.287
-397.165	-50.564	-0.102	-0.063
-396.150	-90.799	0.301	-0.113
-395.136	-120.064	-0.379	-0.084
-394.121	-200.000	-0.003	-0.231
-393.106	700.633	-0.098	-0.341
-392.092	147.333	0.201	0.356
-391.077	-2.892	0.098	-0.089
-390.063	663.133	0.097	-0.328
-389.048	2.409	-0.182	-0.172
-388.033	-142.614	-0.152	-0.019
-387.019	29.338	-0.413	0.460
-386.004	88.935	0.146	-0.214
-384.990	-200.000	-0.007	-0.367
-383.975	-76.310	0.045	-0.021
-382.960	800.000	0.069	0.299
-381.946	-21.283	-0.210	-0.168
-380.931	-69.915	0.233	0.116
-379.917	-106.344	0.097	-0.028
-378.902	800.000	-0.061	-0.338
-377.888	-53.496	0.339	0.203
-376.873	368.322	-0.230	-0.613
-375.858	545.315	-0.107	-0.337
-374.844	-127.245	0.227	-0.043
-373.829	-57.294	0.443	0.254
-372.815	800.000	-0.068	0.388
-371.800	-109.960	-0.236	0.064
-370.785	800.000	0.100	0.449
-369.771	-157.991	0.197	0.015
-368.756	16.094	0.032	-0.033
-367.742	395.745	0.164	0.451
-366.727	-123.734	0.253	-0.052
-365.712	-96.102	0.439	0.152
-364.698	178.197	-0.160	0.306
-363.683	59.889	0.059	-0.076
-362.669	-200.000	0.003	-0.032
-361.654	463.788	-0.028	-0.082
-360.639	-135.427	0.294	-0.045
-359.625	800.000	-0.136	0.724
-358.610	-122.187	0.118	0.025
-357.596	-83.199	0.206	0.086
-356.581	58.376	-0.359	-0.461
-355.566	-145.833	-0.309	-0.036
-354.552	-61.570	-0.460	0.252
-353.537	-200.000	0.020	-0.183
-352.523	-33.936	-0.197	-0.141
-351.508	-200.000	-0.040	-0.303
-350.493	-72.967	0.240	0.115
-349.479	140.608	-0.207	0.359
-348.464	-5.917	-0.374	0.335
-347.450	-27.346	-0.229	0.174
-346.435	-200.000	0.029	0.532
-345.420	-21.254	0.191	0.152
-344.406	576.151	-0.155	0.498
-343.391	280.775	-0.094	-0.222
-342.377	-109.040	-0.470	-0.130
-341.362	-150.176	0.207	0.021
-340.348	-127.406	0.137	0.026
-339.333	-31.490	0.225	-0.165
-338.318	-88.732	0.298	0.115
-337.304	15.782	-0.107	0.110
-336.289	80.066	-0.019	0.027
-335.275	-15.154	-0.025	-0.021
-334.260	-98.675	-0.059	-0.019
-333.245	800.000	-0.032	-0.145
-332.231	-32.404	-0.096	-0.070
-331.216	120.723	0.202	-0.330
-330.202	-16.563	-0.087	-0.072
-329.187	800.000	0.030	0.153
-328.172	134.969	-0.307	0.523
-327.158	-200.000	0.014	0.202
-326.143	-120.125	0.171	-0.038
-325.129	-74.121	0.542	-0.255
-324.114	144.092	0.183	-0.319
-323.099	39.968	-0.577	0.677
-322.085	800.000	-0.052	0.247
-321.070	198.415	-0.189	0.379
-320.056	-45.418	-0.335	-0.216
-319.041	308.263	-0.046	-0.112
-318.026	259.977	-0.318	0.719
-317.012	-200.000	0.076	0.541
-315.997	89.188	0.214	0.312
-314.983	-200.000	0.061	0.783
-313.968	800.000	-0.030	0.142
-312.953	-20.315	-0.211	-0.169
-311.939	-200.000	-0.004	0.136
-310.924	-26.527	0.091	-0.070
-309.910	457.590	-0.052	0.151
-308.895	-200.000	0.027	-0.230
-307.880	118.268	-0.187	-0.301
-306.866	-200.000	0.004	0.504
-305.851	-60.070	-0.347	0.193
-304.837	-21.494	-0.568	0.451
-303.822	-49.066	0.176	-0.109
-302.807	-200.000	0.089	0.690
-301.793	120.465	-0.143	0.233
-300.778	516.870	-0.038	-0.116
-299.764	-71.916	-0.451	0.218
-298.749	-125.079	0.251	0.050
-297.735	209.724	0.115	-0.237
-296.720	-162.966	-0.312	-0.019
-295.705	-157.272	0.188	0.015
-294.691	-142.591	-0.526	-0.067
-293.676	226.395	-0.113	0.240
-292.662	76.496	0.184	-0.254
-291.647	-58.432	0.300	-0.170
-290.632	388.385	-0.125	-0.340
-289.618	-68.020	0.328	0.166
-288.603	54.499	-0.096	-0.121
-287.589	-43.695	0.557	-0.365
-286.574	91.239	0.237	0.348
-285.559	257.221	-0.035	0.079
-284.545	348.389	-0.117	-0.302
-283.530	-73.092	0.338	0.161
-282.516	290.438	0.227	-0.541
-281.501	90.401	-0.076	0.112
-280.486	-143.575	0.456	0.056
-279.472	118.745	0.180	-0.291
-278.457	-80.605	-0.076	-0.033
-277.443	-121.826	-0.249	0.053
-276.428	6.041	-0.004	0.004
-275.413	-68.086	-0.170	-0.086
-274.399	-80.123	0.365	0.159
-273.384	206.862	0.036	0.072
-272.370	-111.071	-0.173	0.046
-271.355	-24.010	0.179	0.139
-270.340	158.212	-0.344	0.623
-269.326	-74.187	-0.147	-0.069
-268.311	95.072	0.153	-0.228
-267.297	116.682	-0.026	0.042
-266.282	177.457	0.213	-0.405
-265.267	265.253	0.051	-0.115
-264.253	160.985	0.053	-0.098
-263.238	-105.754	-0.375	0.110
-262.224	-200.000	0.084	0.000
-261.209	419.225	0.159	-0.445
-260.195	-35.408	-0.235	-0.166
-259.180	39.480	0.122	0.142
-258.165	-106.266	0.170	-0.049
-257.151	800.000	-0.105	-0.381
-256.136	425.544	0.054	-0.152
-255.122	84.294	0.399	-0.569
-254.107	40.685	-0.258	-0.303
-253.092	665.631	-0.034	-0.114
-252.078	46.381	0.033	-0.040
-251.063	528.678	-0.186	-0.575
-250.049	-200.000	-0.036	-0.359
-249.034	-4.157	-0.209	-0.188
-248.019	-0.969	-0.131	-0.121
-247.005	-111.950	0.237	0.062
-245.990	-65.548	0.220	-0.115
-244.976	-106.460	0.244	-0.070
-243.961	-157.567	0.131	-0.010
-242.946	26.640	-0.250	0.272
-241.932	30.352	-0.174	-0.194
-240.917	-83.138	-0.230	0.096
-239.903	58.194	0.248	-0.316
-238.888	-200.000	0.046	0.421
-237.873	-108.238	-0.243	0.068
-236.859	-200.000	-0.020	-0.211
-235.844	328.456	0.108	0.272
-234.830	285.267	-0.095	-0.223
-233.815	-107.302	-0.565	-0.161
-232.800	-55.252	-0.517	0.301
-231.786	103.596	-0.223	0.342
-230.771	219.318	-0.204	-0.426
-229.757	11.116	-0.092	-0.092
-228.742	-22.115	-0.328	-0.258
-227.727	-164.047	-0.446	-0.027
-226.713	-74.218	0.179	-0.084
-225.698	181.504	-0.170	0.327
-224.684	-14.181	0.240	0.201
-223.669	-16.438	0.171	0.141
-222.655	267.768	0.184	0.420
-221.640	-55.800	0.310	-0.180
-220.625	-56.152	0.257	0.148
-219.611	97.859	-0.212	-0.318
-218.596	6.028	0.053	0.051
-217.582	-112.717	0.195	-0.050
-216.567	88.693	-0.254	0.368
-215.552	219.236	-0.134	-0.280
-214.538	113.173	0.153	-0.242
-213.523	93.000	-0.149	0.220
-212.509	51.835	-0.320	0.396
-211.494	-28.792	-0.257	0.192
-210.479	-200.000	-0.025	0.152
-209.465	-109.380	0.225	0.061
-208.450	-64.041	0.469	0.248
-207.436	-200.000	0.580	-0.001
-206.421	118.079	0.225	-0.362
-205.406	-188.943	-0.471	-0.007
-204.392	75.847	0.322	0.443
-203.377	-153.660	-0.125	-0.011
-202.363	-6.469	-0.253	0.224
-201.348	800.000	0.028	0.119
-200.333	124.422	0.189	0.310
-199.319	-52.758	-0.175	-0.104
-198.304	-11.818	0.448	-0.382
-197.290	9.912	-0.251	0.248
-196.275	-200.000	-0.479	0.000
-195.260	0.804	-0.285	-0.265
-194.246	-26.871	0.129	-0.098
-193.231	13.009	0.214	-0.216
-192.217	-200.000	0.013	0.282
-191.202	-81.564	-0.340	-0.144
-190.187	44.336	0.152	0.181
-189.173	800.000	0.043	0.237
-188.158	-23.594	-0.235	-0.183
-187.144	-132.422	-0.138	0.023
-186.129	-200.000	0.026	-0.243
-185.114	-200.000	0.001	-0.042
-184.100	-31.278	0.073	-0.053
-183.085	-111.642	-0.254	0.066
-182.071	-108.938	-0.431	-0.119
-181.056	-125.720	-0.223	-0.043
-180.042	-10.191	0.223	0.192
-179.027	-127.483	0.082	0.015
-178.012	-151.969	0.174	-0.016
-176.998	-106.111	-0.545	-0.158
-175.983	648.664	-0.109	-0.363
-174.969	10.473	0.182	-0.180
-173.954	800.000	0.047	0.224
-172.939	-62.476	0.358	0.193
-171.925	251.080	-0.139	0.308
-170.910	-200.000	0.008	-0.226
-169.896	-127.744	0.220	0.041
-168.881	2.930	0.346	-0.326
-167.866	24.136	-0.398	-0.427
-166.852	-49.473	-0.265	-0.164
-165.837	-121.890	0.345	0.073
-164.823	118.778	0.061	-0.098
-163.808	-97.570	0.545	0.183
-162.793	800.000	0.121	0.467
-161.779	800.000	0.066	0.291
-160.764	800.000	0.057	0.279
-159.750	-200.000	-0.003	-0.060
-158.735	-177.005	-0.283	0.009
-157.720	97.750	0.123	-0.184
-156.706	-200.000	0.010	-0.061
-155.691	-157.234	-0.174	-0.013
-154.677	-197.010	-0.321	0.003
-153.662	-25.230	-0.197	0.151
-152.647	-200.000	-0.013	-0.149
-151.633	-78.629	0.142	-0.063
-150.618	491.935	-0.032	-0.096
-149.604	-138.904	-0.317	0.044
-148.589	335.511	0.049	0.123
-147.574	800.000	-0.057	-0.215
-146.560	-113.379	-0.185	-0.047
-145.545	800.000	0.100	0.471
-144.531	-187.781	-0.327	0.005
-143.516	-67.400	0.689	-0.350
-142.502	-72.212	-0.348	-0.167
-141.487	800.000	0.112	-0.416
-140.472	184.363	0.102	-0.197
-139.458	180.683	0.096	0.184
-138.443	-138.817	0.009	-0.001
-137.429	-92.336	0.501	0.182
-136.414	228.748	0.135	0.286
-135.399	-200.000	-0.009	0.282
-134.385	-200.000	0.045	-0.344
-133.370	286.427	-0.137	0.321
-132.356	-173.614	-0.039	-0.001
-131.341	252.406	-0.170	0.378
-130.326	800.000	-0.099	-0.495
-129.312	-93.722	-0.250	0.089
-128.297	14.725	-0.103	0.104
-127.283	2.135	0.437	-0.409
-126.268	22.861	-0.088	0.093
-125.253	-89.255	-0.259	0.099
-124.239	251.320	-0.176	0.390
-123.224	-80.068	0.242	-0.105
-122.210	185.448	0.241	0.465
