DTS Sentinel unit serial number:	SN409020Multiplexer serial number:	ORYXHardware model number:	OX4-SRSoftware version number:	ORYX F/W v3.00 Oryx Data Collector v3.7.2.0data status	okinstallation	HaddamTimeLapsedifferential loss correction	single-endedforward channel	channel 3reverse channel	N/Adate	2011/06/21time	16:31:17forward acquisition time	30.00reverse acquisition time	0.00gamma	498.7831k internal	0.1786k external	0.1786temperature offset calibration	1.0074default loss term (dB/km)	0.3790temperature slope calibration	1.3530multiplexer offset coefficient	1.0000multiplexer slope coefficient	1.0000fibre end	0.00T internal ref (°C)	33.06T ext. ref 1 (°C)	26.55T ext. ref 2 (°C)	0.22length (m)	temperature (°C)	Stokes	anti-Stokes-747.200	-200.000	-0.005	-0.691
-746.185	-152.963	0.334	-0.030
-745.171	-69.166	0.293	-0.146
-744.156	-200.000	-0.054	0.459
-743.142	193.401	-0.155	-0.306
-742.127	50.310	0.249	0.307
-741.112	-42.839	0.139	0.092
-740.098	800.000	0.020	-0.091
-739.083	-106.698	-0.532	0.153
-738.069	424.971	-0.173	0.488
-737.054	-99.787	-0.185	-0.060
-736.039	-200.000	0.016	-0.127
-735.025	-42.725	-0.295	-0.195
-734.010	-38.260	0.027	0.019
-732.996	-200.000	0.213	0.000
-731.981	284.572	-0.160	0.377
-730.966	-112.824	-0.584	-0.150
-729.952	11.618	-0.277	0.276
-728.937	67.002	0.088	0.116
-727.923	7.322	0.284	-0.276
-726.908	165.497	0.034	-0.063
-725.894	800.000	-0.095	-0.510
-724.879	615.705	-0.041	0.134
-723.864	174.305	0.165	-0.312
-722.850	-114.279	-0.230	-0.057
-721.835	-200.000	0.052	0.506
-720.821	1.427	-0.655	0.613
-719.806	-159.269	-0.084	0.006
-718.791	-30.878	0.086	-0.063
-717.777	376.042	-0.135	-0.361
-716.762	253.475	0.146	0.326
-715.748	-129.102	-0.533	0.096
-714.733	-94.417	0.271	0.096
-713.718	-200.000	0.005	-0.150
-712.704	-47.652	-0.066	0.041
-711.689	-72.883	-0.392	-0.187
-710.675	154.521	0.059	-0.106
-709.660	-51.932	0.200	0.121
-708.645	-104.680	-0.173	-0.052
-707.631	800.000	-0.096	0.370
-706.616	-45.199	0.474	-0.305
-705.602	114.103	0.137	-0.218
-704.587	54.609	0.025	0.031
-703.572	-18.183	-0.120	0.097
-702.558	-20.616	0.429	0.342
-701.543	-20.941	0.108	-0.086
-700.529	-101.087	0.433	0.137
-699.514	29.105	0.143	0.158
-698.499	92.031	0.251	0.368
-697.485	-200.000	0.039	-0.284
-696.470	-81.093	-0.233	0.100
-695.456	-138.998	-0.545	0.076
-694.441	-127.492	-0.136	-0.025
-693.426	-47.056	0.201	-0.127
-692.412	-57.528	-0.300	0.171
-691.397	-99.750	-0.205	0.066
-690.383	-170.319	-0.435	0.020
-689.368	800.000	-0.095	-0.493
-688.354	241.716	0.269	-0.587
-687.339	93.416	-0.230	0.338
-686.324	-56.237	0.246	0.141
-685.310	-66.200	-0.326	-0.168
-684.295	283.148	-0.192	0.450
-683.281	235.015	-0.388	0.835
-682.266	-86.839	0.372	0.147
-681.251	626.595	-0.057	0.187
-680.237	650.891	-0.151	0.505
-679.222	-135.062	-0.590	0.091
-678.208	-98.039	-0.322	0.107
-677.193	-55.575	-0.288	0.167
-676.178	-20.853	-0.303	0.241
-675.164	119.267	-0.381	0.614
-674.149	22.769	-0.193	-0.205
-673.135	-119.034	-0.114	-0.026
-672.120	-160.071	0.431	-0.030
-671.105	12.119	0.137	-0.137
-670.091	40.186	-0.295	-0.344
-669.076	8.002	0.349	-0.339
-668.062	-136.970	-0.537	0.079
-667.047	-75.455	-0.229	0.105
-666.032	-67.479	0.257	-0.130
-665.018	-58.532	-0.298	-0.168
-664.003	8.237	-0.191	-0.186
-662.989	124.511	-0.108	-0.177
-661.974	295.701	-0.198	0.472
-660.959	-75.415	0.163	0.075
-659.945	53.356	0.114	0.141
-658.930	-133.908	-0.092	0.015
-657.916	-104.937	-0.114	0.034
-656.901	247.819	0.081	0.179
-655.886	14.791	-0.055	-0.056
-654.872	522.185	-0.103	0.316
-653.857	-28.867	-0.290	-0.216
-652.843	350.733	0.036	0.094
-651.828	-68.563	-0.289	-0.145
-650.814	-121.886	0.591	-0.125
-649.799	-105.106	0.259	-0.076
-648.784	-159.595	0.378	0.027
-647.770	-139.660	0.351	-0.048
-646.755	-133.180	0.226	-0.037
-645.741	-200.000	0.003	-0.091
-644.726	342.862	-0.069	-0.177
-643.711	-68.460	0.114	0.057
-642.697	486.057	0.071	-0.210
-641.682	164.511	-0.252	0.463
-640.668	23.960	0.271	0.290
-639.653	38.297	-0.274	-0.317
-638.638	-200.000	-0.053	0.311
-637.624	2.568	0.239	-0.224
-636.609	28.011	-0.184	0.201
-635.595	-156.305	-0.343	-0.028
-634.580	39.129	-0.607	0.704
-633.565	106.121	0.145	-0.222
-632.551	-38.652	0.245	-0.168
-631.536	761.501	-0.057	0.203
-630.522	-107.658	0.345	0.097
-629.507	-19.563	0.262	-0.210
-628.492	-92.258	0.530	0.193
-627.478	526.656	-0.088	-0.271
-626.463	-77.015	-0.464	-0.209
-625.449	-114.602	-0.453	0.112
-624.434	341.106	0.110	-0.280
-623.419	109.299	0.052	0.081
-622.405	-200.000	0.019	0.594
-621.390	306.179	0.083	-0.200
-620.376	-163.457	0.298	0.018
-619.361	-2.531	0.261	-0.236
-618.346	19.887	0.332	-0.347
-617.332	-177.499	-0.152	0.005
-616.317	16.415	-0.257	0.263
-615.303	-58.456	0.067	-0.038
-614.288	338.017	-0.064	0.161
-613.273	-200.000	-0.043	0.473
-612.259	523.427	0.032	-0.099
-611.244	-200.000	0.007	0.129
-610.230	-96.997	0.167	-0.056
-609.215	756.787	-0.089	-0.313
-608.201	-52.886	-0.268	-0.159
-607.186	53.080	0.272	-0.338
-606.171	-58.001	0.171	-0.097
-605.157	713.441	0.088	0.302
-604.142	3.544	-0.305	0.288
-603.128	9.669	-0.292	-0.286
-602.113	-83.207	-0.304	-0.126
-601.098	477.479	-0.081	-0.237
-600.084	43.851	0.168	0.199
-599.069	29.232	0.388	0.427
-598.055	-146.939	0.129	-0.014
-597.040	800.000	0.109	0.495
-596.025	-200.000	0.008	-0.554
-595.011	-108.581	0.262	-0.073
-593.996	86.779	0.169	-0.242
-592.982	190.604	-0.192	0.374
-591.967	-95.251	-0.531	0.184
-590.952	-35.441	-0.214	-0.150
-589.938	222.173	-0.141	-0.295
-588.923	800.000	0.043	-0.202
-587.909	-2.602	-0.264	-0.239
-586.894	33.756	0.152	-0.171
-585.879	680.806	-0.167	0.565
-584.865	3.848	-0.296	-0.280
-583.850	-52.058	-0.291	-0.175
-582.836	-120.218	-0.385	-0.084
-581.821	-200.000	0.003	0.125
-580.806	800.000	0.157	-0.702
-579.792	800.000	-0.060	-0.313
-578.777	14.492	0.086	0.087
-577.763	110.936	-0.184	-0.287
-576.748	-15.596	-0.239	-0.197
-575.733	96.822	-0.181	-0.269
-574.719	161.197	0.157	-0.285
-573.704	-171.479	0.444	-0.019
-572.690	-122.619	-0.811	0.169
-571.675	-108.379	-0.510	-0.141
-570.661	-30.444	-0.409	-0.299
-569.646	-68.339	-0.434	-0.217
-568.631	-108.879	0.258	-0.071
-567.617	-82.084	-0.184	-0.077
-566.602	633.782	0.073	-0.239
-565.588	-17.022	0.119	0.097
-564.573	-149.455	-0.208	-0.021
-563.558	-6.526	0.098	-0.086
-562.544	-97.767	-0.232	0.077
-561.529	9.228	0.108	0.106
-560.515	-200.000	0.068	0.441
-559.500	154.381	-0.137	-0.244
-558.485	-82.178	0.444	-0.186
-557.471	-48.685	0.131	-0.081
-556.456	516.409	-0.194	0.589
-555.442	800.000	0.100	0.382
-554.427	-128.473	0.304	0.055
-553.412	-52.565	0.440	-0.262
-552.398	-68.984	0.512	0.254
-551.383	800.000	0.071	-0.289
-550.369	800.000	0.060	0.300
-549.354	218.330	-0.182	0.377
-548.339	336.034	0.067	0.168
-547.325	-135.490	-0.208	-0.032
-546.310	-88.374	-0.192	0.074
-545.296	-49.392	-0.259	0.159
-544.281	-12.160	-0.194	0.164
-543.266	-200.000	-0.039	0.419
-542.252	-64.253	-0.162	0.085
-541.237	-44.158	0.199	0.129
-540.223	-54.193	0.133	-0.078
-539.208	-28.488	-0.444	0.330
-538.193	328.443	-0.055	0.136
-537.179	203.577	-0.028	0.055
-536.164	-0.696	0.076	0.069
-535.150	-13.726	0.250	0.209
-534.135	-18.382	-0.541	0.436
-533.121	-200.000	0.012	0.177
-532.106	-200.000	0.015	0.241
-531.091	790.110	0.023	-0.084
-530.077	0.883	0.048	0.044
-529.062	-81.271	0.348	-0.148
-528.048	-200.000	0.113	-0.691
-527.033	52.124	0.227	0.280
-526.018	10.633	0.234	-0.230
-525.004	22.661	-0.205	0.216
-523.989	-6.675	-0.226	-0.198
-522.975	-200.000	-0.082	-0.608
-521.960	-142.545	0.197	0.025
-520.945	-176.205	-0.604	0.020
-519.931	114.822	-0.241	0.379
-518.916	-18.616	0.326	-0.262
-517.902	67.543	-0.071	-0.094
-516.887	127.943	-0.037	-0.061
-515.872	-89.178	-0.309	-0.117
-514.858	359.920	0.154	-0.398
-513.843	800.000	-0.169	-0.937
-512.829	-17.483	-0.114	0.093
-511.814	800.000	-0.070	0.298
-510.799	-125.647	0.262	-0.051
-509.785	-74.482	0.128	0.059
-508.770	800.000	-0.047	-0.212
-507.756	67.136	0.247	0.325
-506.741	-200.000	-0.039	0.610
-505.726	-87.442	0.599	0.233
-504.712	-101.985	0.378	-0.117
-503.697	46.083	0.207	-0.248
-502.683	-200.000	-0.071	0.624
-501.668	295.006	-0.158	-0.374
-500.653	800.000	-0.021	-0.120
-499.639	-111.857	-0.340	-0.088
-498.624	564.370	-0.084	0.264
-497.610	339.624	-0.224	0.566
-496.595	-122.628	0.380	0.079
-495.581	46.007	-0.232	-0.277
-494.566	134.710	0.148	-0.248
-493.551	526.395	-0.096	0.292
-492.537	-118.969	0.174	-0.039
-491.522	-90.955	-0.209	-0.077
-490.508	-145.580	-0.088	0.010
-489.493	-10.690	0.191	0.163
-488.478	-174.280	-0.525	-0.019
-487.464	-148.126	-0.410	-0.043
-486.449	-53.315	-0.428	0.252
-485.435	109.833	-0.078	-0.120
-484.420	-200.000	0.020	0.229
-483.405	-103.763	0.387	0.116
-482.391	-116.926	0.547	0.128
-481.376	-26.816	0.371	0.279
-480.362	-104.566	0.143	0.042
-479.347	-7.091	0.154	0.135
-478.332	-200.000	-0.034	-0.326
-477.318	-63.280	0.196	0.104
-476.303	-68.362	-0.563	0.281
-475.289	144.250	0.041	-0.070
-474.274	-29.249	0.262	-0.193
-473.259	800.000	-0.039	0.205
-472.245	321.211	-0.068	-0.168
-471.230	115.157	0.295	-0.466
-470.216	-50.496	0.035	-0.021
-469.201	-122.281	-0.244	-0.051
-468.186	94.548	0.173	0.254
-467.172	-140.294	0.199	0.026
-466.157	-65.994	-0.304	-0.156
-465.143	154.331	-0.146	0.258
-464.128	-200.000	0.012	-0.090
-463.113	-114.500	-0.311	-0.076
-462.099	-48.871	0.063	-0.039
-461.084	800.000	0.004	-0.013
-460.070	97.763	0.365	0.542
-459.055	-200.000	0.086	0.740
-458.040	-78.087	-0.351	0.155
-457.026	-96.322	-0.270	0.091
-456.011	-111.972	0.336	0.087
-454.997	-86.295	-0.281	0.111
-453.982	-77.936	-0.221	0.098
-452.968	-13.068	-0.279	0.233
-451.953	-73.374	0.421	0.197
-450.938	3.744	0.087	0.081
-449.924	272.880	0.139	0.317
-448.909	-30.972	0.529	-0.384
-447.895	-200.000	0.047	-0.355
-446.880	35.867	0.317	-0.360
-445.865	642.707	-0.042	0.138
-444.851	0.937	-0.309	0.285
-443.836	-128.172	-0.327	-0.060
-442.822	-200.000	-0.094	0.598
-441.807	-111.361	0.670	0.175
-440.792	-200.000	0.009	-0.183
-439.778	355.991	-0.095	-0.244
-438.763	-5.382	0.233	0.206
-437.749	-128.199	-0.408	0.074
-436.734	294.779	-0.193	0.457
-435.719	-200.000	-0.020	0.598
-434.705	779.273	-0.149	0.528
-433.690	318.318	0.149	0.365
-432.676	219.293	-0.130	-0.269
-431.661	-83.258	-0.260	0.107
-430.646	424.267	-0.140	-0.389
-429.632	800.000	-0.176	-0.692
-428.617	693.881	-0.058	-0.196
-427.603	164.095	0.122	0.221
-426.588	98.751	0.234	-0.348
-425.573	730.232	0.057	0.199
-424.559	800.000	-0.007	-0.026
-423.544	-53.356	-0.196	0.115
-422.530	-116.083	0.189	0.045
-421.515	-27.241	0.082	0.062
-420.500	7.635	0.216	0.208
-419.486	311.649	-0.076	-0.183
-418.471	39.285	-0.378	-0.436
-417.457	-149.839	0.074	0.007
-416.442	-61.830	-0.258	-0.139
-415.428	-199.019	-0.197	-0.001
-414.413	21.356	0.148	0.154
-413.398	43.915	0.167	-0.197
-412.384	-99.955	0.459	-0.146
-411.369	800.000	-0.035	0.128
-410.355	-30.350	-0.159	0.116
-409.340	800.000	-0.022	0.127
-408.325	-60.404	-0.403	-0.220
-407.311	-134.920	-0.255	-0.039
-406.296	-200.000	0.005	-0.138
-405.282	-39.650	-0.148	-0.099
-404.267	-131.907	0.193	0.032
-403.252	77.520	0.226	0.310
-402.238	-91.977	0.047	0.017
-401.223	-13.518	-0.338	-0.281
-400.209	-48.893	-0.046	0.028
-399.194	44.834	-0.233	-0.276
-398.179	16.752	0.370	-0.376
-397.165	187.519	0.167	-0.321
-396.150	-4.010	0.224	0.200
-395.136	-32.331	0.172	-0.123
-394.121	-162.411	-0.220	0.014
-393.106	20.811	-0.066	-0.068
-392.092	404.907	0.051	-0.137
-391.077	-38.566	0.134	0.091
-390.063	-99.824	-0.203	-0.065
-389.048	-60.462	0.257	-0.140
-388.033	600.189	-0.053	-0.169
-387.019	800.000	-0.054	-0.264
-386.004	239.147	0.086	0.185
-384.990	-165.835	0.218	-0.012
-383.975	-200.000	-0.023	0.370
-382.960	-108.969	-0.497	-0.135
-381.946	-200.000	0.013	-0.291
-380.931	571.744	-0.143	0.451
-379.917	800.000	-0.127	0.462
-378.902	-29.389	-0.257	0.188
-377.888	-45.229	0.221	-0.141
-376.873	189.168	-0.255	-0.491
-375.858	-85.204	0.475	-0.190
-374.844	111.497	0.257	0.398
-373.829	-120.300	-0.153	0.033
-372.815	337.409	0.088	0.221
-371.800	108.656	-0.019	0.029
-370.785	244.390	-0.184	-0.398
-369.771	56.568	0.343	-0.428
-368.756	-64.311	0.415	0.216
-367.742	-200.000	0.002	-0.051
-366.727	-200.000	0.004	0.396
-365.712	-19.655	0.127	0.101
-364.698	63.299	-0.315	0.405
-363.683	-173.096	0.156	0.006
-362.669	-200.000	-0.016	0.438
-361.654	-129.070	0.374	0.066
-360.639	753.525	-0.075	-0.261
-359.625	43.707	0.109	-0.128
-358.610	-200.000	0.056	-0.441
-357.596	-200.000	-0.031	-0.182
-356.581	-144.527	-0.059	-0.007
-355.566	58.156	0.153	0.193
-354.552	7.356	-0.237	-0.227
-353.537	48.888	0.180	0.216
-352.523	-21.541	0.285	-0.223
-351.508	-200.000	-0.017	0.254
-350.493	-72.414	-0.450	-0.212
-349.479	-10.928	0.221	0.187
-348.464	-109.599	0.164	0.044
-347.450	420.663	0.163	-0.450
-346.435	-126.130	-0.624	-0.119
-345.420	64.001	-0.070	0.090
-344.406	-89.900	-0.325	-0.121
-343.391	33.298	-0.148	0.165
-342.377	125.908	-0.268	0.435
-341.362	43.904	-0.183	-0.215
-340.348	-135.140	0.426	0.065
-339.333	-69.936	-0.241	-0.117
-338.318	-57.625	0.462	-0.259
-337.304	1.886	0.067	0.062
-336.289	800.000	-0.015	-0.084
-335.275	170.629	0.070	0.129
-334.260	-126.490	0.475	-0.090
-333.245	-79.931	-0.393	0.168
-332.231	128.256	-0.451	-0.737
-331.216	-74.630	0.121	0.056
-330.202	14.506	0.189	-0.189
-329.187	130.486	-0.284	0.468
-328.172	-200.000	-0.361	-0.000
-327.158	-74.411	0.231	0.106
-326.143	48.698	0.261	0.314
-325.129	53.447	-0.307	0.378
-324.114	-161.773	0.284	0.018
-323.099	-68.211	0.123	-0.061
-322.085	82.735	0.236	0.329
-321.070	-117.214	-0.482	-0.111
-320.056	-63.534	-0.190	0.099
-319.041	459.240	-0.102	0.291
-318.026	12.989	0.188	-0.186
-317.012	-9.081	0.085	0.072
-315.997	-78.249	-0.140	-0.061
-314.983	420.788	0.010	0.027
-313.968	123.989	-0.131	-0.211
-312.953	503.408	0.089	0.265
-311.939	800.000	0.080	0.305
-310.924	-180.388	0.543	-0.014
-309.910	125.957	0.203	0.330
-308.895	-94.181	0.528	-0.184
-307.880	-152.942	0.434	-0.039
-306.866	-200.000	-0.001	-0.180
-305.851	-75.885	0.113	-0.051
-304.837	-17.109	-0.329	0.265
-303.822	381.391	0.163	0.430
-302.807	-200.000	-0.036	-0.402
-301.793	-200.000	0.087	-0.497
-300.778	-86.825	0.406	-0.158
-299.764	580.164	-0.066	-0.208
-298.749	485.079	0.113	0.332
-297.735	182.505	0.157	0.297
-296.720	-36.452	-0.351	-0.241
-295.705	-147.388	-0.195	0.021
-294.691	-133.831	-0.176	-0.028
-293.676	-52.233	-0.352	-0.208
-292.662	-48.631	-0.396	-0.243
-291.647	-200.000	-0.067	-0.441
-290.632	-10.734	0.384	0.324
-289.618	-200.000	0.051	-0.549
-288.603	-119.299	0.474	0.105
-287.589	2.366	0.228	-0.211
-286.574	13.890	-0.220	-0.219
-285.559	800.000	-0.047	-0.196
-284.545	55.023	0.105	0.130
-283.530	-17.437	0.448	0.360
-282.516	-90.940	-0.276	0.101
-281.501	150.961	-0.395	0.688
-280.486	-102.759	-0.201	-0.061
-279.472	-173.615	-0.412	-0.016
-278.457	-154.687	0.313	-0.026
-277.443	-141.591	0.333	0.042
-276.428	800.000	0.050	-0.191
-275.413	-95.443	0.333	0.114
-274.399	-56.829	0.252	-0.142
-273.384	-200.000	0.064	0.578
-272.370	-200.000	0.066	0.437
-271.355	56.188	-0.109	0.135
-270.340	-62.307	-0.225	-0.119
-269.326	-200.000	0.024	0.153
-268.311	445.216	-0.062	0.175
-267.297	611.523	0.125	-0.402
-266.282	-73.479	0.208	0.096
-265.267	168.989	-0.019	0.035
-264.253	778.700	0.047	-0.165
-263.238	-64.048	0.258	0.134
-262.224	-38.062	-0.256	0.173
-261.209	481.946	-0.110	0.321
-260.195	-100.084	0.219	0.069
-259.180	-200.000	-0.011	0.272
-258.165	-30.868	0.067	-0.049
-257.151	49.829	0.195	0.235
-256.136	273.855	-0.221	-0.502
-255.122	176.908	0.281	-0.524
-254.107	109.480	-0.050	-0.077
-253.092	-118.716	-0.230	0.051
-252.078	-118.082	-0.178	-0.040
-251.063	-6.517	0.092	-0.080
-250.049	277.035	-0.147	0.336
-249.034	800.000	-0.088	-0.380
-248.019	-200.000	-0.044	-0.497
-247.005	-38.285	0.152	-0.103
-245.990	334.396	-0.138	-0.344
-244.976	-51.510	0.046	-0.028
-243.961	800.000	0.038	-0.190
-242.946	-78.069	-0.193	0.085
-241.932	800.000	-0.019	-0.095
-240.917	-7.521	-0.149	-0.129
-239.903	800.000	0.116	0.640
-238.888	800.000	-0.025	0.124
-237.873	514.452	0.099	-0.298
-236.859	-200.000	-0.038	-0.381
-235.844	-200.000	0.001	-0.302
-234.830	800.000	-0.206	-0.744
-233.815	113.473	0.242	0.376
-232.800	484.070	-0.117	0.342
-231.786	41.532	0.447	-0.516
-230.771	-36.207	0.203	0.140
-229.757	79.162	0.077	0.106
-228.742	-104.099	0.283	0.084
-227.727	-89.596	-0.068	0.025
-226.713	-3.420	-0.201	-0.178
-225.698	-99.728	-0.227	0.072
-224.684	-200.000	-0.359	-0.002
-223.669	96.490	0.306	0.448
-222.655	-16.959	0.395	0.318
-221.640	-52.066	0.325	-0.192
-220.625	-116.125	-0.013	-0.003
-219.611	-106.312	0.318	-0.090
-218.596	-118.661	-0.607	-0.136
-217.582	-46.006	-0.186	-0.116
-216.567	-156.671	0.377	-0.029
-215.552	-200.000	-0.023	0.264
-214.538	166.022	0.150	0.271
-213.523	800.000	-0.058	-0.224
-212.509	-105.682	0.146	-0.042
-211.494	-200.000	0.042	-0.307
-210.479	56.834	-0.120	0.150
-209.465	-134.218	0.264	0.041
-208.450	-200.000	0.016	-0.235
-207.436	-13.761	-0.363	0.299
-206.421	-56.219	-0.225	0.127
-205.406	-92.912	0.412	0.146
-204.392	-200.000	0.005	0.147
-203.377	-200.000	-0.028	-0.304
-202.363	-147.686	0.422	0.045
-201.348	-17.916	-0.123	-0.099
-200.333	-77.751	0.117	0.052
-199.319	21.800	-0.403	0.419
-198.304	-63.130	0.342	-0.179
-197.290	-119.476	0.236	0.052
-196.275	-200.000	-0.054	-0.599
-195.260	229.716	-0.271	0.566
-194.246	20.903	0.159	0.164
-193.231	800.000	-0.103	0.462
-192.217	-162.691	0.604	-0.037
-191.202	466.371	0.044	-0.126
-190.187	346.768	-0.181	-0.456
-189.173	-99.499	0.337	0.107
-188.158	-126.661	0.200	0.037
-187.144	800.000	-0.102	-0.393
-186.129	284.331	0.140	0.323
-185.114	-57.876	0.179	0.099
-184.100	-200.000	-0.000	0.609
-183.085	190.972	0.138	-0.266
-182.071	-200.000	-0.058	-0.384
-181.056	-57.201	-0.230	0.129
-180.042	225.104	0.210	-0.435
-179.027	-87.804	-0.533	0.203
-178.012	-56.218	-0.071	0.040
-176.998	800.000	0.102	-0.459
-175.983	-200.000	-0.591	0.000
-174.969	-141.520	-0.753	-0.096
-173.954	-32.005	0.300	-0.213
-172.939	-200.000	0.043	-0.441
-171.925	40.545	-0.167	-0.192
-170.910	683.168	0.090	-0.299
-169.896	-104.052	-0.529	0.156
-168.881	295.612	-0.123	-0.289
-167.866	-146.124	-0.779	0.086
-166.852	-200.000	0.001	0.235
-165.837	-87.379	0.503	-0.193
-164.823	-109.896	0.236	-0.062
-163.808	78.191	-0.253	-0.344
-162.793	71.728	0.121	-0.160
-161.779	-70.989	-0.214	0.102
-160.764	615.607	-0.135	0.433
-159.750	167.554	0.178	0.323
-158.735	-73.870	-0.262	-0.121
-157.720	-156.450	0.372	-0.029
-156.706	-9.587	-0.209	0.178
-155.691	527.016	0.168	-0.505
-154.677	169.264	-0.147	-0.268
-153.662	183.271	-0.167	0.316
-152.647	-23.452	-0.072	-0.055
-151.633	-200.000	-0.010	-0.369
-150.618	-146.538	0.162	0.018
-149.604	18.243	0.149	0.151
-148.589	-34.332	-0.258	0.180
-147.574	348.767	-0.062	-0.157
-146.560	-170.262	0.035	-0.002
-145.545	158.127	0.137	-0.242
-144.531	-200.000	-0.056	0.796
-143.516	-15.389	0.263	0.213
-142.502	-178.444	-0.254	0.007
-141.487	-200.000	0.005	-0.047
-140.472	485.124	-0.037	-0.108
-139.458	59.250	0.381	-0.477
-138.443	-183.367	0.169	-0.004
-137.429	-101.871	0.057	-0.017
-136.414	-88.026	0.240	0.091
-135.399	-200.000	0.125	0.001
-134.385	13.214	-0.168	0.166
-133.370	369.364	-0.165	-0.428
-132.356	-200.000	-0.096	0.608
-131.341	-109.484	0.249	-0.066
-130.326	-90.386	0.523	-0.192
-129.312	9.930	-0.084	-0.081
-128.297	-200.000	0.000	-0.247
-127.283	800.000	0.099	-0.482
-126.268	37.481	-0.375	-0.423
-125.253	38.817	0.071	0.081
-124.239	7.209	-0.163	-0.154
-123.224	-162.692	-0.203	0.012
-122.210	171.097	-0.168	-0.307
-121.195	249.747	-0.200	-0.433
