DTS Sentinel unit serial number:	SN409020Multiplexer serial number:	ORYXHardware model number:	OX4-SRSoftware version number:	ORYX F/W v3.00 Oryx Data Collector v3.7.2.0data status	okinstallation	HaddamTimeLapsedifferential loss correction	single-endedforward channel	channel 3reverse channel	N/Adate	2011/06/21time	13:16:58forward acquisition time	30.00reverse acquisition time	0.00gamma	498.7831k internal	0.1772k external	0.1772temperature offset calibration	1.2081default loss term (dB/km)	0.3790temperature slope calibration	1.3581multiplexer offset coefficient	1.0000multiplexer slope coefficient	1.0000fibre end	0.00T internal ref (°C)	32.00T ext. ref 1 (°C)	29.75T ext. ref 2 (°C)	0.23length (m)	temperature (°C)	Stokes	anti-Stokes-747.200	311.498	-0.096	-0.238
-746.185	-47.796	-0.441	0.280
-745.171	28.687	-0.340	-0.377
-744.156	-200.000	-0.042	0.436
-743.142	81.409	0.264	0.375
-742.127	307.355	0.295	0.724
-741.112	-41.232	0.327	0.221
-740.098	-81.021	-0.181	0.078
-739.083	121.663	-0.158	-0.259
-738.069	-200.000	0.013	0.485
-737.054	-200.000	-0.049	-0.373
-736.039	-109.700	-0.114	-0.031
-735.025	-200.000	-0.079	-0.579
-734.010	425.566	-0.069	-0.196
-732.996	-149.326	0.388	-0.040
-731.981	-10.206	-0.196	0.170
-730.966	-1.147	0.165	0.153
-729.952	-42.580	0.343	0.228
-728.937	18.244	0.186	-0.195
-727.923	256.512	0.158	-0.358
-726.908	3.724	0.193	0.185
-725.894	-130.971	-0.250	-0.043
-724.879	-24.185	0.205	-0.161
-723.864	-120.028	0.369	-0.082
-722.850	-102.012	-0.410	-0.129
-721.835	593.137	-0.101	-0.330
-720.821	-118.774	-0.347	-0.080
-719.806	-200.000	0.005	0.114
-718.791	144.342	0.040	0.071
-717.777	-200.000	-0.002	0.146
-716.762	-57.060	0.123	0.071
-715.748	-69.089	0.068	-0.034
-714.733	148.133	0.160	-0.284
-713.718	-114.901	0.321	0.080
-712.704	-200.000	-0.031	-0.300
-711.689	800.000	-0.012	-0.063
-710.675	-43.971	-0.092	-0.060
-709.660	194.921	-0.045	-0.089
-708.645	-190.889	-0.296	-0.004
-707.631	97.691	-0.113	-0.171
-706.616	737.238	0.143	0.506
-705.602	-104.799	-0.450	-0.135
-704.587	701.347	0.070	0.242
-703.572	-88.897	0.082	-0.032
-702.558	459.129	0.167	0.490
-701.543	-0.203	0.288	0.268
-700.529	-140.583	-0.420	-0.057
-699.514	800.000	0.029	-0.148
-698.499	-200.000	0.024	0.139
-697.485	-102.663	0.405	0.126
-696.470	800.000	-0.011	-0.060
-695.456	-144.506	0.122	-0.015
-694.441	-76.000	-0.215	0.099
-693.426	579.028	-0.029	0.093
-692.412	-26.304	0.156	0.119
-691.397	-200.000	0.009	0.326
-690.383	-93.484	-0.396	0.143
-689.368	364.966	-0.105	0.279
-688.354	-84.447	-0.269	0.111
-687.339	-82.730	0.732	0.309
-686.324	-35.333	0.260	0.185
-685.310	404.046	-0.141	-0.391
-684.295	246.279	-0.090	0.199
-683.281	-81.640	-0.213	0.091
-682.266	-200.000	0.046	-0.461
-681.251	224.575	0.068	-0.145
-680.237	192.063	-0.136	-0.269
-679.222	-69.215	-0.378	-0.190
-678.208	552.523	0.053	0.169
-677.193	-46.496	0.199	0.128
-676.178	-200.000	0.022	0.357
-675.164	133.043	-0.151	-0.256
-674.149	16.717	-0.352	0.364
-673.135	197.601	0.212	-0.425
-672.120	-19.896	-0.072	0.058
-671.105	21.299	0.507	0.539
-670.091	-143.653	-0.156	-0.019
-669.076	-97.040	-0.518	-0.176
-668.062	-35.903	-0.112	0.079
-667.047	6.494	0.364	-0.354
-666.032	-118.868	-0.292	0.067
-665.018	72.070	0.252	0.343
-664.003	125.579	0.041	0.067
-662.989	800.000	0.086	-0.416
-661.974	-57.862	-0.309	0.176
-660.959	426.772	0.170	-0.483
-659.945	57.965	-0.126	-0.161
-658.930	-153.178	0.206	0.019
-657.916	21.161	0.285	-0.303
-656.901	800.000	-0.043	0.204
-655.886	-200.000	-0.007	0.147
-654.872	-144.789	0.105	-0.012
-653.857	124.394	-0.387	-0.639
-652.843	289.835	0.251	-0.599
-651.828	396.265	0.054	-0.148
-650.814	11.730	0.196	0.197
-649.799	467.386	-0.106	0.312
-648.784	800.000	-0.048	0.176
-647.770	-98.736	-0.480	-0.159
-646.755	-135.330	-0.422	-0.065
-645.741	-25.482	-0.321	-0.248
-644.726	47.555	0.060	-0.073
-643.711	-200.000	0.018	-0.414
-642.697	-115.575	0.294	-0.072
-641.682	306.476	-0.096	-0.235
-640.668	65.397	-0.304	-0.402
-639.653	-58.116	0.219	0.125
-638.638	42.982	0.063	0.075
-637.624	-119.128	0.319	0.072
-636.609	53.156	-0.195	0.244
-635.595	2.145	-0.279	-0.263
-634.580	-118.236	-0.434	-0.100
-633.565	-184.899	-0.440	-0.009
-632.551	-70.243	-0.282	0.140
-631.536	-59.275	-0.260	-0.146
-630.522	-24.859	-0.084	0.065
-629.507	20.346	-0.224	-0.236
-628.492	-165.143	0.307	0.018
-627.478	-92.599	-0.554	-0.202
-626.463	-27.901	0.111	0.084
-625.449	77.485	-0.246	0.343
-624.434	-158.124	0.153	0.012
-623.419	76.420	-0.159	0.221
-622.405	-87.386	0.228	-0.090
-621.390	482.182	-0.064	-0.192
-620.376	-39.479	0.230	-0.157
-619.361	330.144	0.106	-0.267
-618.346	800.000	0.085	0.352
-617.332	-83.252	-0.122	-0.051
-616.317	108.925	0.057	-0.088
-615.303	-200.000	-0.040	0.328
-614.288	-144.473	-0.778	0.093
-613.273	-139.942	-0.322	-0.044
-612.259	19.829	-0.173	0.182
-611.244	-41.831	-0.248	0.166
-610.230	-142.523	0.213	0.027
-609.215	-60.673	0.057	-0.032
-608.201	532.647	-0.081	-0.253
-607.186	-52.297	-0.402	-0.242
-606.171	56.273	-0.196	0.249
-605.157	229.392	0.339	0.725
-604.142	322.461	0.194	-0.484
-603.128	236.454	0.102	-0.220
-602.113	-32.717	0.101	0.073
-601.098	-57.954	0.244	-0.139
-600.084	-200.000	-0.131	-0.916
-599.069	-99.946	0.296	0.096
-598.055	-66.978	0.307	0.158
-597.040	-85.836	0.404	-0.162
-596.025	-60.815	0.315	0.173
-595.011	-200.000	0.049	-0.558
-593.996	18.879	-0.375	-0.392
-592.982	-128.130	-0.465	0.086
-591.967	239.923	-0.158	0.346
-590.952	-143.856	-0.364	0.044
-589.938	-6.730	0.258	-0.229
-588.923	-162.622	-0.368	-0.023
-587.909	-99.435	-0.343	-0.112
-586.894	-28.012	0.233	-0.176
-585.879	-60.275	-0.460	0.255
-584.865	35.876	-0.315	0.361
-583.850	-134.855	0.379	-0.059
-582.836	-41.038	-0.090	0.061
-581.821	683.776	-0.110	-0.376
-580.806	-120.978	-0.285	-0.062
-579.792	-112.443	-0.052	-0.013
-578.777	800.000	-0.040	0.171
-577.763	800.000	-0.083	0.340
-576.748	-137.997	0.286	-0.041
-575.733	-200.000	-0.016	-0.116
-574.719	-155.668	0.302	-0.025
-573.704	800.000	0.056	0.304
-572.690	-84.093	0.200	0.082
-571.675	-200.000	0.013	-0.240
-570.661	-58.554	0.083	0.047
-569.646	-200.000	0.015	0.260
-568.631	-67.815	-0.398	0.202
-567.617	-176.971	-0.423	-0.014
-566.602	-71.292	-0.344	0.167
-565.588	-101.103	-0.454	0.144
-564.573	-68.985	-0.292	0.146
-563.558	-177.218	0.258	-0.008
-562.544	-117.560	0.335	-0.078
-561.529	-2.163	-0.179	-0.164
-560.515	800.000	0.086	0.465
-559.500	21.665	0.159	-0.169
-558.485	406.405	-0.144	-0.397
-557.471	30.252	0.079	0.088
-556.456	-200.000	0.037	-0.251
-555.442	-125.207	-0.499	-0.099
-554.427	-74.281	0.291	-0.136
-553.412	-8.706	-0.144	-0.126
-552.398	133.327	-0.151	0.255
-551.383	-136.327	-0.422	0.063
-550.369	136.142	-0.126	0.215
-549.354	721.567	0.019	-0.066
-548.339	-113.347	-0.239	0.061
-547.325	-82.606	-0.301	0.127
-546.310	-134.798	-0.339	0.053
-545.296	118.810	-0.295	0.476
-544.281	122.260	0.224	-0.365
-543.266	-98.600	-0.222	-0.073
-542.252	800.000	0.061	0.230
-541.237	-200.000	-0.015	-0.144
-540.223	136.375	-0.154	0.262
-539.208	65.996	-0.151	-0.199
-538.193	266.156	0.152	0.348
-537.179	541.430	0.010	-0.032
-536.164	45.395	-0.410	0.493
-535.150	-181.724	0.146	-0.004
-534.135	-52.412	0.264	0.158
-533.121	54.268	-0.096	0.120
-532.106	35.770	0.163	0.187
-531.091	7.699	0.180	-0.175
-530.077	-131.295	0.372	-0.064
-529.062	91.820	0.174	0.256
-528.048	-162.528	-0.401	-0.025
-527.033	-200.000	-0.011	0.439
-526.018	18.729	-0.315	0.328
-525.004	-200.000	0.010	0.097
-523.989	-139.858	-0.156	-0.021
-522.975	-104.106	-0.218	0.066
-521.960	-200.000	0.008	-0.065
-520.945	-54.347	-0.115	0.068
-519.931	-14.737	0.103	-0.086
-518.916	168.456	-0.214	0.397
-517.902	246.026	0.127	-0.280
-516.887	-160.645	-0.569	-0.039
-515.872	398.341	-0.213	-0.582
-514.858	454.233	0.089	-0.259
-513.843	-89.697	0.404	0.153
-512.829	48.798	0.161	0.197
-511.814	-44.335	0.168	-0.109
-510.799	800.000	0.086	0.314
-509.785	-50.711	0.455	-0.278
-508.770	45.247	0.433	-0.520
-507.756	-145.948	-0.227	0.026
-506.741	-200.000	-0.002	0.342
-505.726	-57.519	0.512	0.291
-504.712	-103.327	-0.094	0.029
-503.697	-82.267	0.115	0.048
-502.683	169.295	0.103	0.192
-501.668	128.526	-0.096	0.160
-500.653	-30.458	0.400	-0.294
-499.639	-37.134	-0.165	0.115
-498.624	250.449	-0.110	-0.245
-497.610	26.970	-0.224	-0.244
-496.595	-200.000	0.068	0.473
-495.581	-200.000	0.017	0.683
-494.566	-155.262	0.281	-0.024
-493.551	-200.000	0.010	-0.378
-492.537	-146.698	-0.288	-0.032
-491.522	-146.186	0.305	-0.034
-490.508	800.000	-0.054	-0.297
-489.493	-16.634	0.204	-0.168
-488.478	59.810	0.135	0.174
-487.464	-21.518	0.346	0.274
-486.449	-87.646	-0.669	-0.261
-485.435	-47.171	0.382	-0.241
-484.420	-200.000	0.010	-0.170
-483.405	-34.418	0.147	0.104
-482.391	-189.797	-0.578	-0.008
-481.376	454.398	0.066	0.192
-480.362	433.497	-0.138	0.391
-479.347	-141.967	0.372	0.048
-478.332	-156.481	0.374	0.030
-477.318	-26.325	-0.510	0.388
-476.303	-15.803	0.111	-0.092
-475.289	246.624	0.159	-0.351
-474.274	-200.000	-0.041	-0.315
-473.259	-1.886	0.399	0.364
-472.245	-200.000	0.086	0.583
-471.230	-175.690	-0.097	-0.003
-470.216	35.836	0.275	-0.314
-469.201	-13.684	0.072	0.061
-468.186	139.346	0.227	-0.388
-467.172	-144.200	-0.456	0.055
-466.157	-2.991	0.207	0.188
-465.143	-47.112	-0.248	-0.157
-464.128	800.000	-0.119	-0.433
-463.113	-200.000	0.074	0.440
-462.099	-65.141	0.563	0.294
-461.084	-172.602	0.495	0.020
-460.070	10.683	-0.058	0.058
-459.055	348.067	-0.087	0.225
-458.040	-137.964	0.159	-0.023
-457.026	-128.034	-0.283	-0.052
-456.011	504.550	-0.032	-0.096
-454.997	36.769	-0.388	0.446
-453.982	-200.000	0.049	0.290
-452.968	-45.001	-0.220	-0.142
-451.953	800.000	-0.056	0.308
-450.938	800.000	-0.064	-0.290
-449.924	58.840	0.152	-0.194
-448.909	-200.000	0.055	-0.723
-447.895	800.000	-0.129	-0.474
-446.880	591.160	0.025	0.081
-445.865	-200.000	0.082	0.872
-444.851	-12.337	-0.214	-0.181
-443.836	-86.916	-0.451	-0.178
-442.822	12.173	0.222	0.222
-441.807	-34.101	-0.160	0.114
-440.792	-197.719	-0.432	-0.003
-439.778	93.020	-0.416	0.611
-438.763	86.094	0.399	-0.571
-437.749	7.089	-0.192	0.185
-436.734	12.158	0.042	0.042
-435.719	107.806	-0.131	-0.203
-434.705	-47.737	-0.106	0.067
-433.690	-100.444	0.363	-0.116
-432.676	-98.579	0.286	0.094
-431.661	-106.566	0.371	0.106
-430.646	357.093	-0.144	0.374
-429.632	-74.827	-0.484	0.224
-428.617	-2.119	-0.158	0.144
-427.603	289.573	-0.076	-0.178
-426.588	398.866	0.085	-0.231
-425.573	43.515	0.220	-0.261
-424.559	-57.456	0.350	-0.199
-423.544	-42.377	0.270	-0.178
-422.530	-54.256	0.268	0.157
-421.515	167.999	0.219	0.406
-420.500	-8.869	-0.275	0.238
-419.486	-114.608	-0.241	-0.059
-418.471	-95.926	-0.511	0.175
-417.457	-200.000	0.031	0.647
-416.442	-139.349	0.442	0.061
-415.428	-118.869	0.323	0.073
-414.413	-161.815	0.338	-0.022
-413.398	-135.712	-0.279	-0.042
-412.384	6.205	0.146	-0.140
-411.369	-200.000	0.006	0.179
-410.355	-13.311	-0.183	-0.154
-409.340	-94.749	-0.210	-0.073
-408.325	-36.152	-0.174	0.122
-407.311	363.265	0.157	0.410
-406.296	775.775	0.162	0.578
-405.282	0.536	-0.107	0.099
-404.267	68.239	-0.144	-0.191
-403.252	-136.618	-0.503	-0.075
-402.238	-63.648	0.394	0.208
-401.223	-37.713	-0.088	-0.061
-400.209	68.389	-0.081	-0.108
-399.194	-152.846	-0.137	0.012
-398.179	-110.497	0.063	-0.017
-397.165	66.594	-0.211	0.279
-396.150	800.000	0.033	-0.128
-395.136	800.000	0.063	-0.229
-394.121	42.627	0.240	0.283
-393.106	243.234	-0.113	-0.246
-392.092	-200.000	-0.054	0.354
-391.077	88.929	-0.161	-0.232
-390.063	-0.271	0.536	-0.493
-389.048	404.109	-0.081	0.221
-388.033	3.186	-0.320	0.301
-387.019	-10.646	0.193	-0.165
-386.004	-83.246	-0.107	-0.044
-384.990	-31.926	-0.083	-0.060
-383.975	-25.036	0.500	0.383
-382.960	-114.235	-0.234	-0.058
-381.946	357.697	0.136	0.352
-380.931	192.995	0.219	0.429
-379.917	355.825	0.136	-0.351
-378.902	219.831	-0.087	-0.181
-377.888	-48.102	-0.234	0.146
-376.873	111.848	-0.074	-0.116
-375.858	-55.877	0.205	-0.118
-374.844	33.233	0.080	0.089
-373.829	-134.206	0.395	-0.062
-372.815	45.917	-0.439	0.526
-371.800	-26.604	0.405	-0.306
-370.785	131.167	0.173	0.289
-369.771	-184.104	0.162	0.003
-368.756	122.512	-0.240	0.389
-367.742	-200.000	-0.008	-0.105
-366.727	-29.194	0.403	-0.298
-365.712	-200.000	-0.012	-0.178
-364.698	61.104	-0.112	-0.145
-363.683	26.325	-0.177	-0.191
-362.669	-160.913	0.480	-0.032
-361.654	-54.777	0.164	-0.096
-360.639	206.616	0.021	-0.042
-359.625	-200.000	0.002	0.028
-358.610	-15.606	0.217	-0.179
-357.596	5.546	0.139	0.133
-356.581	800.000	-0.073	0.343
-355.566	-133.739	-0.130	-0.021
-354.552	398.551	0.066	-0.179
-353.537	-91.388	-0.427	0.157
-352.523	-9.461	-0.172	0.148
-351.508	-47.920	0.388	-0.242
-350.493	312.620	0.017	0.041
-349.479	-32.824	-0.321	-0.230
-348.464	-15.533	-0.474	-0.390
-347.450	-34.145	-0.203	-0.144
-346.435	112.234	-0.203	-0.318
-345.420	-94.782	0.369	-0.129
-344.406	-123.945	-0.266	0.054
-343.391	446.910	-0.051	0.145
-342.377	-200.000	-0.002	0.037
-341.362	-89.050	0.354	-0.135
-340.348	800.000	0.170	0.803
-339.333	149.004	0.252	-0.441
-338.318	-149.947	-0.337	-0.034
-337.304	-115.866	0.470	-0.113
-336.289	-3.508	0.257	-0.231
-335.275	-73.402	-0.447	0.210
-334.260	-160.709	0.336	-0.023
-333.245	-113.632	0.678	0.170
-332.231	54.656	-0.077	0.096
-331.216	-67.424	-0.327	0.165
-330.202	-83.422	0.384	0.158
-329.187	-113.692	-0.289	-0.072
-328.172	-122.163	0.245	-0.051
-327.158	-143.394	0.736	0.090
-326.143	25.265	-0.096	0.103
-325.129	91.400	0.142	-0.207
-324.114	-22.305	0.334	0.261
-323.099	-91.674	-0.240	0.088
-322.085	-60.947	0.119	-0.065
-321.070	-153.747	-0.216	0.019
-320.056	126.069	0.109	0.178
-319.041	-45.148	-0.348	0.223
-318.026	-96.226	0.386	-0.131
-317.012	-24.983	-0.154	0.118
-315.997	-53.140	-0.131	0.077
-314.983	-200.000	0.015	-0.110
-313.968	-16.617	0.168	-0.137
-312.953	0.924	-0.408	-0.377
-311.939	220.335	-0.127	0.263
-310.924	-177.514	0.038	-0.001
-309.910	-68.558	0.374	0.186
-308.895	45.504	0.255	0.304
-307.880	-200.000	-0.051	-0.456
-306.866	42.419	-0.246	-0.289
-305.851	-69.197	0.310	-0.153
-304.837	-134.609	0.323	-0.050
-303.822	172.590	-0.072	0.135
-302.807	-200.000	0.035	0.213
-301.793	132.729	-0.171	0.285
-300.778	68.180	-0.314	-0.415
-299.764	-200.000	0.056	0.374
-298.749	800.000	0.039	0.173
-297.735	-108.183	0.003	-0.001
-296.720	72.639	0.248	0.334
-295.705	-200.000	-0.033	-0.235
-294.691	52.350	-0.123	0.152
-293.676	66.823	-0.075	0.098
-292.662	-200.000	0.009	-0.127
-291.647	85.637	-0.351	-0.498
-290.632	468.573	-0.204	-0.593
-289.618	-64.288	0.464	0.243
-288.603	-62.056	0.145	0.078
-287.589	-45.628	-0.389	0.247
-286.574	29.629	-0.200	0.220
-285.559	-106.214	0.314	-0.090
-284.545	800.000	-0.085	0.343
-283.530	623.393	-0.080	-0.262
-282.516	-145.326	-0.056	-0.006
-281.501	183.689	0.273	0.522
-280.486	800.000	0.090	0.340
-279.472	-16.526	-0.278	-0.227
-278.457	18.587	0.042	-0.044
-277.443	-200.000	0.004	0.155
-276.428	-83.532	-0.426	-0.175
-275.413	-9.336	0.185	0.159
-274.399	-49.180	0.349	0.214
-273.384	364.427	0.062	-0.162
-272.370	103.731	0.002	-0.002
-271.355	337.652	0.169	0.426
-270.340	10.713	0.246	-0.242
-269.326	-130.498	0.264	0.046
-268.311	-183.029	-0.519	0.012
-267.297	-44.225	0.146	0.094
-266.282	91.844	0.236	0.343
-265.267	41.249	0.267	-0.311
-264.253	-200.000	-0.019	0.368
-263.238	-122.263	0.325	-0.068
-262.224	-75.714	0.348	0.159
-261.209	-55.169	-0.079	-0.046
-260.195	-44.992	0.407	-0.260
-259.180	-200.000	0.035	-0.333
-258.165	-18.321	0.141	0.113
-257.151	-200.000	-0.056	0.618
-256.136	-47.660	-0.060	-0.037
-255.122	-132.053	-0.321	-0.053
-254.107	-70.935	-0.359	-0.174
-253.092	303.779	0.252	-0.604
-252.078	800.000	0.058	0.221
-251.063	20.423	-0.172	0.179
-250.049	800.000	-0.119	0.590
-249.034	-90.716	-0.132	0.049
-248.019	800.000	-0.150	0.588
-247.005	214.317	0.153	-0.312
-245.990	800.000	0.041	-0.156
-244.976	-7.269	0.339	-0.295
-243.961	-121.769	-0.137	0.029
-242.946	-59.190	-0.285	-0.157
-241.932	-161.599	0.136	0.009
-240.917	-123.212	-0.437	-0.089
-239.903	76.574	0.027	-0.037
-238.888	-113.270	0.303	-0.076
-237.873	565.165	0.117	-0.367
-236.859	-122.141	0.435	-0.091
-235.844	800.000	0.087	0.484
-234.830	-49.244	-0.138	-0.084
-233.815	197.127	-0.108	0.213
-232.800	-33.419	0.284	0.201
-231.786	22.534	0.045	0.048
-230.771	-21.078	0.247	0.194
-229.757	219.198	0.188	-0.388
-228.742	655.403	0.048	-0.159
-227.727	-200.000	-0.040	-0.486
-226.713	292.169	0.047	0.110
-225.698	-121.748	-0.387	0.082
-224.684	71.953	-0.363	-0.486
-223.669	-86.756	0.392	0.153
-222.655	-92.257	0.225	-0.081
-221.640	800.000	0.086	-0.460
-220.625	145.763	0.280	-0.484
-219.611	39.985	-0.065	-0.075
-218.596	369.902	-0.035	0.090
-217.582	-3.106	0.109	0.097
-216.567	363.285	0.091	-0.236
-215.552	459.549	-0.120	-0.344
-214.538	800.000	0.090	-0.445
-213.523	27.479	0.220	0.238
-212.509	800.000	0.023	-0.120
-211.494	-200.000	-0.015	-0.310
-210.479	-68.756	0.126	-0.062
-209.465	-59.853	0.423	-0.232
-208.450	-145.974	0.151	0.017
-207.436	-100.153	0.393	-0.125
-206.421	-200.000	0.006	-0.285
-205.406	475.056	0.082	-0.240
-204.392	-75.072	0.275	0.126
-203.377	12.005	0.285	-0.282
-202.363	57.678	0.156	-0.197
-201.348	-200.000	-0.037	-0.415
-200.333	212.620	-0.177	0.360
-199.319	-9.283	-0.124	-0.107
-198.304	-200.000	-0.022	-0.133
-197.290	-84.569	-0.490	-0.198
-196.275	800.000	0.028	0.121
-195.260	-169.143	0.218	-0.010
-194.246	614.998	0.125	0.404
-193.231	117.796	0.280	-0.444
-192.217	126.381	-0.157	0.256
-191.202	-168.026	-0.628	-0.031
-190.187	-53.941	-0.194	0.113
-189.173	-102.737	0.073	0.022
-188.158	34.388	-0.318	-0.356
-187.144	-45.611	-0.227	-0.144
-186.129	-104.794	0.315	0.092
-185.114	-108.311	0.261	0.072
-184.100	-54.176	-0.249	-0.145
-183.085	800.000	-0.135	-0.526
-182.071	9.646	0.213	-0.207
-181.056	-174.966	0.262	-0.009
-180.042	462.956	0.131	-0.379
-179.027	800.000	-0.155	0.554
-178.012	60.575	0.109	-0.139
-176.998	-172.152	-0.489	0.020
-175.983	52.160	-0.243	-0.298
-174.969	-200.000	-0.011	-0.353
-173.954	-3.699	0.233	-0.208
-172.939	51.729	-0.247	0.302
-171.925	-49.305	0.096	0.059
-170.910	-60.066	-0.349	0.191
-169.896	800.000	-0.077	0.304
-168.881	371.971	0.130	-0.339
-167.866	-99.230	0.326	-0.105
-166.852	-58.282	0.270	0.150
-165.837	114.270	0.389	-0.608
-164.823	36.050	-0.345	0.390
-163.808	800.000	0.044	-0.232
-162.793	123.381	0.349	0.563
-161.779	-112.042	-0.076	-0.020
-160.764	73.039	-0.269	-0.361
-159.750	-105.217	-0.051	0.015
-158.735	-131.390	-0.344	-0.058
-157.720	-66.770	-0.223	-0.113
-156.706	381.139	-0.177	0.469
-155.691	-84.357	0.371	0.150
-154.677	-200.000	0.056	-0.392
-153.662	19.901	-0.189	0.195
-152.647	300.801	0.253	-0.601
-151.633	51.077	0.097	-0.118
-150.618	-126.649	0.619	0.117
-149.604	-18.395	0.355	0.284
-148.589	-142.008	0.429	-0.054
-147.574	-200.000	-0.309	0.002
-146.560	-183.412	-0.330	0.007
-145.545	-80.856	0.509	-0.215
-144.531	11.862	0.178	0.175
-143.516	-53.338	-0.127	0.074
-142.502	-174.223	-0.328	0.012
-141.487	-112.140	0.333	-0.085
-140.472	140.449	-0.190	-0.322
-139.458	800.000	0.080	-0.413
-138.443	17.758	0.218	0.223
-137.429	-93.762	0.168	0.059
-136.414	373.987	-0.068	-0.177
-135.399	725.773	-0.077	-0.265
-134.385	128.704	-0.167	-0.273
-133.370	-4.973	0.259	0.228
-132.356	-100.300	0.172	0.054
-131.341	800.000	0.082	-0.302
-130.326	-200.000	-0.035	-0.205
-129.312	-115.684	0.495	0.118
-128.297	-126.212	0.186	0.035
-127.283	461.239	-0.098	-0.283
-126.268	149.375	0.184	-0.320
-125.253	128.091	0.151	0.247
-124.239	12.156	0.174	-0.171
-123.224	-110.374	-0.230	0.061
-122.210	-200.000	-0.059	0.417
-121.195	-104.224	-0.276	0.082
