DTS Sentinel unit serial number:	SN409020Multiplexer serial number:	ORYXHardware model number:	OX4-SRSoftware version number:	ORYX F/W v3.00 Oryx Data Collector v3.7.2.0data status	okinstallation	HaddamTimeLapsedifferential loss correction	single-endedforward channel	channel 3reverse channel	N/Adate	2011/06/22time	02:31:17forward acquisition time	30.00reverse acquisition time	0.00gamma	498.7831k internal	0.1751k external	0.1751temperature offset calibration	1.0074default loss term (dB/km)	0.3790temperature slope calibration	1.3530multiplexer offset coefficient	1.0000multiplexer slope coefficient	1.0000fibre end	0.00T internal ref (°C)	22.37T ext. ref 1 (°C)	17.56T ext. ref 2 (°C)	0.03length (m)	temperature (°C)	Stokes	anti-Stokes-747.200	-14.244	0.228	0.195
-746.185	268.848	-0.185	0.434
-745.171	101.178	-0.198	-0.306
-744.156	-160.297	0.159	0.011
-743.142	99.587	-0.154	0.238
-742.127	466.342	0.126	0.377
-741.112	-84.791	0.480	0.199
-740.098	-64.957	0.242	0.129
-739.083	-92.709	0.160	-0.059
-738.069	-200.000	0.028	-0.170
-737.054	38.293	0.080	0.095
-736.039	-70.300	-0.162	0.082
-735.025	-200.000	0.016	0.700
-734.010	190.817	0.150	-0.301
-732.996	-137.052	0.092	0.014
-731.981	183.141	0.153	0.300
-730.966	-70.434	0.184	0.092
-729.952	-200.000	-0.008	-0.060
-728.937	-122.525	-0.279	0.060
-727.923	-143.388	0.483	0.061
-726.908	148.259	0.187	0.336
-725.894	-200.000	-0.037	0.277
-724.879	-12.606	0.175	0.152
-723.864	273.981	-0.268	-0.631
-722.850	800.000	0.056	-0.307
-721.835	-63.491	0.235	-0.128
-720.821	498.023	-0.020	-0.063
-719.806	141.492	0.440	-0.776
-718.791	-124.420	-0.106	0.022
-717.777	-200.000	0.014	-0.342
-716.762	-34.779	0.369	0.267
-715.748	-14.943	-0.044	-0.037
-714.733	-79.386	-0.507	0.226
-713.718	796.744	0.044	0.161
-712.704	331.460	-0.126	-0.324
-711.689	-117.024	0.200	0.048
-710.675	-200.000	0.016	0.119
-709.660	-200.000	0.067	0.625
-708.645	78.063	-0.192	0.272
-707.631	-200.000	0.015	0.477
-706.616	-39.407	-0.160	0.111
-705.602	121.682	-0.270	-0.448
-704.587	-6.912	-0.332	-0.299
-703.572	41.757	-0.202	0.243
-702.558	5.959	0.196	-0.192
-701.543	214.911	0.103	0.217
-700.529	-148.247	-0.352	-0.038
-699.514	-38.291	-0.091	0.064
-698.499	-102.852	-0.093	0.029
-697.485	-121.768	0.280	-0.061
-696.470	-120.403	-0.348	-0.078
-695.456	-26.896	0.067	-0.052
-694.441	-200.000	0.026	-0.687
-693.426	232.091	-0.265	-0.579
-692.412	23.495	0.120	-0.131
-691.397	171.423	-0.196	-0.374
-690.383	-200.000	-0.013	-0.132
-689.368	-188.489	-0.577	-0.009
-688.354	488.493	-0.091	0.278
-687.339	-72.842	-0.311	0.151
-686.324	59.044	0.132	0.172
-685.310	56.351	0.125	-0.162
-684.295	-89.607	0.170	-0.066
-683.281	-97.499	-0.465	-0.159
-682.266	-140.851	0.032	-0.004
-681.251	49.829	0.252	-0.315
-680.237	-110.940	-0.101	0.027
-679.222	-186.600	-0.262	0.005
-678.208	238.928	-0.045	-0.099
-677.193	-135.265	0.279	0.044
-676.178	-107.421	0.142	0.041
-675.164	-40.469	-0.330	-0.226
-674.149	-200.000	0.026	-0.233
-673.135	315.599	-0.047	-0.118
-672.120	-108.052	-0.270	-0.077
-671.105	-115.244	-0.204	0.051
-670.091	-12.736	0.190	-0.164
-669.076	44.100	0.305	-0.371
-668.062	63.504	-0.153	0.203
-667.047	-200.000	0.007	-0.109
-666.032	-157.850	0.347	0.027
-665.018	-64.121	0.228	0.123
-664.003	-45.746	-0.220	0.143
-662.989	17.705	-0.162	0.171
-661.974	800.000	0.027	-0.099
-660.959	80.872	-0.141	-0.202
-659.945	-21.005	0.429	0.347
-658.930	91.072	0.270	0.401
-657.916	648.719	-0.103	0.351
-656.901	-159.611	-0.356	0.026
-655.886	-200.000	-0.014	0.378
-654.872	-8.843	0.238	-0.211
-653.857	-167.760	0.153	-0.008
-652.843	-145.592	-0.159	0.019
-651.828	800.000	0.046	-0.213
-650.814	-200.000	0.151	0.000
-649.799	307.889	0.093	0.231
-648.784	-75.631	0.331	0.155
-647.770	-109.281	-0.285	-0.080
-646.755	13.948	-0.247	-0.254
-645.741	-140.105	0.271	-0.037
-644.726	669.514	-0.184	-0.635
-643.711	-5.417	-0.277	0.252
-642.697	-200.000	0.012	0.082
-641.682	306.243	-0.125	-0.310
-640.668	74.715	0.231	0.323
-639.653	-88.697	0.283	-0.111
-638.638	-200.000	-0.025	0.394
-637.624	24.360	-0.348	0.381
-636.609	-27.907	0.356	-0.272
-635.595	-96.396	0.521	0.181
-634.580	-106.118	-0.107	0.032
-633.565	102.691	-0.218	0.338
-632.551	-183.385	-0.705	-0.016
-631.536	9.263	0.323	-0.323
-630.522	303.875	-0.143	-0.351
-629.507	551.735	0.098	0.313
-628.492	548.253	-0.068	0.217
-627.478	302.623	0.076	-0.186
-626.463	-14.787	0.090	0.076
-625.449	51.396	-0.263	0.331
-624.434	119.875	-0.275	0.452
-623.419	-128.896	0.216	0.040
-622.405	-157.962	0.572	0.044
-621.390	-3.991	-0.055	0.051
-620.376	-101.470	-0.466	0.149
-619.361	-105.335	0.372	-0.111
-618.346	-49.087	0.102	-0.064
-617.332	-90.391	-0.366	-0.140
-616.317	-52.399	0.563	0.343
-615.303	239.521	0.119	-0.263
-614.288	-58.271	0.503	-0.288
-613.273	-126.388	-0.495	0.097
-612.259	-153.374	-0.367	0.033
-611.244	-122.431	0.411	-0.088
-610.230	-178.649	0.632	0.019
-609.215	-89.761	-0.526	-0.202
-608.201	-68.528	0.304	-0.155
-607.186	337.065	0.145	-0.375
-606.171	-60.180	-0.483	-0.271
-605.157	-38.884	0.134	-0.093
-604.142	-85.714	0.159	-0.065
-603.128	-29.478	-0.517	0.390
-602.113	88.243	-0.185	0.271
-601.098	63.336	-0.187	0.248
-600.084	-11.753	-0.322	0.279
-599.069	-80.740	-0.167	0.073
-598.055	-13.137	-0.248	-0.213
-597.040	-133.493	-0.558	0.092
-596.025	-44.585	0.598	-0.394
-595.011	-80.874	-0.340	-0.148
-593.996	45.767	-0.243	0.297
-592.982	688.901	-0.183	-0.637
-591.967	800.000	-0.006	0.030
-590.952	-15.116	0.167	-0.141
-589.938	-72.356	-0.093	0.045
-588.923	605.846	-0.040	0.131
-587.909	-151.187	-0.228	0.022
-586.894	-116.731	-0.627	-0.151
-585.879	185.788	0.174	0.342
-584.865	80.582	0.069	-0.098
-583.850	-200.000	-0.008	0.517
-582.836	-18.405	0.135	-0.111
-581.821	-126.845	0.182	-0.035
-580.806	58.693	0.183	-0.237
-579.792	11.412	0.260	-0.262
-578.777	-63.314	-0.245	-0.133
-577.763	-30.929	0.129	-0.096
-576.748	-188.238	0.242	0.004
-575.733	800.000	-0.123	-0.497
-574.719	-200.000	0.078	-0.463
-573.704	-200.000	0.031	-0.600
-572.690	-105.199	-0.116	-0.035
-571.675	100.938	-0.141	0.217
-570.661	134.980	0.109	-0.187
-569.646	114.782	0.188	0.302
-568.631	0.210	-0.244	0.229
-567.617	283.242	0.144	-0.342
-566.602	-67.667	-0.112	0.058
-565.588	-0.374	0.145	-0.136
-564.573	-0.412	-0.299	-0.280
-563.558	116.726	0.201	0.326
-562.544	-50.983	0.243	-0.150
-561.529	150.070	-0.207	-0.371
-560.515	-66.888	-0.522	-0.271
-559.500	780.806	-0.025	-0.092
-558.485	208.953	0.340	-0.704
-557.471	-86.783	0.463	-0.186
-556.456	-21.736	0.361	0.289
-555.442	-175.780	-0.333	0.012
-554.427	152.704	-0.159	0.287
-553.412	137.752	0.105	-0.183
-552.398	-134.282	0.123	-0.020
-551.383	33.890	-0.160	0.184
-550.369	-23.507	-0.262	0.207
-549.354	800.000	0.137	0.611
-548.339	-53.308	-0.312	-0.188
-547.325	-152.105	-0.154	0.015
-546.310	-14.606	-0.137	0.116
-545.296	-12.261	0.149	-0.128
-544.281	244.439	-0.234	-0.520
-543.266	632.374	-0.058	-0.194
-542.252	-41.114	0.479	-0.325
-541.237	639.725	0.126	-0.424
-540.223	-98.726	0.233	0.078
-539.208	2.400	-0.226	0.215
-538.193	-200.000	-0.001	-0.265
-537.179	-200.000	0.022	-0.388
-536.164	-45.870	-0.669	0.434
-535.150	176.909	0.137	0.264
-534.135	15.750	-0.565	0.586
-533.121	63.681	0.054	-0.071
-532.106	39.774	0.189	-0.224
-531.091	249.432	0.070	0.156
-530.077	-200.000	0.012	-0.210
-529.062	91.033	-0.083	0.123
-528.048	1.323	-0.163	-0.154
-527.033	-49.354	0.242	-0.152
-526.018	800.000	-0.068	0.322
-525.004	1.208	0.286	0.270
-523.989	-145.788	0.194	-0.023
-522.975	-70.689	-0.151	-0.075
-521.960	-168.279	0.151	-0.008
-520.945	800.000	0.030	0.172
-519.931	3.121	0.339	0.324
-518.916	14.903	-0.457	0.470
-517.902	-200.000	-0.039	-0.306
-516.887	408.114	-0.169	-0.474
-515.872	-148.862	-0.307	0.032
-514.858	92.020	-0.375	-0.557
-513.843	-200.000	-0.002	0.037
-512.829	154.077	0.238	0.430
-511.814	21.086	0.214	0.228
-510.799	25.542	0.139	-0.152
-509.785	20.715	0.081	-0.086
-508.770	250.537	0.217	-0.488
-507.756	668.099	0.109	-0.374
-506.741	-200.000	0.034	-0.480
-505.726	-0.453	0.346	-0.324
-504.712	-80.508	-0.111	0.048
-503.697	69.760	0.496	-0.674
-502.683	3.154	0.197	0.189
-501.668	-41.504	0.279	0.188
-500.653	-145.010	-0.097	-0.011
-499.639	38.882	-0.144	0.169
-498.624	91.672	-0.192	0.284
-497.610	66.767	-0.175	0.235
-496.595	271.186	0.119	-0.276
-495.581	-20.716	0.192	0.155
-494.566	-176.332	-0.439	-0.015
-493.551	-78.829	0.048	0.022
-492.537	-124.286	0.418	-0.085
-491.522	196.309	0.097	-0.195
-490.508	-93.679	-0.200	-0.072
-489.493	-143.764	-0.197	-0.024
-488.478	19.394	-0.078	0.082
-487.464	-94.747	-0.302	0.107
-486.449	-9.313	-0.081	-0.071
-485.435	67.014	0.269	0.361
-484.420	-85.854	-0.505	-0.205
-483.405	-107.149	0.343	0.099
-482.391	-86.641	-0.585	-0.234
-481.376	16.616	0.039	0.041
-480.362	-17.872	0.251	-0.207
-479.347	800.000	-0.151	-0.698
-478.332	434.639	0.079	-0.228
-477.318	255.991	0.271	-0.614
-476.303	-47.941	0.442	-0.280
-475.289	-148.944	-0.294	0.031
-474.274	-70.015	0.429	-0.214
-473.259	-200.000	-0.049	-0.336
-472.245	800.000	0.012	-0.053
-471.230	550.016	0.137	0.435
-470.216	-131.083	-0.347	-0.060
-469.201	160.788	-0.232	-0.427
-468.186	41.135	-0.313	0.372
-467.172	-200.000	-0.022	0.149
-466.157	178.346	0.201	0.387
-465.143	-39.193	0.336	0.232
-464.128	100.164	0.170	-0.260
-463.113	800.000	-0.106	0.426
-462.099	-32.729	-0.195	0.142
-461.084	33.539	0.245	0.280
-460.070	279.645	-0.079	0.187
-459.055	800.000	0.067	-0.333
-458.040	168.470	-0.123	-0.232
-457.026	-104.497	-0.060	-0.018
-456.011	-172.341	-0.378	-0.016
-454.997	800.000	0.057	0.228
-453.982	-200.000	-0.006	-0.136
-452.968	-173.240	0.414	0.016
-451.953	800.000	0.057	-0.211
-450.938	800.000	-0.078	-0.297
-449.924	-102.094	-0.444	-0.139
-448.909	-113.734	-0.185	0.047
-447.895	24.861	-0.167	0.182
-446.880	327.276	-0.110	0.279
-445.865	-63.398	0.306	-0.165
-444.851	153.241	0.108	-0.195
-443.836	-122.514	0.277	0.059
-442.822	-160.269	-0.295	0.021
-441.807	-12.009	0.579	0.498
-440.792	255.730	-0.102	0.232
-439.778	-200.000	0.006	-0.117
-438.763	142.984	-0.306	-0.536
-437.749	-195.253	0.194	0.002
-436.734	50.057	0.132	0.164
-435.719	-151.836	0.098	0.009
-434.705	34.953	-0.144	0.166
-433.690	42.902	-0.098	0.117
-432.676	-91.932	0.321	-0.119
-431.661	-155.515	0.417	-0.035
-430.646	-138.323	0.156	0.022
-429.632	-18.100	0.247	-0.202
-428.617	-69.914	0.225	0.112
-427.603	15.684	0.112	-0.115
-426.588	-200.000	-0.003	-0.201
-425.573	114.130	-0.172	-0.275
-424.559	110.036	0.061	0.096
-423.544	228.021	0.072	-0.155
-422.530	-116.934	-0.120	-0.028
-421.515	-200.000	0.032	-0.282
-420.500	-200.000	-0.018	-0.312
-419.486	-200.000	0.016	-0.279
-418.471	-200.000	-0.009	0.077
-417.457	-70.047	-0.216	0.108
-416.442	-154.674	-0.327	0.028
-415.428	-200.000	-0.099	0.597
-414.413	-54.195	0.092	0.054
-413.398	-54.759	0.275	-0.162
-412.384	-29.855	0.287	-0.214
-411.369	-45.373	-0.252	-0.163
-410.355	-151.251	0.362	0.035
-409.340	108.522	0.007	-0.011
-408.325	-175.105	-0.341	0.012
-407.311	171.909	0.267	-0.504
-406.296	800.000	0.002	-0.012
-405.282	-200.000	0.002	-0.036
-404.267	-21.105	-0.216	0.173
-403.252	397.146	0.119	0.327
-402.238	800.000	-0.067	-0.291
-401.223	-80.713	-0.263	-0.114
-400.209	-163.441	-0.244	-0.015
-399.194	-110.753	0.267	-0.072
-398.179	-125.041	0.515	0.103
-397.165	3.790	0.404	-0.386
-396.150	-87.481	-0.397	-0.157
-395.136	-200.000	0.019	0.405
-394.121	84.767	-0.120	-0.172
-393.106	239.815	-0.084	0.184
-392.092	-94.787	0.298	-0.105
-391.077	800.000	-0.052	0.271
-390.063	-200.000	-0.058	0.433
-389.048	800.000	0.030	-0.144
-388.033	299.116	-0.143	-0.347
-387.019	800.000	-0.099	0.369
-386.004	-67.698	0.382	0.195
-384.990	-170.312	0.306	0.014
-383.975	148.422	0.059	0.105
-382.960	-118.918	0.328	-0.075
-381.946	-200.000	-0.015	0.122
-380.931	48.553	-0.039	0.048
-379.917	133.213	-0.063	-0.107
-378.902	-31.620	0.329	0.242
-377.888	-57.211	0.444	-0.255
-376.873	52.160	0.071	-0.089
-375.858	778.590	0.167	0.603
-374.844	-116.297	0.615	0.148
-373.829	235.651	-0.141	0.306
-372.815	-61.056	0.443	0.244
-371.800	95.785	-0.108	0.162
-370.785	-100.165	-0.237	-0.077
-369.771	678.323	0.063	0.215
-368.756	-66.283	0.260	0.135
-367.742	-71.565	-0.305	0.149
-366.727	800.000	-0.081	0.361
-365.712	-149.492	0.217	0.022
-364.698	83.153	0.212	-0.303
-363.683	311.766	-0.039	0.096
-362.669	186.527	-0.175	-0.343
-361.654	29.409	0.208	-0.232
-360.639	55.617	0.148	0.187
-359.625	-126.479	-0.361	-0.070
-358.610	800.000	-0.029	-0.164
-357.596	800.000	-0.089	0.331
-356.581	6.720	-0.251	-0.244
-355.566	-105.938	-0.331	-0.097
-354.552	5.167	0.298	0.287
-353.537	46.422	0.240	0.292
-352.523	183.662	-0.049	0.096
-351.508	130.521	-0.236	0.396
-350.493	-200.000	0.008	0.093
-349.479	312.102	0.153	-0.376
-348.464	16.200	-0.101	-0.104
-347.450	-161.664	0.417	-0.027
-346.435	-106.048	-0.265	0.077
-345.420	-143.393	-0.188	0.023
-344.406	-46.900	0.241	-0.154
-343.391	-72.150	0.225	0.109
-342.377	-4.401	-0.343	-0.310
-341.362	-193.690	0.305	0.003
-340.348	-200.000	0.042	-0.722
-339.333	-90.727	0.413	0.155
-338.318	-200.000	0.012	-0.206
-337.304	-185.357	-0.375	-0.007
-336.289	42.519	-0.291	-0.346
-335.275	-200.000	-0.059	-0.380
-334.260	-71.507	-0.318	-0.155
-333.245	27.080	-0.232	0.254
-332.231	85.543	0.208	0.299
-331.216	-200.000	0.045	0.275
-330.202	800.000	0.116	0.523
-329.187	0.841	0.261	-0.244
-328.172	71.521	-0.096	-0.130
-327.158	-2.637	-0.153	0.140
-326.143	295.346	-0.084	0.201
-325.129	31.406	-0.303	-0.341
-324.114	96.880	-0.178	0.268
-323.099	-116.430	0.328	0.079
-322.085	304.414	-0.112	0.273
-321.070	-140.028	-0.158	0.022
-320.056	-77.883	-0.261	0.117
-319.041	-100.395	0.102	0.033
-318.026	-58.209	-0.461	-0.261
-317.012	-11.970	0.357	-0.306
-315.997	-174.353	-0.052	-0.002
-314.983	-200.000	0.011	-0.210
-313.968	106.581	-0.251	-0.390
-312.953	-114.852	-0.129	0.032
-311.939	-200.000	-0.022	0.157
-310.924	15.138	0.220	-0.226
-309.910	-200.000	-0.068	0.469
-308.895	-66.963	0.278	0.143
-307.880	14.553	0.201	0.205
-306.866	-69.419	-0.560	0.279
-305.851	-84.770	-0.380	-0.155
-304.837	-83.699	-0.512	-0.212
-303.822	-200.000	0.005	0.041
-302.807	95.703	-0.069	-0.104
-301.793	168.664	0.202	0.378
-300.778	25.890	-0.144	-0.157
-299.764	40.269	0.177	-0.208
-298.749	-37.686	-0.101	-0.070
-297.735	-145.306	-0.339	0.040
-296.720	-9.612	0.378	-0.329
-295.705	703.813	0.085	0.293
-294.691	193.501	0.195	0.386
-293.676	-40.459	0.052	-0.035
-292.662	-200.000	-0.010	-0.088
-291.647	129.923	0.172	0.288
-290.632	198.151	0.131	-0.262
-289.618	-141.625	0.274	-0.036
-288.603	-200.000	-0.002	0.115
-287.589	123.705	0.154	0.252
-286.574	-129.424	-0.355	0.064
-285.559	-79.297	-0.291	0.128
-284.545	800.000	0.082	-0.399
-283.530	189.046	0.174	-0.340
-282.516	-200.000	0.080	-0.535
-281.501	-41.969	-0.356	0.237
-280.486	40.328	0.209	0.245
-279.472	-131.379	0.111	0.019
-278.457	-27.464	-0.247	-0.187
-277.443	-124.501	-0.109	-0.022
-276.428	-181.220	0.163	0.004
-275.413	-111.429	0.319	-0.084
-274.399	-84.745	-0.320	0.131
-273.384	-45.886	0.388	-0.249
-272.370	-63.418	0.346	0.185
-271.355	88.908	-0.130	0.188
-270.340	719.121	-0.048	0.168
-269.326	-43.973	0.223	0.146
-268.311	329.575	0.101	0.255
-267.297	-35.201	-0.217	-0.154
-266.282	-48.646	0.547	0.342
-265.267	271.032	0.173	0.398
-264.253	-131.056	-0.229	0.039
-263.238	-200.000	-0.003	0.156
-262.224	800.000	-0.113	-0.484
-261.209	800.000	-0.046	-0.171
-260.195	-21.551	0.150	-0.119
-259.180	800.000	-0.107	0.549
-258.165	800.000	-0.127	0.619
-257.151	-99.928	-0.362	-0.117
-256.136	1.023	-0.170	0.159
-255.122	360.151	0.101	-0.263
-254.107	5.703	-0.162	-0.156
-253.092	-101.233	-0.662	0.209
-252.078	-200.000	0.023	-0.316
-251.063	-6.250	0.308	0.274
-250.049	-8.582	-0.228	0.199
-249.034	40.769	-0.078	0.092
-248.019	-43.508	0.177	-0.116
-247.005	-14.219	-0.265	0.222
-245.990	-67.897	0.407	-0.206
-244.976	213.388	-0.097	-0.200
-243.961	448.902	0.117	0.337
-242.946	-200.000	-0.007	-0.381
-241.932	8.935	0.139	-0.137
-240.917	-59.366	-0.163	-0.091
-239.903	116.835	-0.134	0.215
-238.888	12.476	-0.272	0.273
-237.873	-168.329	-0.196	-0.010
-236.859	-60.122	0.405	-0.224
-235.844	-26.985	0.267	0.203
-234.830	800.000	-0.095	0.363
-233.815	-143.813	0.875	0.106
-232.800	-75.238	-0.200	0.093
-231.786	-148.834	-0.323	0.034
-230.771	51.912	-0.398	0.494
-229.757	-36.998	-0.394	0.274
-228.742	-100.136	0.319	-0.103
-227.727	-61.167	-0.271	-0.149
-226.713	-78.532	-0.289	0.128
-225.698	-95.870	0.394	-0.136
-224.684	59.650	0.143	-0.183
-223.669	-78.209	0.705	0.314
-222.655	-24.828	-0.550	0.424
-221.640	-117.325	-0.471	0.110
-220.625	257.775	0.114	0.257
-219.611	91.496	-0.360	0.527
-218.596	-200.000	0.005	-0.045
-217.582	-200.000	0.033	0.644
-216.567	132.201	-0.173	0.291
-215.552	18.557	0.210	0.218
-214.538	-5.494	-0.200	-0.178
-213.523	800.000	0.027	-0.141
-212.509	800.000	0.064	0.274
-211.494	-200.000	0.004	-0.085
-210.479	44.809	-0.293	-0.351
-209.465	-112.980	-0.070	-0.018
-208.450	28.002	0.318	-0.349
-207.436	45.070	0.028	0.034
-206.421	-17.372	0.135	-0.111
-205.406	-112.527	-0.201	0.052
-204.392	800.000	-0.108	-0.428
-203.377	-144.956	0.516	0.061
-202.363	274.853	-0.096	-0.223
-201.348	-55.924	-0.242	-0.140
-200.333	-115.663	-0.480	-0.116
-199.319	-136.127	0.323	0.049
-198.304	-101.520	0.561	0.176
-197.290	-145.761	-0.503	0.058
-196.275	149.419	-0.049	0.087
-195.260	-200.000	0.043	0.357
-194.246	241.913	-0.078	0.170
-193.231	224.075	0.031	-0.066
-192.217	32.839	0.095	0.107
-191.202	-168.256	-0.410	0.020
-190.187	119.097	0.150	-0.242
-189.173	-184.280	-0.093	-0.002
-188.158	152.283	-0.286	0.509
-187.144	-133.729	-0.278	-0.045
-186.129	40.026	0.272	-0.318
-185.114	451.502	0.119	-0.344
-184.100	316.971	-0.083	-0.206
-183.085	-78.804	0.290	0.128
-182.071	-8.380	0.408	0.356
-181.056	-133.525	0.564	-0.091
-180.042	188.782	0.190	0.370
-179.027	-200.000	0.310	0.000
-178.012	50.128	0.169	0.208
-176.998	-95.005	-0.231	0.081
-175.983	-107.505	-0.191	-0.054
-174.969	-200.000	0.031	-0.200
-173.954	172.746	0.073	0.136
-172.939	128.971	-0.220	-0.365
-171.925	-200.000	-0.028	-0.353
-170.910	-109.158	-0.274	0.075
-169.896	733.698	0.077	-0.271
-168.881	697.944	0.067	0.229
-167.866	-178.118	0.091	-0.003
-166.852	-135.585	0.382	-0.058
-165.837	-121.288	-0.103	0.022
-164.823	-200.000	-0.035	0.294
-163.808	-149.740	-0.443	0.045
-162.793	-57.361	-0.353	-0.201
-161.779	-51.403	0.261	0.158
-160.764	-182.624	-0.297	-0.007
-159.750	48.717	0.347	0.423
-158.735	413.477	-0.149	0.415
-157.720	213.356	-0.154	-0.317
-156.706	-200.000	-0.013	0.215
-155.691	-101.414	-0.374	-0.118
-154.677	-89.615	0.634	-0.240
-153.662	355.546	0.076	-0.198
-152.647	-200.000	-0.052	0.351
-151.633	-107.206	-0.453	0.129
-150.618	-123.841	-0.533	0.108
-149.604	800.000	0.036	0.200
-148.589	9.624	-0.208	-0.205
-147.574	-200.000	0.006	0.133
-146.560	800.000	-0.038	-0.212
-145.545	-200.000	-0.036	-0.244
-144.531	213.528	0.036	0.074
-143.516	-87.246	-0.193	-0.076
-142.502	-138.933	0.172	-0.024
-141.487	-90.349	-0.472	-0.177
-140.472	-195.958	-0.071	-0.001
-139.458	-200.000	-0.031	-0.206
-138.443	-105.540	-0.243	-0.071
-137.429	-200.000	0.028	-0.403
-136.414	330.692	-0.141	-0.353
-135.399	-74.609	-0.376	-0.175
-134.385	-200.000	-0.015	-0.267
-133.370	64.277	0.184	0.240
-132.356	186.745	0.184	0.356
-131.341	45.571	0.099	0.119
-130.326	757.723	-0.005	0.019
-129.312	-56.540	-0.172	-0.099
-128.297	-137.573	0.455	0.066
-127.283	71.269	0.111	-0.149
-126.268	-200.000	-0.007	0.077
-125.253	-200.000	-0.006	-0.471
-124.239	30.795	0.258	-0.287
-123.224	-200.000	-0.002	-0.164
-122.210	65.516	-0.307	-0.403
-121.195	406.801	-0.189	-0.520
