DTS Sentinel unit serial number:	SN409020Multiplexer serial number:	ORYXHardware model number:	OX4-SRSoftware version number:	ORYX F/W v3.00 Oryx Data Collector v3.7.2.0data status	okinstallation	HaddamTimeLapsedifferential loss correction	single-endedforward channel	channel 3reverse channel	N/Adate	2011/06/21time	16:51:17forward acquisition time	30.00reverse acquisition time	0.00gamma	498.7831k internal	0.1785k external	0.1785temperature offset calibration	1.0074default loss term (dB/km)	0.3790temperature slope calibration	1.3530multiplexer offset coefficient	1.0000multiplexer slope coefficient	1.0000fibre end	0.00T internal ref (°C)	32.44T ext. ref 1 (°C)	27.36T ext. ref 2 (°C)	0.24length (m)	temperature (°C)	Stokes	anti-Stokes-747.200	-85.109	-0.952	-0.387
-746.185	11.563	-0.308	0.308
-745.171	21.460	-0.320	0.339
-744.156	223.436	-0.094	-0.198
-743.142	116.360	-0.214	-0.342
-742.127	657.481	0.193	0.651
-741.112	6.466	0.238	-0.230
-740.098	-117.412	-0.355	-0.083
-739.083	-8.446	-0.337	0.295
-738.069	-200.000	-0.060	0.709
-737.054	-133.178	-0.051	-0.008
-736.039	6.278	-0.392	-0.378
-735.025	-57.161	0.241	-0.138
-734.010	406.208	-0.050	0.139
-732.996	-10.632	-0.237	-0.204
-731.981	800.000	0.076	-0.294
-730.966	-53.765	0.382	0.227
-729.952	-88.673	-0.139	0.054
-728.937	800.000	0.139	0.530
-727.923	-52.469	-0.111	0.067
-726.908	-49.147	-0.234	0.145
-725.894	277.614	0.081	0.188
-724.879	255.651	0.163	0.366
-723.864	-31.895	0.210	0.153
-722.850	171.929	0.091	0.171
-721.835	-45.948	0.042	0.027
-720.821	218.040	0.310	-0.646
-719.806	289.019	-0.059	-0.141
-718.791	800.000	-0.067	0.321
-717.777	738.372	-0.190	-0.667
-716.762	-60.348	0.280	-0.155
-715.748	-46.522	0.260	0.166
-714.733	-105.758	0.180	-0.053
-713.718	3.371	0.257	0.244
-712.704	381.022	0.187	-0.501
-711.689	800.000	-0.049	-0.274
-710.675	41.373	-0.508	-0.598
-709.660	-200.000	0.004	-0.043
-708.645	800.000	0.111	0.404
-707.631	-200.000	-0.035	-0.606
-706.616	-107.636	0.286	-0.081
-705.602	-174.292	0.096	0.004
-704.587	-18.724	-0.172	0.139
-703.572	-18.301	0.091	0.074
-702.558	-70.103	0.186	-0.092
-701.543	-25.903	0.184	0.140
-700.529	-200.000	0.042	-0.336
-699.514	-46.819	0.169	-0.107
-698.499	-200.000	-0.075	-0.484
-697.485	-40.155	-0.467	-0.316
-696.470	-146.624	-0.345	0.038
-695.456	763.044	0.138	-0.491
-694.441	24.550	0.064	-0.069
-693.426	-200.000	-0.084	-0.578
-692.412	-74.355	-0.356	-0.166
-691.397	210.688	0.110	-0.224
-690.383	-106.271	0.315	0.091
-689.368	-200.000	0.044	-0.310
-688.354	-87.509	-0.343	0.134
-687.339	236.561	0.166	-0.359
-686.324	-105.118	0.499	0.147
-685.310	3.297	-0.732	-0.693
-684.295	-62.438	0.294	-0.159
-683.281	-29.277	0.370	0.275
-682.266	61.490	0.065	-0.084
-681.251	-47.051	-0.245	-0.155
-680.237	197.038	-0.055	0.109
-679.222	-71.632	-0.310	0.150
-678.208	-200.000	0.014	-0.201
-677.193	60.002	-0.298	0.383
-676.178	-98.446	-0.238	0.079
-675.164	-22.985	-0.175	0.137
-674.149	-200.000	-0.063	0.560
-673.135	-153.635	-0.256	0.023
-672.120	-128.535	0.409	0.075
-671.105	42.496	0.243	-0.287
-670.091	-200.000	0.046	0.283
-669.076	70.412	0.323	0.434
-668.062	800.000	0.108	0.492
-667.047	-32.642	0.316	0.228
-666.032	-162.141	0.148	0.009
-665.018	-200.000	0.010	-0.230
-664.003	-200.000	-0.062	0.421
-662.989	-76.119	-0.320	0.146
-661.974	-28.910	-0.230	-0.171
-660.959	-135.998	-0.150	-0.023
-659.945	195.262	0.117	-0.231
-658.930	-200.000	-0.017	0.237
-657.916	461.413	-0.162	0.470
-656.901	-142.203	-0.298	0.038
-655.886	-115.287	0.471	0.115
-654.872	411.931	0.144	0.400
-653.857	-35.021	-0.274	-0.193
-652.843	800.000	0.043	0.191
-651.828	-101.733	0.240	0.075
-650.814	-16.479	-0.454	0.373
-649.799	-90.874	-0.295	-0.110
-648.784	33.631	-0.190	-0.215
-647.770	-43.247	-0.171	0.112
-646.755	-26.184	0.482	-0.367
-645.741	-173.551	-0.031	-0.001
-644.726	690.588	-0.021	0.073
-643.711	11.400	0.239	0.237
-642.697	-200.000	0.014	-0.264
-641.682	-140.668	-0.557	-0.074
-640.668	0.945	-0.052	-0.048
-639.653	72.480	0.198	0.269
-638.638	46.193	0.184	-0.221
-637.624	-90.655	-0.239	-0.089
-636.609	164.846	0.053	-0.098
-635.595	-71.498	-0.112	-0.054
-634.580	28.127	0.279	0.306
-633.565	423.836	-0.270	0.756
-632.551	24.554	-0.217	0.233
-631.536	-16.165	0.248	-0.204
-630.522	-140.797	0.370	-0.049
-629.507	-88.468	0.052	-0.020
-628.492	800.000	0.093	0.383
-627.478	26.775	-0.195	0.212
-626.463	156.060	-0.122	-0.220
-625.449	-200.000	0.032	-0.635
-624.434	-32.709	-0.062	-0.045
-623.419	-200.000	0.021	-0.264
-622.405	109.634	-0.091	-0.141
-621.390	-134.708	0.700	-0.109
-620.376	-138.895	0.261	0.036
-619.361	56.962	-0.187	0.236
-618.346	-35.874	-0.278	0.195
-617.332	-21.708	0.512	-0.404
-616.317	-40.360	-0.040	-0.027
-615.303	-158.566	0.371	-0.027
-614.288	23.876	-0.288	-0.308
-613.273	200.506	0.012	-0.025
-612.259	-92.685	0.642	-0.232
-611.244	719.203	-0.089	-0.307
-610.230	-14.337	-0.355	0.296
-609.215	-200.000	-0.035	0.210
-608.201	55.696	0.187	0.235
-607.186	98.177	0.153	0.229
-606.171	251.775	-0.074	0.163
-605.157	800.000	0.094	0.340
-604.142	-78.831	0.324	-0.142
-603.128	-11.798	0.033	-0.028
-602.113	-200.000	0.014	-0.343
-601.098	158.974	0.199	0.360
-600.084	-200.000	0.009	-0.178
-599.069	800.000	0.007	0.025
-598.055	293.648	0.061	-0.144
-597.040	-200.000	-0.009	-0.350
-596.025	800.000	-0.040	-0.152
-595.011	-88.552	0.275	0.105
-593.996	215.812	-0.175	-0.361
-592.982	44.284	-0.306	-0.364
-591.967	116.174	-0.346	-0.550
-590.952	-113.845	-0.748	0.187
-589.938	-167.179	-0.279	-0.014
-588.923	-6.965	0.352	-0.309
-587.909	150.034	-0.098	-0.172
-586.894	-173.787	-0.785	-0.030
-585.879	-138.016	0.141	-0.020
-584.865	800.000	-0.062	0.342
-583.850	243.740	0.069	0.149
-582.836	-54.007	-0.287	0.169
-581.821	-60.475	-0.493	0.271
-580.806	-35.226	0.058	-0.041
-579.792	-132.850	-0.447	-0.073
-578.777	-16.642	-0.263	0.216
-577.763	93.606	-0.187	-0.275
-576.748	-131.941	-0.088	0.015
-575.733	-14.542	0.130	0.108
-574.719	82.288	0.132	-0.185
-573.704	148.617	-0.149	0.260
-572.690	800.000	0.023	0.088
-571.675	-188.839	0.357	0.006
-570.661	-65.258	0.432	-0.224
-569.646	-152.623	0.768	-0.070
-568.631	672.494	-0.178	-0.601
-567.617	-137.979	0.251	-0.036
-566.602	-200.000	-0.003	-0.345
-565.588	68.876	0.198	-0.263
-564.573	197.616	0.043	0.085
-563.558	49.062	-0.227	0.276
-562.544	738.920	-0.052	0.182
-561.529	-59.966	-0.670	0.369
-560.515	775.257	-0.115	0.408
-559.500	36.744	-0.386	-0.441
-558.485	359.659	0.184	-0.478
-557.471	613.907	-0.062	-0.203
-556.456	-99.893	0.247	0.079
-555.442	35.728	0.047	0.054
-554.427	11.686	0.237	-0.235
-553.412	-200.000	0.010	0.146
-552.398	470.235	-0.128	0.375
-551.383	431.763	-0.069	-0.194
-550.369	155.544	-0.056	0.100
-549.354	91.738	-0.174	0.254
-548.339	90.614	0.309	-0.448
-547.325	-200.000	0.041	-0.337
-546.310	39.685	0.032	0.037
-545.296	103.723	-0.196	0.297
-544.281	800.000	-0.053	0.280
-543.266	20.566	0.254	0.265
-542.252	-200.000	-0.001	-0.208
-541.237	109.273	0.227	0.351
-540.223	-200.000	0.025	-0.152
-539.208	173.095	0.204	0.382
-538.193	-200.000	-0.064	0.383
-537.179	-113.909	0.349	0.087
-536.164	505.769	0.191	-0.576
-535.150	-69.568	-0.489	-0.241
-534.135	42.320	-0.127	-0.149
-533.121	-200.000	-0.066	-0.413
-532.106	-66.808	-0.039	-0.020
-531.091	59.278	0.106	-0.135
-530.077	-65.064	0.273	-0.142
-529.062	429.427	-0.189	-0.532
-528.048	-77.892	0.421	0.187
-527.033	311.425	-0.074	0.180
-526.018	102.441	-0.359	0.543
-525.004	-71.982	-0.079	0.038
-523.989	-8.629	-0.270	0.234
-522.975	-23.629	-0.324	-0.251
-521.960	155.931	-0.221	-0.394
-520.945	-200.000	0.022	-0.141
-519.931	456.149	-0.173	-0.497
-518.916	-106.982	0.268	0.076
-517.902	273.079	0.127	0.290
-516.887	-133.523	-0.427	-0.068
-515.872	-122.374	-0.267	-0.056
-514.858	-93.308	-0.178	0.063
-513.843	205.625	0.164	0.331
-512.829	-95.385	0.671	0.231
-511.814	-160.752	0.162	-0.011
-510.799	-81.014	0.412	-0.175
-509.785	429.572	0.085	-0.240
-508.770	231.810	-0.162	0.345
-507.756	361.360	-0.066	-0.173
-506.741	-67.664	-0.261	-0.131
-505.726	140.078	0.027	-0.046
-504.712	-7.433	0.199	0.174
-503.697	0.863	-0.268	-0.248
-502.683	214.705	0.060	-0.124
-501.668	-200.000	0.033	-0.331
-500.653	440.739	0.035	0.100
-499.639	-7.231	-0.324	-0.283
-498.624	87.596	-0.316	0.452
-497.610	800.000	-0.039	0.203
-496.595	-91.838	-0.490	0.179
-495.581	-173.296	0.087	-0.003
-494.566	-78.399	-0.244	-0.107
-493.551	-46.849	-0.366	-0.230
-492.537	76.633	-0.131	0.180
-491.522	-200.000	0.251	-0.001
-490.508	-153.202	-0.601	0.054
-489.493	-77.674	0.270	0.120
-488.478	-64.170	0.266	0.139
-487.464	-117.816	-0.341	0.078
-486.449	-37.866	0.458	0.313
-485.435	-200.000	-0.016	-0.216
-484.420	-114.730	-0.266	0.065
-483.405	-78.490	-0.244	0.107
-482.391	800.000	-0.065	0.358
-481.376	-162.453	0.292	0.018
-480.362	-200.000	0.025	0.378
-479.347	171.835	0.041	-0.075
-478.332	340.568	0.090	0.227
-477.318	-29.353	0.135	-0.099
-476.303	800.000	0.040	0.188
-475.289	-83.762	-0.139	0.057
-474.274	545.894	-0.090	0.280
-473.259	234.046	0.005	-0.010
-472.245	800.000	-0.102	0.466
-471.230	-200.000	-0.025	0.370
-470.216	16.581	0.118	0.120
-469.201	173.724	0.076	-0.142
-468.186	-80.673	-0.314	-0.134
-467.172	-66.384	-0.271	-0.138
-466.157	800.000	0.127	-0.523
-465.143	37.076	0.441	0.504
-464.128	123.361	-0.286	0.463
-463.113	-155.687	-0.343	0.028
-462.099	-168.298	-0.537	0.026
-461.084	-3.123	-0.357	0.321
-460.070	-200.000	-0.029	-0.304
-459.055	0.585	0.120	0.111
-458.040	-81.988	-0.879	0.368
-457.026	800.000	-0.104	-0.580
-456.011	-46.319	0.434	-0.274
-454.997	-54.371	0.142	0.082
-453.982	62.509	0.160	0.206
-452.968	-58.242	-0.190	-0.106
-451.953	110.307	0.223	-0.346
-450.938	-200.000	-0.008	0.374
-449.924	800.000	-0.043	-0.242
-448.909	-200.000	0.020	0.353
-447.895	258.404	0.273	0.607
-446.880	77.539	-0.208	-0.286
-445.865	-78.921	0.381	0.166
-444.851	-35.579	0.339	0.236
-443.836	-43.225	-0.463	-0.301
-442.822	-53.943	0.182	-0.107
-441.807	800.000	0.070	0.266
-440.792	56.764	-0.171	0.214
-439.778	759.299	0.085	-0.299
-438.763	-200.000	-0.017	0.601
-437.749	-172.028	-0.704	0.029
-436.734	-173.162	-0.744	-0.029
-435.719	-43.797	0.350	-0.227
-434.705	-180.709	0.334	-0.009
-433.690	-16.051	0.464	-0.379
-432.676	-41.406	-0.162	0.107
-431.661	-55.330	-0.346	0.200
-430.646	65.318	0.229	0.299
-429.632	-64.549	0.063	0.033
-428.617	49.562	-0.044	-0.054
-427.603	-200.000	0.016	0.160
-426.588	191.157	0.112	-0.217
-425.573	-200.000	0.030	-0.337
-424.559	-126.053	0.435	0.083
-423.544	800.000	0.048	-0.271
-422.530	-13.009	-0.185	0.155
-421.515	-200.000	-0.001	0.413
-420.500	800.000	0.057	0.214
-419.486	44.464	0.382	0.452
-418.471	-152.251	0.187	-0.017
-417.457	181.879	0.162	-0.308
-416.442	-71.791	0.340	-0.162
-415.428	-117.789	0.189	-0.043
-414.413	-20.070	-0.473	-0.375
-413.398	-194.596	-0.240	0.002
-412.384	800.000	-0.034	0.179
-411.369	522.891	-0.050	0.151
-410.355	-32.630	-0.230	-0.164
-409.340	436.997	-0.058	0.163
-408.325	178.637	-0.077	-0.145
-407.311	-104.239	0.423	-0.126
-406.296	-200.000	0.031	0.423
-405.282	58.116	0.342	0.431
-404.267	-86.099	-0.224	0.088
-403.252	-155.203	0.086	0.007
-402.238	-53.192	0.381	0.224
-401.223	800.000	-0.062	-0.249
-400.209	-37.519	-0.086	-0.059
-399.194	-8.419	0.549	-0.474
-398.179	-115.024	0.078	-0.019
-397.165	-191.153	-0.298	0.004
-396.150	63.326	-0.358	-0.462
-395.136	152.902	0.253	-0.445
-394.121	-137.771	-0.146	0.021
-393.106	-14.880	0.328	0.270
-392.092	-32.792	0.340	-0.242
-391.077	-200.000	0.041	0.309
-390.063	-46.764	-0.368	0.231
-389.048	-24.811	-0.355	0.271
-388.033	-75.827	-0.271	0.123
-387.019	-200.000	0.017	0.508
-386.004	50.784	0.008	-0.010
-384.990	-28.690	-0.251	-0.185
-383.975	52.749	0.127	0.156
-382.960	90.637	0.273	-0.394
-381.946	23.669	0.435	0.460
-380.931	-97.447	-0.361	0.120
-379.917	-200.000	0.001	0.016
-378.902	-200.000	0.009	0.237
-377.888	-31.200	-0.138	0.100
-376.873	56.987	-0.195	0.244
-375.858	47.080	-0.098	0.117
-374.844	448.289	-0.185	0.526
-373.829	-181.876	-0.310	-0.007
-372.815	554.251	-0.053	-0.166
-371.800	-126.331	-0.237	0.045
-370.785	800.000	0.040	-0.144
-369.771	-99.620	0.290	-0.093
-368.756	-200.000	-0.036	0.439
-367.742	-200.000	0.043	0.427
-366.727	126.234	0.065	0.106
-365.712	61.909	0.146	-0.187
-364.698	514.671	0.024	-0.071
-363.683	735.228	-0.102	0.354
-362.669	7.024	0.143	0.136
-361.654	-123.020	0.120	0.025
-360.639	13.708	0.247	0.246
-359.625	-54.868	0.620	0.358
-358.610	800.000	0.128	0.544
-357.596	-112.531	0.410	0.104
-356.581	-85.558	-0.185	0.074
-355.566	-68.691	-0.104	0.051
-354.552	-111.016	-0.421	-0.110
-353.537	-133.563	0.592	0.094
-352.523	133.302	0.144	0.239
-351.508	-158.920	-0.180	0.013
-350.493	114.866	-0.150	0.235
-349.479	-140.174	-0.198	-0.026
-348.464	800.000	-0.135	-0.558
-347.450	-74.835	0.416	-0.190
-346.435	800.000	-0.030	0.144
-345.420	-134.391	-0.218	0.034
-344.406	-200.000	0.038	0.444
-343.391	230.056	0.193	0.405
-342.377	398.403	-0.077	0.208
-341.362	800.000	-0.093	0.484
-340.348	-98.662	0.138	0.045
-339.333	1.942	-0.303	-0.281
-338.318	18.608	-0.225	-0.231
-337.304	37.189	-0.239	0.272
-336.289	-178.171	-0.103	-0.003
-335.275	89.448	0.070	0.100
-334.260	282.549	0.241	-0.557
-333.245	103.319	-0.405	-0.611
-332.231	-135.159	0.245	-0.037
-331.216	13.200	0.098	-0.097
-330.202	106.875	0.263	-0.400
-329.187	-30.911	0.379	0.274
-328.172	-100.650	-0.588	0.185
-327.158	-142.148	-0.447	-0.056
-326.143	-65.686	-0.170	0.087
-325.129	33.355	-0.095	-0.106
-324.114	-200.000	-0.062	-0.368
-323.099	-79.750	0.413	-0.177
-322.085	-200.000	-0.021	-0.278
-321.070	800.000	0.077	-0.382
-320.056	328.824	0.363	-0.898
-319.041	143.555	-0.235	-0.403
-318.026	800.000	0.069	-0.391
-317.012	56.683	0.095	-0.119
-315.997	-70.778	-0.177	-0.085
-314.983	-101.219	-0.222	-0.069
-313.968	-10.337	-0.128	0.108
-312.953	-120.245	-0.252	0.055
-311.939	-153.834	0.431	-0.037
-310.924	381.994	0.142	-0.376
-309.910	-139.436	-0.167	-0.023
-308.895	-116.938	0.267	-0.062
-307.880	8.356	0.410	-0.395
-306.866	95.075	0.204	-0.298
-305.851	49.046	0.214	0.258
-304.837	-200.000	-0.005	0.178
-303.822	-59.180	-0.310	-0.170
-302.807	52.959	-0.128	0.157
-301.793	-200.000	0.023	0.304
-300.778	-200.000	0.006	0.039
-299.764	-12.367	-0.130	-0.109
-298.749	-200.000	0.025	0.291
-297.735	800.000	0.103	0.399
-296.720	-108.288	0.365	-0.100
-295.705	33.139	0.069	0.077
-294.691	-47.029	-0.033	0.021
-293.676	-107.714	0.518	0.144
-292.662	-173.905	0.344	0.013
-291.647	-138.597	0.177	0.025
-290.632	800.000	0.066	0.244
-289.618	2.397	-0.191	0.177
-288.603	153.043	-0.242	-0.425
-287.589	96.140	0.175	0.257
-286.574	45.966	0.167	0.198
-285.559	177.078	0.031	-0.058
-284.545	-115.645	-0.192	0.046
-283.530	-26.964	-0.259	0.193
-282.516	800.000	0.076	-0.312
-281.501	0.300	0.493	0.449
-280.486	-81.130	-0.180	0.076
-279.472	11.517	0.175	0.171
-278.457	61.839	0.140	0.179
-277.443	-200.000	-0.037	0.407
-276.428	-110.523	0.112	0.030
-275.413	29.202	-0.214	-0.232
-274.399	-200.000	0.033	0.297
-273.384	-15.994	-0.136	0.111
-272.370	505.102	0.028	-0.085
-271.355	179.402	0.134	-0.252
-270.340	630.320	-0.086	0.280
-269.326	110.558	-0.339	0.522
-268.311	-190.816	-0.183	0.002
-267.297	74.684	0.161	-0.217
-266.282	197.887	-0.158	-0.310
-265.267	-200.000	0.032	-0.307
-264.253	50.919	0.172	0.209
-263.238	-169.951	-0.082	0.004
-262.224	629.180	-0.082	0.266
-261.209	-134.911	0.067	-0.010
-260.195	-42.346	0.137	-0.089
-259.180	-200.000	-0.004	-0.200
-258.165	-121.139	-0.276	0.059
-257.151	-171.430	0.277	0.012
-256.136	535.874	-0.016	0.049
-255.122	144.390	-0.202	-0.345
-254.107	-84.877	-0.059	-0.023
-253.092	-120.560	-0.291	-0.062
-252.078	109.334	-0.139	-0.213
-251.063	-150.473	-0.259	-0.025
-250.049	-178.455	0.151	0.004
-249.034	-83.282	0.389	0.159
-248.019	261.303	0.149	0.331
-247.005	133.036	0.189	-0.312
-245.990	169.057	0.261	-0.477
-244.976	-42.517	-0.322	-0.209
-243.961	-126.515	0.531	-0.100
-242.946	-12.100	-0.153	0.128
-241.932	96.150	0.297	-0.435
-240.917	-66.611	-0.330	-0.166
-239.903	2.330	0.201	-0.185
-238.888	-85.171	0.120	0.048
-237.873	800.000	-0.054	-0.217
-236.859	81.347	0.038	-0.052
-235.844	800.000	-0.051	-0.275
-234.830	500.647	0.103	0.304
-233.815	-200.000	-0.015	-0.133
-232.800	88.877	-0.180	0.256
-231.786	-6.215	-0.081	0.071
-230.771	35.154	0.281	-0.314
-229.757	58.397	0.128	0.160
-228.742	-200.000	-0.007	-0.255
-227.727	308.417	-0.070	0.168
-226.713	446.689	-0.081	0.229
-225.698	-157.260	0.435	-0.033
-224.684	669.022	-0.031	-0.102
-223.669	-47.560	-0.043	0.026
-222.655	124.532	0.211	0.340
-221.640	-43.623	-0.390	0.251
-220.625	164.523	0.164	-0.297
-219.611	-192.363	0.298	-0.004
-218.596	-54.906	-0.163	-0.094
-217.582	-60.780	-0.326	0.176
-216.567	690.164	0.060	0.200
-215.552	655.686	-0.063	0.206
-214.538	134.509	-0.296	0.490
-213.523	-53.297	0.368	-0.215
-212.509	630.299	0.046	0.151
-211.494	36.708	-0.185	-0.208
-210.479	280.915	0.104	-0.239
-209.465	-200.000	-0.027	0.379
-208.450	91.570	0.204	0.293
-207.436	-200.000	-0.014	0.174
-206.421	-89.631	0.262	-0.097
-205.406	187.011	-0.108	0.206
-204.392	-200.000	-0.041	-0.241
-203.377	800.000	-0.106	0.437
-202.363	-200.000	-0.006	0.073
-201.348	30.917	-0.228	-0.249
-200.333	101.098	-0.156	-0.231
-199.319	32.722	0.303	-0.334
-198.304	85.388	0.111	0.156
-197.290	800.000	0.055	-0.289
-196.275	1.949	-0.223	0.205
-195.260	-84.605	-0.323	-0.129
-194.246	-147.893	0.306	0.032
-193.231	-7.565	0.197	-0.169
-192.217	99.136	0.108	-0.159
-191.202	66.608	-0.266	0.346
-190.187	-122.801	-0.257	-0.052
-189.173	-120.134	-0.171	-0.037
-188.158	-14.015	-0.354	-0.291
-187.144	66.424	-0.225	-0.291
-186.129	31.922	-0.244	-0.268
-185.114	-61.892	-0.423	0.225
-184.100	-69.743	-0.186	0.090
-183.085	-153.037	0.131	-0.012
-182.071	-99.544	0.274	-0.087
-181.056	-100.223	0.737	-0.232
-180.042	800.000	0.079	-0.300
-179.027	-33.731	-0.062	-0.044
-178.012	-104.320	0.439	-0.129
-176.998	117.590	-0.176	-0.277
-175.983	-30.148	0.255	-0.184
-174.969	-116.537	0.094	0.022
-173.954	252.106	0.253	-0.550
-172.939	800.000	-0.074	-0.358
-171.925	-167.019	0.169	-0.009
-170.910	584.002	-0.090	0.282
-169.896	2.134	-0.164	0.151
-168.881	112.943	-0.123	-0.190
-167.866	-35.215	-0.474	-0.328
-166.852	-68.955	-0.362	0.177
-165.837	-21.728	0.090	0.070
-164.823	-60.794	-0.088	0.047
-163.808	-148.314	0.374	-0.039
-162.793	-23.340	0.234	-0.178
-161.779	-71.241	-0.720	-0.342
-160.764	106.545	0.161	-0.243
-159.750	-200.000	0.022	0.281
-158.735	-1.979	0.012	0.011
-157.720	-32.254	0.323	-0.229
-156.706	-101.510	0.154	-0.047
-155.691	-133.237	-0.025	0.004
-154.677	-61.876	0.312	0.165
-153.662	-31.769	0.149	0.106
-152.647	-32.981	-0.124	-0.088
-151.633	7.888	0.262	-0.250
-150.618	-200.000	0.663	-0.001
-149.604	-89.154	-0.356	0.133
-148.589	167.759	-0.219	0.397
-147.574	-160.454	0.412	-0.028
-146.560	145.160	-0.071	0.122
-145.545	61.889	0.181	-0.230
-144.531	20.564	-0.204	0.210
-143.516	800.000	-0.013	-0.056
-142.502	66.159	0.043	0.056
-141.487	262.182	0.124	-0.275
-140.472	-64.105	0.316	0.164
-139.458	797.647	-0.067	-0.236
-138.443	-133.252	-0.152	0.024
-137.429	196.696	-0.078	-0.151
-136.414	-34.278	-0.113	-0.079
-135.399	-64.232	0.203	-0.105
-134.385	-40.643	-0.360	-0.237
-133.370	800.000	-0.050	0.274
-132.356	34.023	-0.229	0.253
-131.341	-82.587	0.664	-0.272
-130.326	-200.000	0.233	0.001
-129.312	800.000	-0.118	0.478
-128.297	148.460	-0.201	0.346
-127.283	-117.411	-0.128	0.029
-126.268	-121.229	-0.043	-0.009
-125.253	-200.000	0.030	-0.539
-124.239	-34.507	0.160	0.111
-123.224	-179.647	0.349	-0.009
-122.210	-180.902	0.409	0.010
-121.195	-44.498	0.214	-0.136
-120.180	-12.839	-0.194	-0.161
