DTS Sentinel unit serial number:	SN409020Multiplexer serial number:	ORYXHardware model number:	OX4-SRSoftware version number:	ORYX F/W v3.00 Oryx Data Collector v3.7.2.0data status	okinstallation	HaddamTimeLapsedifferential loss correction	single-endedforward channel	channel 3reverse channel	N/Adate	2011/06/21time	17:21:17forward acquisition time	30.00reverse acquisition time	0.00gamma	498.7831k internal	0.1813k external	0.1813temperature offset calibration	1.0074default loss term (dB/km)	0.3790temperature slope calibration	1.3530multiplexer offset coefficient	1.0000multiplexer slope coefficient	1.0000fibre end	0.00T internal ref (°C)	33.50T ext. ref 1 (°C)	29.26T ext. ref 2 (°C)	0.25length (m)	temperature (°C)	Stokes	anti-Stokes-747.200	384.376	-0.150	-0.399
-746.185	-95.520	0.542	-0.186
-745.171	5.625	0.225	0.213
-744.156	69.729	0.232	0.306
-743.142	-41.484	0.351	-0.231
-742.127	-104.928	-0.393	0.115
-741.112	-11.165	0.161	0.136
-740.098	-200.000	0.042	0.258
-739.083	249.483	-0.063	-0.137
-738.069	8.971	0.410	0.397
-737.054	-131.659	0.286	0.048
-736.039	-23.670	-0.286	0.220
-735.025	-129.811	-0.201	-0.035
-734.010	66.516	-0.153	-0.200
-732.996	-23.317	0.193	-0.149
-731.981	447.204	-0.029	0.081
-730.966	40.122	0.142	0.164
-729.952	-64.308	0.196	0.102
-728.937	-25.825	-0.381	0.287
-727.923	-17.496	-0.264	0.212
-726.908	-200.000	0.056	-0.575
-725.894	214.525	0.163	-0.333
-724.879	-143.898	-0.219	0.026
-723.864	277.733	0.165	-0.378
-722.850	46.048	-0.289	0.343
-721.835	-32.688	-0.426	0.303
-720.821	87.610	-0.045	-0.064
-719.806	-200.000	-0.007	0.115
-718.791	477.960	0.145	-0.424
-717.777	-148.610	-0.509	0.052
-716.762	-52.990	-0.267	0.157
-715.748	-200.000	-0.022	0.451
-714.733	-70.418	0.125	0.060
-713.718	-181.220	-0.352	-0.009
-712.704	-83.764	-0.473	0.192
-711.689	-121.215	0.124	0.026
-710.675	-128.020	-0.407	-0.074
-709.660	-35.423	-0.302	-0.210
-708.645	800.000	0.163	-0.630
-707.631	-71.110	0.242	0.116
-706.616	-115.508	0.172	-0.041
-705.602	-142.468	-0.266	-0.033
-704.587	-55.498	0.116	-0.067
-703.572	-200.000	-0.004	0.037
-702.558	-126.539	-0.163	0.031
-701.543	-200.000	0.017	-0.477
-700.529	-173.025	0.424	-0.016
-699.514	248.556	0.152	0.331
-698.499	-155.787	0.133	0.011
-697.485	800.000	-0.055	0.305
-696.470	-194.378	0.426	0.004
-695.456	-200.000	0.006	-0.141
-694.441	-200.000	0.080	0.601
-693.426	-77.120	-0.508	-0.226
-692.412	160.555	-0.208	-0.373
-691.397	-26.867	0.285	0.213
-690.383	67.639	-0.195	0.256
-689.368	-161.828	0.242	-0.016
-688.354	-100.268	0.514	0.162
-687.339	-101.168	0.418	0.130
-686.324	-109.147	-0.606	0.164
-685.310	-110.582	-0.012	-0.003
-684.295	200.521	-0.065	-0.129
-683.281	800.000	0.122	0.483
-682.266	-200.000	-0.048	-0.286
-681.251	-200.000	-0.040	-0.359
-680.237	199.644	0.277	-0.546
-679.222	-146.999	-0.182	0.020
-678.208	-6.451	0.265	-0.231
-677.193	-31.393	-0.156	0.112
-676.178	-143.368	-0.143	-0.017
-675.164	-89.789	0.162	-0.060
-674.149	92.524	0.334	0.483
-673.135	-51.965	-0.246	-0.146
-672.120	45.730	0.106	0.126
-671.105	83.276	0.078	0.109
-670.091	-52.501	-0.268	0.158
-669.076	-37.485	0.272	-0.185
-668.062	13.889	-0.038	-0.038
-667.047	-157.977	-0.236	0.018
-666.032	243.561	0.101	-0.217
-665.018	-200.000	0.075	-0.697
-664.003	-90.985	0.196	0.072
-662.989	-65.177	-0.109	0.056
-661.974	548.458	-0.089	-0.275
-660.959	65.621	-0.228	-0.296
-659.945	-200.000	-0.049	0.301
-658.930	2.249	0.287	0.265
-657.916	-142.877	-0.235	0.029
-656.901	8.560	0.138	0.133
-655.886	-22.789	0.351	0.270
-654.872	-133.222	0.371	-0.059
-653.857	-50.148	-0.053	0.032
-652.843	-141.600	-0.185	-0.024
-651.828	62.818	0.208	0.267
-650.814	-149.520	0.218	-0.022
-649.799	481.526	0.098	0.285
-648.784	-106.664	0.186	0.052
-647.770	-18.472	0.134	0.107
-646.755	-28.899	-0.519	0.380
-645.741	23.522	-0.343	0.360
-644.726	-76.393	0.244	0.109
-643.711	-111.666	0.352	0.091
-642.697	800.000	-0.071	0.395
-641.682	134.718	-0.299	-0.497
-640.668	-200.000	-0.038	0.213
-639.653	-37.505	0.173	-0.118
-638.638	-74.222	0.085	0.039
-637.624	10.106	-0.040	0.039
-636.609	23.901	0.234	-0.247
-635.595	-135.627	0.378	0.057
-634.580	-91.338	0.263	0.095
-633.565	-27.906	-0.103	0.076
-632.551	320.093	-0.185	0.451
-631.536	-86.677	-0.145	0.056
-630.522	39.546	-0.026	0.030
-629.507	-200.000	-0.015	-0.367
-628.492	11.285	-0.153	-0.150
-627.478	-70.905	-0.250	0.120
-626.463	-75.677	0.139	-0.063
-625.449	-200.000	-0.083	0.668
-624.434	-53.072	0.198	0.116
-623.419	-200.000	-0.082	-0.588
-622.405	-53.021	-0.096	0.056
-621.390	-91.312	0.149	-0.054
-620.376	-200.000	0.000	-0.255
-619.361	-121.533	-0.212	0.045
-618.346	136.714	0.105	-0.175
-617.332	460.653	-0.090	-0.256
-616.317	-70.437	0.362	0.174
-615.303	-8.008	0.310	-0.266
-614.288	47.627	0.262	-0.312
-613.273	247.328	0.233	0.505
-612.259	-47.692	-0.551	0.340
-611.244	-105.748	0.203	0.058
-610.230	800.000	0.060	-0.305
-609.215	95.225	0.010	0.014
-608.201	-98.441	0.451	0.146
-607.186	425.131	0.169	-0.466
-606.171	-11.108	0.519	-0.436
-605.157	-200.000	-0.003	-0.046
-604.142	800.000	0.043	0.186
-603.128	34.128	-0.284	0.316
-602.113	-192.967	0.078	-0.001
-601.098	-200.000	-0.027	-0.172
-600.084	111.409	0.162	-0.249
-599.069	68.842	0.150	-0.197
-598.055	-157.334	-0.316	0.024
-597.040	124.072	0.140	-0.225
-596.025	-165.901	-0.475	-0.026
-595.011	-146.921	-0.360	0.039
-593.996	48.607	0.404	0.483
-592.982	-7.624	0.449	-0.387
-591.967	35.475	0.128	0.143
-590.952	295.186	-0.152	0.357
-589.938	-89.505	0.294	-0.110
-588.923	-75.667	0.546	-0.246
-587.909	-154.694	0.238	0.020
-586.894	210.052	0.077	-0.154
-585.879	-200.000	-0.254	0.000
-584.865	-29.099	0.336	0.246
-583.850	166.463	-0.019	0.035
-582.836	149.111	0.085	0.148
-581.821	-200.000	-0.037	-0.232
-580.806	-61.571	-0.390	0.208
-579.792	-9.777	-0.271	0.230
-578.777	-200.000	0.035	-0.224
-577.763	800.000	0.088	0.394
-576.748	-127.808	0.302	-0.055
-575.733	42.379	-0.308	-0.357
-574.719	34.680	-0.214	0.239
-573.704	-47.645	0.173	0.107
-572.690	-59.721	-0.328	0.179
-571.675	-200.000	-0.059	0.687
-570.661	202.719	-0.105	0.208
-569.646	-108.523	-0.218	0.059
-568.631	-93.352	0.269	0.094
-567.617	35.384	0.089	0.100
-566.602	800.000	-0.131	0.523
-565.588	800.000	-0.021	0.087
-564.573	402.491	-0.138	-0.371
-563.558	-58.636	-0.410	-0.226
-562.544	215.348	-0.133	0.271
-561.529	-7.490	0.649	0.559
-560.515	-11.470	0.216	-0.181
-559.500	800.000	-0.174	-0.666
-558.485	-25.503	-0.334	-0.251
-557.471	-43.249	-0.143	0.092
-556.456	309.266	-0.010	-0.024
-555.442	-112.750	-0.345	0.087
-554.427	83.918	-0.136	0.189
-553.412	-200.000	0.106	-0.758
-552.398	-141.393	-0.063	-0.008
-551.383	177.021	-0.246	0.458
-550.369	-21.159	-0.303	0.235
-549.354	800.000	-0.060	-0.239
-548.339	-122.852	0.356	-0.072
-547.325	800.000	-0.052	-0.246
-546.310	-90.624	-0.294	-0.108
-545.296	-146.085	0.281	0.031
-544.281	-42.126	-0.187	-0.121
-543.266	243.628	-0.082	0.175
-542.252	-26.005	0.401	-0.300
-541.237	760.408	0.022	-0.077
-540.223	75.168	-0.040	0.053
-539.208	-53.146	0.302	0.176
-538.193	367.243	-0.079	-0.204
-537.179	302.183	-0.053	0.126
-536.164	-42.337	-0.596	0.386
-535.150	372.895	-0.081	0.209
-534.135	-136.052	0.115	0.017
-533.121	-108.391	-0.313	0.085
-532.106	41.896	-0.097	-0.112
-531.091	707.510	0.021	-0.069
-530.077	331.788	-0.195	-0.480
-529.062	-21.714	0.351	-0.272
-528.048	-200.000	-0.004	-0.563
-527.033	800.000	0.164	0.642
-526.018	-200.000	-0.004	0.345
-525.004	96.506	0.159	0.232
-523.989	800.000	-0.089	-0.408
-522.975	179.425	-0.098	0.183
-521.960	-6.990	-0.315	-0.272
-520.945	-57.912	0.150	-0.083
-519.931	599.613	-0.122	0.386
-518.916	-72.665	0.247	-0.115
-517.902	750.117	0.154	0.532
-516.887	14.926	0.138	-0.137
-515.872	800.000	0.054	-0.211
-514.858	522.632	0.034	-0.101
-513.843	0.174	0.199	0.181
-512.829	-160.784	-0.480	-0.032
-511.814	-200.000	-0.005	-0.304
-510.799	-200.000	0.022	-0.301
-509.785	800.000	0.093	-0.389
-508.770	800.000	-0.092	0.431
-507.756	375.024	-0.041	-0.106
-506.741	278.098	0.132	0.300
-505.726	-109.250	-0.515	0.138
-504.712	-111.322	0.375	0.097
-503.697	381.406	-0.206	0.540
-502.683	-38.347	0.103	-0.069
-501.668	800.000	0.080	0.420
-500.653	-11.824	0.150	-0.125
-499.639	-200.000	-0.022	0.135
-498.624	-3.274	0.479	0.424
-497.610	-76.272	-0.119	0.053
-496.595	-98.941	0.028	0.009
-495.581	-157.751	-0.323	0.024
-494.566	-200.000	-0.074	-0.492
-493.551	136.203	0.085	-0.140
-492.537	-184.746	0.453	0.009
-491.522	62.823	-0.160	0.204
-490.508	-31.126	-0.192	0.137
-489.493	131.852	0.083	0.135
-488.478	-81.230	0.427	0.178
-487.464	72.750	-0.364	-0.483
-486.449	342.489	-0.085	0.212
-485.435	-143.122	0.347	-0.042
-484.420	800.000	-0.134	-0.625
-483.405	-200.000	0.092	0.636
-482.391	25.131	-0.345	0.363
-481.376	-135.388	0.229	0.034
-480.362	-134.024	-0.165	0.026
-479.347	-89.073	-0.125	-0.047
-478.332	-200.000	-0.064	0.442
-477.318	-71.292	0.391	-0.186
-476.303	-112.855	-0.286	-0.071
-475.289	617.945	0.040	0.128
-474.274	800.000	0.098	0.425
-473.259	226.956	0.141	-0.292
-472.245	-127.220	-0.114	0.021
-471.230	-200.000	0.079	-0.482
-470.216	800.000	0.060	-0.303
-469.201	37.297	0.270	-0.304
-468.186	57.379	-0.210	-0.261
-467.172	157.349	-0.074	-0.130
-466.157	-138.887	0.168	0.023
-465.143	-155.074	0.287	0.024
-464.128	-45.416	-0.087	0.054
-463.113	-53.836	0.476	0.275
-462.099	-79.512	0.386	0.164
-461.084	47.025	0.338	0.399
-460.070	-28.925	-0.364	0.264
-459.055	-126.568	-0.066	0.012
-458.040	348.765	0.141	0.355
-457.026	-90.183	-0.263	0.097
-456.011	-68.978	0.388	0.189
-454.997	-152.329	0.536	0.048
-453.982	146.637	0.096	0.164
-452.968	-200.000	-0.054	0.429
-451.953	-93.179	-0.169	0.059
-450.938	40.181	0.070	0.080
-449.924	-45.374	0.225	0.141
-448.909	79.751	0.264	0.360
-447.895	43.709	-0.248	0.288
-446.880	-82.404	0.304	-0.125
-445.865	-200.000	0.003	0.223
-444.851	198.271	-0.089	-0.173
-443.836	-200.000	0.022	-0.696
-442.822	19.971	0.144	0.148
-441.807	-102.514	0.131	0.039
-440.792	13.408	-0.155	0.153
-439.778	-18.186	-0.088	-0.070
-438.763	13.211	0.213	-0.209
-437.749	-58.559	0.434	-0.238
-436.734	-200.000	0.006	0.126
-435.719	110.190	-0.160	-0.244
-434.705	37.572	0.248	-0.279
-433.690	-1.306	-0.316	0.282
-432.676	75.048	-0.062	0.084
-431.661	-116.852	-0.201	-0.046
-430.646	-27.504	0.095	0.070
-429.632	-152.413	0.239	0.022
-428.617	335.426	-0.206	0.507
-427.603	-92.850	0.068	-0.024
-426.588	-101.265	-0.294	0.090
-425.573	-141.912	0.199	-0.025
-424.559	-200.000	0.064	0.567
-423.544	-200.000	-0.030	-0.376
-422.530	-187.982	-0.411	-0.007
-421.515	145.304	0.228	-0.387
-420.500	-102.457	-0.273	-0.082
-419.486	-98.891	-0.597	0.191
-418.471	-68.070	0.290	-0.142
-417.457	228.266	-0.104	-0.216
-416.442	49.428	0.057	-0.069
-415.428	-27.533	0.102	0.075
-414.413	-35.377	-0.262	0.180
-413.398	-104.351	0.260	-0.076
-412.384	-187.714	0.434	-0.007
-411.369	-200.000	0.011	0.124
-410.355	-5.157	0.157	-0.137
-409.340	-65.104	-0.066	-0.034
-408.325	-65.334	-0.270	0.137
-407.311	45.147	0.253	-0.296
-406.296	-46.331	0.533	-0.331
-405.282	-146.138	0.205	-0.023
-404.267	49.100	-0.050	0.060
-403.252	23.036	0.324	-0.336
-402.238	-200.000	-0.083	-0.764
-401.223	9.588	-0.425	-0.408
-400.209	60.725	0.233	-0.292
-399.194	-151.895	-0.385	0.035
-398.179	-167.298	-0.528	0.027
-397.165	-17.325	0.281	-0.224
-396.150	227.273	0.101	-0.208
-395.136	15.071	0.225	-0.223
-394.121	121.035	0.166	0.261
-393.106	-35.885	0.078	-0.053
-392.092	-55.446	0.494	-0.279
-391.077	-66.473	0.110	0.055
-390.063	-84.602	0.109	0.043
-389.048	-174.555	0.484	-0.017
-388.033	32.537	0.201	0.220
-387.019	710.163	-0.033	-0.111
-386.004	99.382	0.152	-0.223
-384.990	-88.889	0.345	-0.129
-383.975	-110.100	0.253	-0.066
-382.960	277.886	0.133	-0.300
-381.946	-94.119	0.241	-0.083
-380.931	169.749	0.032	-0.057
-379.917	-200.000	0.013	0.112
-378.902	88.752	-0.151	-0.213
-377.888	-200.000	-0.023	-0.224
-376.873	260.087	0.399	-0.875
-375.858	-200.000	-0.010	-0.339
-374.844	344.413	-0.169	0.421
-373.829	164.121	-0.082	0.146
-372.815	-111.106	0.260	0.067
-371.800	145.899	0.022	0.038
-370.785	-16.742	-0.397	0.318
-369.771	-200.000	-0.024	-0.263
-368.756	531.631	0.039	-0.118
-367.742	160.978	0.118	0.208
-366.727	-120.311	-0.243	0.052
-365.712	-96.773	0.368	-0.122
-364.698	-130.229	0.313	0.053
-363.683	-200.000	-0.007	0.493
-362.669	-138.782	0.090	-0.012
-361.654	-200.000	0.002	0.319
-360.639	163.706	-0.034	0.060
-359.625	800.000	0.024	-0.113
-358.610	449.729	0.050	0.140
-357.596	-74.339	-0.273	-0.124
-356.581	150.864	-0.254	-0.437
-355.566	132.105	0.115	0.187
-354.552	-68.100	-0.214	0.105
-353.537	24.314	-0.321	0.335
-352.523	-112.048	-0.453	-0.115
-351.508	257.507	0.268	-0.584
-350.493	-143.999	0.282	0.033
-349.479	800.000	-0.119	-0.420
-348.464	83.005	0.134	0.185
-347.450	-6.984	-0.299	-0.256
-346.435	152.656	-0.187	0.323
-345.420	-63.739	-0.355	-0.183
-344.406	-54.410	0.170	0.097
-343.391	-200.000	-0.088	0.515
-342.377	44.121	-0.228	0.264
-341.362	-58.868	-0.353	0.192
-340.348	-117.326	-0.284	0.065
-339.333	-200.000	-0.022	0.176
-338.318	58.920	-0.178	-0.221
-337.304	34.420	0.200	0.220
-336.289	-152.216	-0.136	-0.012
-335.275	-37.499	-0.096	-0.065
-334.260	-136.489	-0.405	-0.059
-333.245	-102.448	-0.195	0.058
-332.231	91.343	-0.254	0.360
-331.216	5.446	-0.381	-0.355
-330.202	-74.362	0.106	0.048
-329.187	458.252	-0.208	-0.587
-328.172	91.714	0.034	-0.048
-327.158	-77.742	0.596	0.259
-326.143	-145.242	0.190	-0.021
-325.129	-85.850	-0.168	0.065
-324.114	-200.000	0.004	-0.209
-323.099	105.014	-0.082	0.122
-322.085	-88.995	-0.511	0.190
-321.070	152.987	0.210	-0.363
-320.056	-200.000	-0.042	-0.505
-319.041	-200.000	0.015	0.125
-318.026	-30.659	0.240	0.171
-317.012	-37.083	-0.362	0.244
-315.997	58.120	-0.243	0.300
-314.983	-135.366	-0.191	-0.028
-313.968	800.000	0.120	0.443
-312.953	-84.328	0.046	-0.018
-311.939	-200.000	-0.428	0.003
-310.924	-21.951	0.348	0.266
-309.910	-41.943	0.458	-0.296
-308.895	2.876	0.211	-0.193
-307.880	-25.460	0.059	-0.044
-306.866	-33.554	-0.329	-0.229
-305.851	-73.905	-0.355	0.162
-304.837	800.000	-0.059	-0.259
-303.822	9.837	0.178	-0.171
-302.807	-163.488	0.075	-0.004
-301.793	800.000	-0.106	-0.395
-300.778	30.445	-0.055	0.059
-299.764	38.405	-0.194	-0.218
-298.749	-38.808	-0.120	-0.080
-297.735	-6.267	-0.176	-0.151
-296.720	800.000	0.062	-0.257
-295.705	-103.116	0.279	0.083
-294.691	-200.000	-0.378	0.000
-293.676	70.911	0.284	0.371
-292.662	-200.000	0.019	-0.457
-291.647	-200.000	-0.023	-0.245
-290.632	-84.045	0.230	-0.092
-289.618	83.285	-0.403	-0.554
-288.603	46.175	0.239	-0.279
-287.589	74.699	0.100	0.132
-286.574	-94.555	-0.626	-0.213
-285.559	-117.268	0.044	-0.010
-284.545	-200.000	-0.013	0.204
-283.530	-200.000	-0.024	0.219
-282.516	357.661	-0.139	-0.350
-281.501	8.003	0.203	-0.192
-280.486	-75.374	-0.422	0.189
-279.472	-193.847	0.426	0.004
-278.457	-65.017	-0.188	-0.095
-277.443	-200.000	0.032	-0.192
-276.428	109.153	0.071	0.108
-275.413	-84.574	-0.343	-0.136
-274.399	-200.000	-0.073	0.597
-273.384	-114.547	-0.308	0.074
-272.370	-98.599	-0.080	0.026
-271.355	-50.723	-0.198	-0.117
-270.340	89.459	0.322	-0.453
-269.326	35.186	-0.321	-0.355
-268.311	-200.000	-0.019	-0.466
-267.297	38.303	0.313	-0.351
-266.282	30.088	0.145	-0.155
-265.267	-29.576	-0.377	0.271
-264.253	-91.303	-0.263	-0.094
-263.238	-200.000	-0.011	-0.275
-262.224	48.258	0.104	0.123
-261.209	-119.135	0.311	0.068
-260.195	181.396	0.072	0.134
-259.180	-200.000	-0.016	-0.096
-258.165	154.970	-0.334	0.579
-257.151	181.085	0.152	0.282
-256.136	-166.944	-0.211	0.011
-255.122	124.840	0.118	-0.187
-254.107	800.000	-0.069	-0.250
-253.092	62.075	-0.146	0.184
-252.078	38.833	0.102	-0.115
-251.063	-23.316	-0.432	-0.326
-250.049	-200.000	-0.013	0.687
-249.034	-200.000	-0.047	0.322
-248.019	-200.000	0.002	-0.455
-247.005	127.327	-0.121	-0.194
-245.990	20.861	0.308	0.314
-244.976	-112.736	0.343	-0.085
-243.961	126.170	-0.150	0.240
-242.946	-149.201	0.213	0.021
-241.932	800.000	-0.022	0.098
-240.917	34.976	-0.177	0.195
-239.903	364.636	-0.130	0.331
-238.888	450.294	-0.045	0.126
-237.873	-102.504	-0.032	0.010
-236.859	-135.625	0.064	-0.009
-235.844	-57.938	0.324	-0.178
-234.830	-64.246	-0.433	-0.221
-233.815	-157.710	-0.114	0.008
-232.800	-67.323	-0.617	-0.304
-231.786	-200.000	0.011	0.290
-230.771	800.000	-0.107	-0.557
-229.757	18.388	-0.151	0.152
-228.742	-87.745	0.320	0.121
-227.727	-125.722	-0.320	0.060
-226.713	-45.607	-0.244	-0.151
-225.698	-43.867	-0.202	0.127
-224.684	-80.261	-0.593	0.248
-223.669	305.043	-0.178	0.416
-222.655	617.806	0.083	0.264
-221.640	-45.982	-0.265	0.164
-220.625	122.314	-0.123	-0.194
-219.611	-133.314	-0.066	-0.010
-218.596	93.976	0.339	0.485
-217.582	-100.874	0.068	0.021
-216.567	-11.728	-0.482	0.397
-215.552	15.972	0.228	0.226
-214.538	194.568	-0.092	0.175
-213.523	-161.839	0.414	0.026
-212.509	137.655	-0.071	0.118
-211.494	-200.000	0.003	-0.178
-210.479	114.916	0.078	-0.120
-209.465	94.158	-0.211	0.302
-208.450	-76.397	-0.199	-0.088
-207.436	800.000	-0.128	0.456
-206.421	-200.000	0.041	-0.326
-205.406	22.650	-0.074	-0.076
-204.392	-52.001	-0.173	0.101
-203.377	40.177	0.128	0.145
-202.363	715.233	-0.099	0.331
-201.348	-200.000	0.048	-0.533
-200.333	24.186	-0.281	0.292
-199.319	800.000	-0.119	0.559
-198.304	-133.847	0.485	-0.075
-197.290	109.834	0.109	0.164
-196.275	193.273	-0.099	0.188
-195.260	-126.126	-0.210	-0.039
-194.246	-79.891	-0.373	0.157
-193.231	-135.595	0.192	0.028
-192.217	-101.039	-0.189	0.058
-191.202	134.728	0.254	0.414
-190.187	-101.985	-0.079	-0.024
-189.173	247.523	0.249	0.530
-188.158	-138.323	0.217	0.030
-187.144	167.592	0.150	0.267
-186.129	-49.628	0.221	0.132
-185.114	-30.158	0.232	0.165
-184.100	491.224	0.078	-0.224
-183.085	129.947	-0.299	-0.481
-182.071	-102.532	-0.573	-0.171
-181.056	11.369	-0.502	-0.482
-180.042	647.471	0.054	0.174
-179.027	58.192	0.189	0.232
-178.012	-131.238	0.638	0.105
-176.998	312.980	0.065	0.153
-175.983	188.014	0.217	-0.408
-174.969	-140.898	0.614	0.078
-173.954	800.000	0.049	-0.204
-172.939	-200.000	0.090	-0.614
-171.925	283.735	-0.088	-0.199
-170.910	4.630	0.219	-0.202
-169.896	800.000	-0.083	-0.385
-168.881	-200.000	0.050	-0.295
-167.866	-46.032	0.480	-0.296
-166.852	-102.658	-0.252	0.075
-165.837	-116.112	-0.282	0.065
-164.823	-1.775	-0.577	-0.509
-163.808	-43.887	-0.246	0.155
-162.793	26.846	-0.406	-0.426
-161.779	3.661	0.146	0.134
-160.764	223.720	0.136	0.276
-159.750	800.000	0.050	0.268
-158.735	-20.031	0.105	0.081
-157.720	-38.549	0.199	-0.132
-156.706	-135.422	0.286	0.042
-155.691	-47.636	-0.128	0.078
-154.677	218.366	0.185	-0.372
-153.662	-67.681	0.419	0.205
-152.647	609.313	0.127	-0.401
-151.633	-200.000	0.033	-0.207
-150.618	54.446	-0.279	0.337
-149.604	499.971	0.107	0.311
-148.589	-22.061	0.066	0.050
-147.574	-63.790	0.462	-0.236
-146.560	184.635	0.161	-0.299
-145.545	-73.958	-0.106	0.048
-144.531	-77.197	-0.172	-0.075
-143.516	-2.198	0.077	0.068
-142.502	-166.620	0.382	0.020
-141.487	203.401	0.065	-0.126
-140.472	800.000	0.022	-0.114
-139.458	45.394	0.382	0.442
-138.443	-64.367	0.202	0.103
-137.429	-51.531	-0.274	0.160
-136.414	-105.600	-0.388	-0.110
-135.399	12.148	0.222	0.214
-134.385	9.833	0.032	-0.031
-133.370	-144.973	0.336	-0.038
-132.356	40.219	-0.264	0.298
-131.341	127.564	0.153	-0.243
-130.326	6.829	0.257	-0.239
-129.312	-33.330	0.118	-0.082
-128.297	-193.285	0.354	0.004
-127.283	-126.335	-0.327	0.061
-126.268	120.347	-0.040	-0.062
-125.253	-42.878	0.201	0.127
-124.239	-90.997	0.449	0.161
-123.224	-153.790	-0.533	-0.045
-122.210	491.092	-0.193	0.557
-121.195	-200.000	0.007	0.097
-120.180	-117.985	0.538	-0.120
