DTS Sentinel unit serial number:	SN409020Multiplexer serial number:	ORYXHardware model number:	OX4-SRSoftware version number:	ORYX F/W v3.00 Oryx Data Collector v3.7.2.0data status	okinstallation	HaddamTimeLapsedifferential loss correction	single-endedforward channel	channel 3reverse channel	N/Adate	2011/06/21time	18:31:16forward acquisition time	30.00reverse acquisition time	0.00gamma	498.7831k internal	0.1819k external	0.1819temperature offset calibration	1.0074default loss term (dB/km)	0.3790temperature slope calibration	1.3530multiplexer offset coefficient	1.0000multiplexer slope coefficient	1.0000fibre end	0.00T internal ref (°C)	36.12T ext. ref 1 (°C)	27.02T ext. ref 2 (°C)	0.25length (m)	temperature (°C)	Stokes	anti-Stokes-747.200	43.723	-0.404	-0.474
-746.185	282.310	0.158	0.363
-745.171	-164.221	0.418	0.024
-744.156	-48.213	0.372	-0.229
-743.142	11.727	0.231	0.226
-742.127	4.894	0.504	0.474
-741.112	141.228	0.259	0.439
-740.098	-44.566	0.218	0.139
-739.083	-115.537	0.011	-0.003
-738.069	-200.000	0.005	-0.071
-737.054	-130.109	-0.354	-0.061
-736.039	3.167	-0.454	0.422
-735.025	552.590	-0.111	-0.343
-734.010	-63.962	0.351	-0.183
-732.996	-157.674	-0.289	0.022
-731.981	-200.000	-0.035	-0.613
-730.966	101.930	-0.123	-0.184
-729.952	-87.694	-0.136	0.052
-728.937	-142.018	-0.223	0.028
-727.923	800.000	0.045	-0.171
-726.908	-30.047	0.323	0.234
-725.894	34.943	0.031	-0.034
-724.879	347.345	0.144	0.364
-723.864	-9.425	-0.092	-0.078
-722.850	57.142	-0.374	-0.466
-721.835	118.288	-0.316	-0.498
-720.821	-147.042	0.347	-0.038
-719.806	-91.496	0.543	-0.197
-718.791	161.869	0.227	-0.407
-717.777	800.000	-0.033	0.142
-716.762	-68.621	-0.083	-0.041
-715.748	-200.000	0.002	0.498
-714.733	-200.000	-0.005	0.057
-713.718	-87.677	-0.399	0.153
-712.704	80.817	0.140	-0.194
-711.689	-26.009	-0.233	0.175
-710.675	267.352	0.153	-0.343
-709.660	63.614	0.112	0.144
-708.645	-23.955	-0.300	-0.229
-707.631	108.286	0.270	0.412
-706.616	800.000	-0.047	0.172
-705.602	279.755	-0.252	0.577
-704.587	-138.046	-0.505	-0.071
-703.572	-144.454	-0.423	0.050
-702.558	113.434	0.185	-0.287
-701.543	25.284	-0.318	-0.337
-700.529	-190.744	-0.148	-0.002
-699.514	222.059	-0.145	-0.299
-698.499	800.000	-0.059	0.232
-697.485	-189.364	0.588	-0.009
-696.470	354.800	-0.238	-0.605
-695.456	-136.960	-0.694	-0.101
-694.441	271.834	0.045	0.102
-693.426	800.000	0.025	0.115
-692.412	483.711	-0.106	-0.308
-691.397	800.000	0.075	0.344
-690.383	30.496	-0.260	-0.284
-689.368	297.733	-0.189	0.446
-688.354	342.598	-0.150	0.377
-687.339	-200.000	0.088	0.600
-686.324	43.624	-0.263	-0.307
-685.310	121.134	0.083	0.131
-684.295	-94.062	0.222	-0.077
-683.281	5.429	0.128	-0.120
-682.266	449.128	0.052	0.147
-681.251	0.618	0.346	-0.316
-680.237	800.000	0.030	-0.130
-679.222	-43.116	0.238	-0.154
-678.208	800.000	-0.062	0.253
-677.193	172.790	-0.116	0.214
-676.178	-169.316	0.200	0.009
-675.164	-200.000	-0.007	0.256
-674.149	404.326	-0.109	-0.293
-673.135	-102.928	0.465	-0.140
-672.120	-62.667	0.160	-0.084
-671.105	-125.523	0.271	0.052
-670.091	-70.518	-0.476	0.229
-669.076	-88.942	-0.306	-0.115
-668.062	-116.110	-0.495	0.116
-667.047	-67.995	0.370	0.183
-666.032	33.464	0.235	-0.260
-665.018	-200.000	0.023	-0.474
-664.003	-110.977	-0.409	-0.106
-662.989	364.072	-0.162	0.416
-661.974	228.453	-0.103	0.215
-660.959	-67.047	0.210	0.105
-659.945	104.305	-0.153	0.230
-658.930	-24.494	-0.373	-0.282
-657.916	5.322	0.391	0.368
-656.901	431.604	-0.082	0.228
-655.886	-127.026	-0.359	0.067
-654.872	16.877	0.581	-0.586
-653.857	83.362	0.194	-0.270
-652.843	-82.857	-0.405	0.166
-651.828	-139.976	-0.636	-0.085
-650.814	89.223	-0.197	0.279
-649.799	-24.533	-0.434	0.329
-648.784	-109.047	-0.220	0.059
-647.770	-200.000	-0.014	0.247
-646.755	-200.000	0.047	0.643
-645.741	-148.892	-0.175	0.018
-644.726	-137.496	-0.210	0.030
-643.711	-136.175	0.300	0.044
-642.697	-120.459	0.597	0.128
-641.682	124.218	0.213	-0.341
-640.668	119.777	0.316	-0.500
-639.653	278.129	-0.142	-0.323
-638.638	136.259	-0.223	0.371
-637.624	800.000	0.161	0.597
-636.609	-48.685	-0.510	0.311
-635.595	109.196	0.164	-0.250
-634.580	-59.849	0.250	0.136
-633.565	183.793	-0.050	-0.094
-632.551	-88.346	-0.032	0.012
-631.536	-70.410	0.410	-0.197
-630.522	230.624	-0.154	0.322
-629.507	-25.332	-0.453	0.341
-628.492	-124.376	0.413	-0.081
-627.478	125.680	-0.122	0.197
-626.463	125.826	-0.107	-0.173
-625.449	800.000	0.075	-0.269
-624.434	65.314	-0.418	-0.539
-623.419	-97.284	-0.182	-0.060
-622.405	31.392	-0.150	0.164
-621.390	-133.652	0.343	0.054
-620.376	139.095	0.188	-0.316
-619.361	-56.772	0.617	-0.346
-618.346	-88.656	0.194	-0.073
-617.332	-110.054	-0.305	-0.081
-616.317	-83.808	0.150	-0.061
-615.303	-1.286	0.178	0.160
-614.288	-200.000	-0.001	0.284
-613.273	443.609	0.050	-0.139
-612.259	103.819	0.335	-0.501
-611.244	726.023	-0.067	-0.228
-610.230	-77.466	0.264	-0.116
-609.215	-88.821	0.212	-0.080
-608.201	37.518	-0.333	-0.376
-607.186	-106.929	-0.204	0.057
-606.171	-182.717	-0.369	0.008
-605.157	-135.786	0.329	-0.049
-604.142	-111.544	-0.471	-0.121
-603.128	4.782	0.176	-0.165
-602.113	19.347	0.127	0.130
-601.098	265.992	-0.086	0.191
-600.084	47.005	-0.171	0.202
-599.069	-75.702	-0.212	-0.095
-598.055	279.774	0.120	0.273
-597.040	772.084	-0.041	0.142
-596.025	-200.000	0.004	0.445
-595.011	-121.249	-0.425	0.090
-593.996	-114.684	-0.298	0.072
-592.982	275.556	-0.095	0.216
-591.967	800.000	0.048	0.255
-590.952	-166.122	0.260	-0.014
-589.938	53.920	0.134	0.163
-588.923	14.914	-0.180	-0.179
-587.909	-157.848	0.492	0.037
-586.894	478.529	0.126	-0.363
-585.879	-200.000	0.051	-0.312
-584.865	-47.778	-0.463	0.284
-583.850	42.364	-0.266	-0.308
-582.836	-102.079	0.403	0.123
-581.821	-84.689	0.218	-0.087
-580.806	-108.135	0.304	-0.083
-579.792	715.332	0.089	-0.303
-578.777	-58.744	0.725	0.397
-577.763	800.000	-0.107	-0.494
-576.748	-8.994	0.176	0.149
-575.733	-108.840	-0.248	-0.067
-574.719	284.936	0.186	-0.428
-573.704	-47.859	0.355	0.218
-572.690	-160.266	0.394	-0.027
-571.675	248.287	0.260	0.561
-570.661	800.000	0.107	0.493
-569.646	511.203	-0.048	0.141
-568.631	-200.000	0.012	-0.089
-567.617	297.417	0.271	-0.635
-566.602	33.613	-0.318	-0.351
-565.588	-143.929	-0.508	-0.060
-564.573	17.806	0.333	-0.337
-563.558	-139.591	0.529	-0.071
-562.544	-95.755	0.249	0.084
-561.529	36.044	0.180	-0.201
-560.515	34.821	0.417	-0.463
-559.500	40.894	0.030	0.034
-558.485	-97.354	-0.164	0.054
-557.471	-200.000	-0.037	-0.379
-556.456	-99.174	0.333	-0.106
-555.442	-158.127	0.120	0.009
-554.427	-200.000	-0.015	0.168
-553.412	-104.391	0.014	-0.004
-552.398	77.261	-0.215	0.291
-551.383	-200.000	-0.080	0.460
-550.369	-61.287	0.196	0.104
-549.354	-85.896	-0.189	-0.074
-548.339	-200.000	0.038	-0.522
-547.325	-170.629	-0.444	0.019
-546.310	64.146	-0.127	0.162
-545.296	30.521	-0.176	-0.191
-544.281	-143.316	-0.336	0.040
-543.266	-81.936	0.299	0.123
-542.252	-32.257	0.252	0.178
-541.237	-8.926	0.402	0.341
-540.223	-89.525	-0.728	-0.270
-539.208	-59.401	-0.379	-0.206
-538.193	315.130	0.124	-0.298
-537.179	-200.000	0.025	-0.180
-536.164	-200.000	-0.010	0.243
-535.150	800.000	0.198	0.763
-534.135	-200.000	0.012	0.211
-533.121	196.351	0.110	0.213
-532.106	306.764	0.074	-0.175
-531.091	-36.339	-0.341	-0.232
-530.077	-33.159	-0.307	-0.215
-529.062	-200.000	0.093	0.639
-528.048	-91.289	0.270	-0.097
-527.033	-150.754	-0.059	-0.006
-526.018	59.857	0.203	0.254
-525.004	-82.102	0.368	-0.151
-523.989	-131.974	-0.611	-0.100
-522.975	-72.410	0.316	0.148
-521.960	63.134	0.456	0.580
-520.945	61.407	-0.078	0.099
-519.931	-72.731	0.253	0.118
-518.916	18.513	0.183	0.186
-517.902	-187.015	-0.452	-0.008
-516.887	20.886	-0.055	0.057
-515.872	143.524	-0.183	-0.309
-514.858	-76.254	-0.127	0.056
-513.843	11.248	0.101	-0.098
-512.829	-200.000	0.014	-0.229
-511.814	-121.946	-0.550	-0.114
-510.799	183.528	-0.077	0.144
-509.785	-69.839	-0.206	0.099
-508.770	395.284	0.118	-0.314
-507.756	-77.954	0.472	0.205
-506.741	-90.100	0.469	-0.172
-505.726	-27.774	-0.045	-0.033
-504.712	800.000	0.047	-0.202
-503.697	665.646	0.050	-0.166
-502.683	-200.000	0.005	0.449
-501.668	-148.573	-0.563	0.057
-500.653	156.469	-0.217	-0.380
-499.639	-61.336	-0.273	-0.145
-498.624	-107.981	0.578	-0.158
-497.610	-144.258	0.346	-0.040
-496.595	-131.659	-0.446	-0.074
-495.581	-47.023	0.097	-0.060
-494.566	-21.966	-0.169	-0.130
-493.551	525.567	-0.187	-0.560
-492.537	150.029	0.246	-0.424
-491.522	-44.394	-0.154	-0.097
-490.508	-72.351	-0.262	0.122
-489.493	116.475	-0.173	0.270
-488.478	-117.488	-0.566	-0.129
-487.464	-58.423	-0.322	-0.177
-486.449	222.549	-0.071	0.145
-485.435	-146.897	0.102	-0.011
-484.420	124.715	-0.115	-0.183
-483.405	-200.000	0.040	-0.318
-482.391	-70.980	-0.255	0.121
-481.376	95.725	-0.175	-0.253
-480.362	-127.233	-0.365	0.067
-479.347	56.927	-0.169	-0.209
-478.332	-22.059	-0.250	0.192
-477.318	124.066	-0.135	-0.214
-476.303	-142.898	-0.280	-0.034
-475.289	-151.687	-0.190	0.017
-474.274	-200.000	0.021	0.180
-473.259	800.000	-0.122	-0.587
-472.245	800.000	0.080	-0.334
-471.230	28.891	-0.173	0.185
-470.216	-68.760	-0.263	0.128
-469.201	-72.101	-0.113	-0.053
-468.186	-200.000	-0.024	0.150
-467.172	-177.626	0.655	-0.020
-466.157	-110.916	-0.278	0.072
-465.143	292.429	-0.208	0.481
-464.128	-1.502	0.130	0.115
-463.113	-156.047	-0.300	-0.024
-462.099	-125.231	-0.447	0.086
-461.084	-159.656	0.280	0.019
-460.070	-14.528	0.270	0.219
-459.055	-200.000	-0.008	0.512
-458.040	-200.000	0.019	0.170
-457.026	6.857	0.452	-0.425
-456.011	-200.000	-0.055	-0.382
-454.997	101.164	0.304	-0.447
-453.982	800.000	-0.061	-0.265
-452.968	47.303	-0.308	-0.363
-451.953	587.868	-0.131	-0.410
-450.938	-200.000	-0.044	-0.287
-449.924	-200.000	0.034	-0.383
-448.909	79.263	-0.125	-0.170
-447.895	-137.124	-0.288	-0.041
-446.880	20.319	0.353	0.360
-445.865	0.104	0.277	-0.249
-444.851	-58.474	-0.293	0.160
-443.836	-200.000	-0.047	0.353
-442.822	-200.000	-0.005	-0.168
-441.807	10.919	-0.272	-0.262
-440.792	-114.931	0.271	0.065
-439.778	-83.294	0.229	-0.092
-438.763	-105.590	-0.141	-0.040
-437.749	421.092	-0.145	0.395
-436.734	-200.000	-0.002	0.147
-435.719	-112.087	-0.281	-0.071
-434.705	225.853	-0.086	0.177
-433.690	-44.152	-0.278	-0.176
-432.676	-200.000	-0.033	0.336
-431.661	217.906	-0.057	0.115
-430.646	-91.484	-0.126	-0.045
-429.632	-113.865	0.368	0.090
-428.617	28.174	-0.203	-0.217
-427.603	276.496	-0.142	-0.321
-426.588	-200.000	0.081	-0.482
-425.573	-200.000	0.017	0.404
-424.559	200.760	-0.283	0.551
-423.544	-9.781	0.211	0.178
-422.530	800.000	0.055	-0.287
-421.515	-116.251	-0.147	-0.034
-420.500	44.096	-0.125	-0.144
-419.486	236.635	0.130	-0.272
-418.471	-69.314	0.471	-0.227
-417.457	-46.483	0.187	0.116
-416.442	367.863	0.113	-0.290
-415.428	-46.630	0.518	-0.320
-414.413	-200.000	0.048	-0.528
-413.398	-200.000	-0.048	-0.681
-412.384	-200.000	0.033	0.330
-411.369	6.315	0.306	0.286
-410.355	-99.098	0.355	-0.113
-409.340	-90.536	-0.440	-0.160
-408.325	-73.430	-0.097	-0.045
-407.311	800.000	0.027	-0.110
-406.296	190.817	0.196	-0.374
-405.282	89.544	-0.394	-0.556
-404.267	-200.000	0.089	-0.892
-403.252	-116.921	-0.312	-0.071
-402.238	-200.000	0.022	0.148
-401.223	34.227	0.126	-0.139
-400.209	-200.000	0.039	0.427
-399.194	49.332	0.308	-0.366
-398.179	164.385	0.122	-0.218
-397.165	-1.659	0.226	-0.201
-396.150	-127.119	-0.525	-0.096
-395.136	183.576	-0.044	0.082
-394.121	-23.052	-0.122	0.093
-393.106	141.343	0.235	0.394
-392.092	313.211	0.117	0.278
-391.077	-51.023	-0.161	0.095
-390.063	-78.083	-0.290	-0.125
-389.048	264.049	-0.036	0.080
-388.033	-200.000	0.018	0.398
-387.019	10.719	0.372	-0.357
-386.004	-167.065	-0.397	0.020
-384.990	70.851	-0.189	0.247
-383.975	544.891	0.111	0.338
-382.960	-66.291	0.346	0.173
-381.946	800.000	-0.169	0.758
-380.931	188.374	-0.083	-0.156
-379.917	-200.000	-0.017	0.236
-378.902	800.000	-0.060	0.334
-377.888	-106.336	-0.210	-0.059
-376.873	-57.247	-0.067	0.037
-375.858	-90.037	0.312	0.114
-374.844	142.703	0.104	0.175
-373.829	-99.413	-0.563	0.178
-372.815	-200.000	-0.003	-0.108
-371.800	507.535	0.131	0.385
-370.785	179.968	0.034	-0.063
-369.771	-62.601	-0.144	0.075
-368.756	-82.938	0.310	-0.125
-367.742	89.990	-0.028	0.040
-366.727	6.066	0.253	-0.236
-365.712	-83.942	0.303	-0.121
-364.698	-10.557	-0.433	0.361
-363.683	800.000	0.041	-0.189
-362.669	743.405	0.019	-0.066
-361.654	25.344	-0.175	0.183
-360.639	254.281	0.180	0.389
-359.625	489.164	0.150	-0.434
-358.610	175.325	-0.136	0.250
-357.596	-200.000	-0.034	-0.644
-356.581	-128.892	-0.504	0.088
-355.566	-68.900	0.217	-0.105
-354.552	-115.944	-0.331	0.077
-353.537	-135.726	-0.297	-0.044
-352.523	345.034	-0.127	0.316
-351.508	-72.128	-0.093	0.043
-350.493	46.472	-0.336	-0.392
-349.479	-14.810	-0.303	-0.245
-348.464	-200.000	0.050	-0.468
-347.450	-44.318	0.286	-0.180
-346.435	-139.568	0.485	-0.064
-345.420	-127.748	-0.538	0.097
-344.406	800.000	-0.053	-0.202
-343.391	159.959	-0.070	0.123
-342.377	-109.304	0.509	-0.135
-341.362	-55.600	0.088	-0.050
-340.348	-31.947	-0.313	-0.220
-339.333	-123.398	0.372	-0.074
-338.318	5.129	-0.146	-0.135
-337.304	101.396	-0.233	0.342
-336.289	62.692	-0.300	-0.377
-335.275	-139.083	-0.302	0.041
-334.260	134.366	0.106	-0.173
-333.245	-200.000	0.091	0.605
-332.231	-94.880	-0.264	0.089
-331.216	151.627	0.280	0.482
-330.202	208.040	0.029	0.058
-329.187	-153.859	-0.244	-0.021
-328.172	456.026	0.069	0.193
-327.158	93.580	-0.139	0.198
-326.143	279.238	-0.096	0.216
-325.129	497.601	0.178	0.518
-324.114	78.246	0.189	0.254
-323.099	33.336	0.159	0.173
-322.085	643.188	0.124	0.401
-321.070	-125.015	-0.297	0.057
-320.056	204.473	0.110	-0.214
-319.041	-200.000	0.030	0.223
-318.026	-0.879	-0.269	0.239
-317.012	63.941	-0.319	0.404
-315.997	800.000	-0.045	0.199
-314.983	-200.000	-0.000	-0.201
-313.968	-69.816	-0.131	-0.063
-312.953	-109.992	-0.559	0.146
-311.939	-148.190	-0.189	0.019
-310.924	-67.981	0.136	-0.066
-309.910	31.541	-0.271	0.293
-308.895	321.526	-0.083	0.199
-307.880	-79.485	0.076	-0.032
-306.866	-63.807	0.234	-0.120
-305.851	88.307	-0.194	-0.271
-304.837	-200.000	-0.009	0.068
-303.822	39.103	0.268	-0.301
-302.807	-200.000	0.017	0.216
-301.793	-200.000	-0.017	0.189
-300.778	-200.000	-0.262	0.001
-299.764	-200.000	-0.011	0.314
-298.749	-70.191	0.350	-0.167
-297.735	-88.486	-0.300	-0.112
-296.720	-96.424	-0.305	-0.101
-295.705	759.705	0.086	-0.295
-294.691	415.490	0.302	0.811
-293.676	800.000	0.212	0.782
-292.662	-118.359	-0.155	0.034
-291.647	-138.300	0.272	-0.037
-290.632	-21.619	-0.281	0.215
-289.618	-92.465	0.175	-0.061
-288.603	-129.843	0.419	0.072
-287.589	2.402	-0.038	0.034
-286.574	394.131	-0.196	0.516
-285.559	308.898	-0.092	0.216
-284.545	-55.152	-0.333	-0.188
-283.530	800.000	-0.055	-0.255
-282.516	98.957	-0.125	-0.181
-281.501	-200.000	-0.010	0.422
-280.486	20.207	0.434	0.440
-279.472	-143.910	0.592	-0.069
-278.457	35.022	-0.157	0.172
-277.443	763.860	0.108	0.370
-276.428	402.337	-0.075	0.199
-275.413	79.090	-0.112	0.150
-274.399	-6.690	0.200	-0.170
-273.384	-110.007	0.242	0.063
-272.370	-116.717	-0.197	0.045
-271.355	-142.862	0.182	-0.022
-270.340	-170.647	0.582	0.025
-269.326	-200.000	-0.004	-0.265
-268.311	0.651	-0.340	0.305
-267.297	177.784	-0.087	-0.159
-266.282	-136.888	0.141	-0.020
-265.267	-29.919	0.288	-0.205
-264.253	174.390	-0.203	-0.369
-263.238	1.584	-0.198	0.178
-262.224	800.000	0.095	-0.340
-261.209	40.752	-0.402	-0.455
-260.195	94.803	0.158	-0.225
-259.180	140.819	-0.260	0.432
-258.165	-200.000	0.014	-0.287
-257.151	681.975	-0.109	-0.357
-256.136	-72.560	0.222	0.102
-255.122	54.958	0.298	0.362
-254.107	-200.000	-0.047	0.461
-253.092	-119.507	0.078	0.017
-252.078	-114.148	0.415	0.100
-251.063	-66.517	0.214	-0.106
-250.049	-67.522	-0.084	0.041
-249.034	-121.398	0.653	0.135
-248.019	66.802	0.281	-0.359
-247.005	-49.114	0.345	-0.207
-245.990	-181.910	-0.295	-0.007
-244.976	268.608	-0.098	0.217
-243.961	-200.000	-0.020	0.397
-242.946	64.892	0.058	0.074
-241.932	-200.000	-0.014	0.284
-240.917	190.529	0.172	-0.325
-239.903	-57.564	0.222	0.122
-238.888	-79.681	-0.368	0.155
-237.873	198.444	0.182	0.350
-236.859	-58.847	-0.161	-0.087
-235.844	-6.364	-0.359	0.307
-234.830	492.353	0.009	0.027
-233.815	181.737	-0.108	0.200
-232.800	0.640	-0.264	-0.237
-231.786	1.295	0.392	-0.353
-230.771	-200.000	-0.005	0.216
-229.757	7.982	-0.289	-0.271
-228.742	-144.419	0.548	0.063
-227.727	-131.547	0.306	-0.050
-226.713	125.728	0.026	-0.041
-225.698	-200.000	-0.034	0.493
-224.684	101.259	-0.100	-0.146
-223.669	342.637	0.064	-0.157
-222.655	800.000	0.067	-0.257
-221.640	800.000	-0.056	-0.267
-220.625	-200.000	0.015	-0.213
-219.611	-200.000	0.019	-0.292
-218.596	-200.000	0.012	-0.400
-217.582	-16.850	-0.062	-0.049
-216.567	-111.652	0.117	0.029
-215.552	472.034	-0.175	-0.495
-214.538	2.301	-0.163	0.148
-213.523	-128.906	0.150	-0.026
-212.509	-137.976	0.271	0.037
-211.494	-108.901	-0.075	-0.020
-210.479	-55.424	-0.308	0.172
-209.465	-55.331	-0.871	-0.488
-208.450	93.969	-0.101	0.144
-207.436	-81.194	-0.503	-0.207
-206.421	112.226	-0.166	0.252
-205.406	67.582	0.057	-0.072
-204.392	-27.584	0.286	-0.208
-203.377	-200.000	-0.010	-0.363
-202.363	484.771	-0.167	-0.480
-201.348	-96.201	-0.274	0.090
-200.333	-99.259	-0.311	0.098
-199.319	7.857	-0.220	-0.206
-198.304	-200.000	0.022	0.277
-197.290	-200.000	-0.019	-0.250
-196.275	-23.702	-0.232	-0.174
-195.260	87.707	0.197	0.274
-194.246	88.164	-0.210	-0.292
-193.231	20.106	0.270	0.273
-192.217	-39.078	0.231	0.152
-191.202	134.683	-0.181	-0.294
-190.187	-200.000	-0.000	0.133
-189.173	-200.000	0.001	0.187
-188.158	53.654	0.381	-0.458
-187.144	-45.894	0.372	0.229
-186.129	193.134	0.046	0.088
-185.114	-200.000	-0.006	0.332
-184.100	800.000	-0.054	0.191
-183.085	17.038	0.453	-0.449
-182.071	-200.000	0.009	-0.512
-181.056	-200.000	0.028	0.309
-180.042	-200.000	0.039	0.629
-179.027	-107.533	0.460	0.125
-178.012	24.479	0.424	0.439
-176.998	-74.790	0.262	0.117
-175.983	-115.608	-0.311	0.072
-174.969	-36.642	0.286	0.192
-173.954	9.478	-0.049	0.046
-172.939	-200.000	-0.003	0.081
-171.925	-33.638	0.322	0.222
-170.910	30.238	-0.180	0.192
-169.896	800.000	-0.042	0.204
-168.881	-138.799	-0.203	0.027
-167.866	137.777	-0.099	0.163
-166.852	-116.411	0.024	0.006
-165.837	296.694	0.115	-0.264
-164.823	126.853	-0.089	0.141
-163.808	800.000	0.147	0.578
-162.793	-158.435	0.452	-0.032
-161.779	657.394	-0.034	-0.109
-160.764	-1.151	0.105	0.092
-159.750	-51.268	-0.113	0.066
-158.735	544.987	0.178	-0.534
-157.720	-200.000	0.034	0.280
-156.706	-104.525	0.120	0.034
-155.691	-42.044	0.194	-0.124
-154.677	167.233	0.149	-0.265
-153.662	-112.886	-0.364	0.089
-152.647	113.268	0.109	-0.166
-151.633	-52.925	0.274	-0.157
-150.618	800.000	0.132	-0.488
-149.604	1.435	0.122	-0.110
-148.589	116.168	-0.299	-0.458
-147.574	-200.000	-0.007	0.393
-146.560	-200.000	-0.038	-0.233
-145.545	-200.000	0.023	-0.265
-144.531	-88.974	-0.143	0.053
-143.516	-139.108	-0.600	0.080
-142.502	475.281	-0.017	-0.048
-141.487	-17.502	-0.177	-0.139
-140.472	-53.337	-0.252	0.144
-139.458	625.870	-0.068	-0.215
-138.443	-83.496	0.161	0.064
-137.429	-87.856	-0.319	0.119
-136.414	0.788	-0.207	-0.185
-135.399	154.227	0.049	0.084
-134.385	83.826	0.128	-0.174
-133.370	-123.876	0.677	0.132
-132.356	719.924	-0.040	-0.135
-131.341	-79.163	0.268	0.113
-130.326	343.366	0.082	0.201
-129.312	-140.506	0.202	-0.026
-128.297	-99.879	-0.459	-0.142
-127.283	311.942	-0.130	0.307
-126.268	-81.583	-0.210	0.086
-125.253	-200.000	0.002	-0.316
-124.239	800.000	0.119	-0.443
-123.224	476.851	0.095	0.269
-122.210	-200.000	-0.033	0.342
-121.195	383.118	0.126	0.325
