DTS Sentinel unit serial number:	SN409020Multiplexer serial number:	ORYXHardware model number:	OX4-SRSoftware version number:	ORYX F/W v3.00 Oryx Data Collector v3.7.2.0data status	okinstallation	HaddamTimeLapsedifferential loss correction	single-endedforward channel	channel 3reverse channel	N/Adate	2011/06/22time	07:56:17forward acquisition time	30.00reverse acquisition time	0.00gamma	498.7831k internal	0.1766k external	0.1766temperature offset calibration	1.0074default loss term (dB/km)	0.3790temperature slope calibration	1.3530multiplexer offset coefficient	1.0000multiplexer slope coefficient	1.0000fibre end	0.00T internal ref (°C)	24.44T ext. ref 1 (°C)	21.84T ext. ref 2 (°C)	0.14length (m)	temperature (°C)	Stokes	anti-Stokes-747.200	-111.390	-0.529	0.141
-746.185	7.383	0.093	-0.091
-745.171	-57.312	0.363	-0.209
-744.156	9.689	0.208	0.208
-743.142	-72.109	-0.270	0.132
-742.127	-64.650	-0.394	0.210
-741.112	-122.238	0.700	-0.150
-740.098	112.356	0.229	0.365
-739.083	-63.871	0.161	0.086
-738.069	-61.997	0.646	0.354
-737.054	343.827	0.224	0.582
-736.039	-124.789	0.282	0.057
-735.025	382.113	-0.033	-0.091
-734.010	86.932	0.216	0.314
-732.996	416.000	-0.094	-0.266
-731.981	-24.844	-0.357	0.278
-730.966	17.746	-0.352	0.369
-729.952	103.544	-0.268	-0.415
-728.937	-74.968	-0.476	0.224
-727.923	16.599	0.159	-0.165
-726.908	179.407	-0.070	-0.135
-725.894	-93.407	0.223	0.081
-724.879	39.729	-0.224	0.264
-723.864	223.260	-0.220	-0.470
-722.850	-32.632	0.415	-0.304
-721.835	-68.072	-0.357	-0.183
-720.821	-114.649	-0.250	-0.062
-719.806	-81.857	0.128	-0.055
-718.791	-112.991	0.069	-0.018
-717.777	800.000	-0.024	-0.132
-716.762	-77.827	-0.249	0.112
-715.748	16.902	-0.152	-0.158
-714.733	-200.000	0.030	0.273
-713.718	7.914	-0.380	-0.374
-712.704	-63.057	-0.173	-0.094
-711.689	-141.814	-0.227	0.030
-710.675	47.122	0.183	-0.225
-709.660	124.215	0.181	-0.300
-708.645	249.357	-0.099	-0.222
-707.631	-122.238	-0.027	-0.006
-706.616	-74.245	-0.228	-0.108
-705.602	-52.412	0.254	0.154
-704.587	499.059	-0.014	-0.043
-703.572	243.502	-0.155	0.342
-702.558	-69.750	-0.357	-0.179
-701.543	-45.876	0.414	-0.268
-700.529	-121.895	0.527	-0.113
-699.514	745.306	0.068	0.244
-698.499	10.372	-0.225	-0.225
-697.485	-86.266	-0.778	-0.313
-696.470	298.042	-0.065	-0.157
-695.456	-136.698	-0.119	0.018
-694.441	230.091	-0.144	-0.309
-693.426	-90.602	-0.318	-0.120
-692.412	-118.142	0.389	-0.091
-691.397	-200.000	-0.072	-0.427
-690.383	516.857	-0.014	0.044
-689.368	-97.334	-0.339	0.115
-688.354	-70.890	0.201	-0.099
-687.339	-69.917	-0.378	0.189
-686.324	-200.000	0.027	0.285
-685.310	-86.431	0.169	0.068
-684.295	405.806	-0.119	0.333
-683.281	380.595	0.065	-0.177
-682.266	-200.000	0.011	-0.094
-681.251	-82.967	-0.232	0.098
-680.237	-21.326	-0.426	0.342
-679.222	-200.000	-0.003	-0.330
-678.208	139.710	-0.092	-0.160
-677.193	800.000	0.038	0.214
-676.178	-200.000	0.017	-0.254
-675.164	-112.719	-0.603	0.156
-674.149	-200.000	-0.285	-0.002
-673.135	800.000	0.043	0.156
-672.120	800.000	0.040	0.195
-671.105	-100.940	0.451	-0.145
-670.091	-66.079	0.259	0.135
-669.076	118.040	-0.207	-0.337
-668.062	-126.715	-0.162	-0.031
-667.047	-76.297	-0.190	0.088
-666.032	-157.941	-0.502	0.038
-665.018	800.000	0.075	-0.292
-664.003	-82.411	-0.287	-0.122
-662.989	66.745	-0.236	0.316
-661.974	-200.000	0.071	0.505
-660.959	91.541	-0.111	-0.165
-659.945	-148.931	-0.444	0.046
-658.930	-34.502	0.427	0.306
-657.916	-115.445	0.520	0.128
-656.901	31.078	0.138	-0.156
-655.886	-200.000	0.009	-0.427
-654.872	-48.026	0.104	-0.066
-653.857	35.889	0.231	-0.267
-652.843	81.034	-0.196	0.278
-651.828	-200.000	-0.008	-0.405
-650.814	73.019	0.235	-0.323
-649.799	-117.556	0.219	0.051
-648.784	94.371	0.225	-0.336
-647.770	-13.242	-0.344	0.293
-646.755	-52.566	-0.292	-0.177
-645.741	-68.226	0.233	0.119
-644.726	11.520	-0.182	0.183
-643.711	-57.164	0.138	0.079
-642.697	95.831	0.070	-0.105
-641.682	22.599	-0.234	-0.252
-640.668	135.897	0.214	0.367
-639.653	800.000	-0.040	0.215
-638.638	-90.903	-0.657	-0.247
-637.624	70.027	-0.153	0.208
-636.609	185.852	-0.325	0.635
-635.595	800.000	0.021	-0.081
-634.580	-47.469	-0.345	-0.220
-633.565	231.714	-0.075	-0.163
-632.551	-99.091	-0.412	-0.136
-631.536	-93.968	-0.089	0.032
-630.522	201.936	0.153	0.309
-629.507	309.990	-0.223	-0.549
-628.492	800.000	-0.066	-0.246
-627.478	124.085	0.166	0.275
-626.463	85.098	0.175	0.251
-625.449	355.152	-0.206	0.540
-624.434	-68.309	-0.169	-0.086
-623.419	-54.916	0.407	-0.240
-622.405	76.423	0.173	0.241
-621.390	800.000	-0.077	-0.320
-620.376	148.307	0.339	-0.601
-619.361	224.935	-0.036	0.077
-618.346	-131.410	0.275	0.047
-617.332	-200.000	0.014	0.346
-616.317	-200.000	-0.030	-0.245
-615.303	-109.869	0.334	-0.091
-614.288	-200.000	-0.037	-0.254
-613.273	-26.378	0.141	-0.108
-612.259	539.017	-0.157	0.492
-611.244	368.671	-0.202	-0.538
-610.230	506.599	-0.033	-0.101
-609.215	32.240	-0.284	-0.321
-608.201	-74.529	0.475	-0.223
-607.186	-200.000	0.035	-0.416
-606.171	-200.000	-0.027	-0.345
-605.157	20.051	0.307	0.324
-604.142	-134.168	0.140	0.022
-603.128	594.263	-0.137	0.445
-602.113	-53.560	0.206	-0.123
-601.098	350.658	0.161	0.418
-600.084	207.109	0.035	0.071
-599.069	-39.280	-0.238	0.163
-598.055	-200.000	0.014	-0.355
-597.040	-45.174	-0.311	0.202
-596.025	-9.797	-0.298	-0.260
-595.011	26.276	-0.285	-0.312
-593.996	-48.991	0.386	-0.241
-592.982	-79.754	0.264	0.116
-591.967	-28.903	-0.346	-0.259
-590.952	299.256	0.136	0.329
-589.938	-86.654	0.150	-0.060
-588.923	-49.630	0.276	0.172
-587.909	18.416	-0.383	-0.400
-586.894	-200.000	-0.088	-0.608
-585.879	129.752	0.105	-0.176
-584.865	14.952	0.335	-0.343
-583.850	-200.000	0.010	0.074
-582.836	-4.172	0.156	-0.142
-581.821	-57.086	0.349	0.201
-580.806	115.520	-0.282	-0.451
-579.792	-200.000	-0.049	-0.296
-578.777	-110.049	-0.070	-0.019
-577.763	59.595	-0.129	0.166
-576.748	791.894	-0.137	0.496
-575.733	-200.000	0.009	0.544
-574.719	-54.646	0.286	0.169
-573.704	87.826	-0.173	0.252
-572.690	-200.000	0.037	-0.275
-571.675	27.850	-0.354	-0.390
-570.661	-52.189	0.063	0.038
-569.646	618.921	0.139	-0.460
-568.631	-165.327	0.312	-0.018
-567.617	-35.210	0.332	-0.236
-566.602	-124.351	-0.587	0.119
-565.588	47.431	-0.040	0.049
-564.573	-159.672	0.174	-0.012
-563.558	116.241	0.121	0.195
-562.544	-174.412	0.623	0.023
-561.529	-200.000	-0.016	0.347
-560.515	32.232	0.218	-0.246
-559.500	27.176	-0.402	0.441
-558.485	800.000	-0.075	-0.287
-557.471	228.534	0.111	-0.238
-556.456	510.467	-0.074	-0.226
-555.442	-167.642	0.352	-0.018
-554.427	-117.012	0.279	-0.066
-553.412	-200.000	0.004	0.243
-552.398	54.671	-0.190	0.240
-551.383	-82.120	-0.314	-0.133
-550.369	96.728	-0.410	-0.615
-549.354	-101.300	0.294	-0.093
-548.339	718.856	0.137	0.479
-547.325	-200.000	0.054	0.571
-546.310	-138.225	-0.522	-0.075
-545.296	-200.000	0.008	-0.207
-544.281	-150.119	-0.286	-0.029
-543.266	-41.540	-0.381	0.256
-542.252	-124.694	0.149	-0.030
-541.237	800.000	0.057	-0.316
-540.223	-84.361	0.260	-0.107
-539.208	293.139	-0.078	0.187
-538.193	-200.000	-0.390	-0.002
-537.179	-112.639	0.663	0.171
-536.164	107.757	0.281	0.438
-535.150	-94.085	-0.433	0.154
-534.135	800.000	-0.064	0.275
-533.121	339.592	-0.123	-0.314
-532.106	-118.820	-0.340	0.077
-531.091	-83.316	-0.242	-0.101
-530.077	-152.785	-0.732	-0.067
-529.062	-39.789	-0.353	-0.240
-528.048	118.082	0.258	0.417
-527.033	-14.182	-0.414	-0.349
-526.018	800.000	0.070	-0.345
-525.004	-94.244	0.243	-0.086
-523.989	-171.923	0.200	0.008
-522.975	6.121	0.204	0.198
-521.960	-131.869	0.168	0.028
-520.945	69.863	-0.129	0.174
-519.931	259.733	0.236	0.535
-518.916	-108.905	-0.159	0.044
-517.902	-142.226	-0.339	0.043
-516.887	-109.938	0.220	-0.060
-515.872	205.178	0.209	-0.426
-514.858	-76.319	-0.385	-0.176
-513.843	-23.167	0.263	-0.207
-512.829	-128.254	0.592	-0.109
-511.814	35.072	-0.272	0.311
-510.799	-22.221	-0.038	-0.030
-509.785	-103.339	-0.265	-0.081
-508.770	56.133	0.034	-0.044
-507.756	-52.078	-0.057	0.035
-506.741	-118.343	0.263	-0.060
-505.726	-3.320	-0.128	-0.116
-504.712	800.000	-0.059	0.291
-503.697	-46.730	-0.153	0.097
-502.683	-82.588	0.190	0.080
-501.668	-99.847	0.524	0.170
-500.653	-200.000	-0.045	0.289
-499.639	-101.108	-0.072	0.023
-498.624	-34.679	-0.332	-0.236
-497.610	-3.554	0.445	0.404
-496.595	-73.398	0.361	-0.171
-495.581	-93.273	0.294	-0.106
-494.566	-123.488	-0.119	-0.025
-493.551	157.678	0.213	-0.386
-492.537	225.185	0.085	0.180
-491.522	-10.938	0.348	-0.300
-490.508	76.568	-0.116	-0.161
-489.493	361.183	-0.079	0.208
-488.478	4.096	-0.340	0.325
-487.464	-50.452	-0.411	0.252
-486.449	-84.196	0.194	-0.080
-485.435	-26.303	-0.210	0.160
-484.420	-67.940	-0.206	-0.104
-483.405	-51.676	0.112	-0.068
-482.391	-43.001	0.231	-0.153
-481.376	-200.000	-0.030	-0.323
-480.362	-35.270	0.538	-0.381
-479.347	-32.661	-0.206	-0.149
-478.332	-54.238	-0.480	0.283
-477.318	143.564	-0.196	0.341
-476.303	-37.734	0.581	0.402
-475.289	800.000	0.011	0.046
-474.274	-200.000	0.040	-0.315
-473.259	-115.507	0.300	0.073
-472.245	7.686	0.220	-0.214
-471.230	-128.608	-0.264	-0.048
-470.216	39.014	0.128	-0.150
-469.201	-134.907	0.326	0.051
-468.186	62.758	0.161	0.211
-467.172	173.815	0.233	-0.439
-466.157	-200.000	-0.017	0.245
-465.143	-117.116	0.506	-0.119
-464.128	-200.000	-0.054	-0.549
-463.113	-200.000	-0.049	0.365
-462.099	-55.833	0.407	0.236
-461.084	186.005	0.180	0.350
-460.070	13.749	0.406	0.411
-459.055	182.508	0.050	-0.096
-458.040	-173.192	0.047	-0.002
-457.026	19.761	0.276	-0.289
-456.011	-200.000	-0.031	-0.214
-454.997	-88.543	0.467	-0.180
-453.982	-150.826	-0.191	-0.019
-452.968	-200.000	-0.029	0.536
-451.953	35.263	-0.247	-0.282
-450.938	-68.456	0.054	0.027
-449.924	-37.705	0.354	0.245
-448.909	800.000	-0.145	-0.532
-447.895	128.252	0.124	-0.206
-446.880	38.252	-0.156	0.181
-445.865	-200.000	0.030	0.443
-444.851	-127.702	0.422	0.079
-443.836	291.258	0.100	0.238
-442.822	617.795	-0.130	0.428
-441.807	-73.596	-0.115	-0.054
-440.792	-129.106	-0.281	0.051
-439.778	-15.200	-0.234	-0.195
-438.763	9.809	-0.092	-0.090
-437.749	46.050	0.318	-0.383
-436.734	-69.909	0.338	-0.167
-435.719	-7.207	0.147	0.129
-434.705	323.168	0.024	0.060
-433.690	331.738	0.155	0.390
-432.676	32.461	0.251	-0.282
-431.661	-84.267	0.316	0.129
-430.646	-26.815	0.160	-0.121
-429.632	24.812	0.229	-0.247
-428.617	-184.863	0.091	-0.002
-427.603	-13.473	-0.489	-0.412
-426.588	-86.187	0.169	0.067
-425.573	-53.021	-0.231	0.138
-424.559	-128.879	-0.464	-0.084
-423.544	47.732	0.218	-0.264
-422.530	-78.406	0.019	0.008
-421.515	193.595	-0.204	0.403
-420.500	-46.667	-0.217	0.138
-419.486	-97.706	-0.250	0.084
-418.471	-133.385	-0.467	-0.076
-417.457	96.854	-0.192	0.286
-416.442	-73.443	0.494	-0.234
-415.428	-55.637	-0.339	0.197
-414.413	-13.347	-0.314	-0.265
-413.398	183.218	-0.165	0.318
-412.384	-26.411	-0.131	-0.099
-411.369	155.062	-0.119	0.213
-410.355	-200.000	0.038	-0.270
-409.340	-106.893	0.671	0.192
-408.325	800.000	0.098	-0.381
-407.311	-115.218	0.488	0.119
-406.296	-62.641	0.405	-0.217
-405.282	-54.133	0.251	0.148
-404.267	-6.459	-0.313	-0.277
-403.252	347.169	0.118	0.304
-402.238	-19.308	0.283	-0.228
-401.223	-20.735	0.230	-0.183
-400.209	-20.341	-0.070	-0.056
-399.194	-97.599	-0.328	0.110
-398.179	-200.000	-0.087	0.790
-397.165	-26.760	0.264	0.200
-396.150	-93.135	0.211	-0.076
-395.136	-19.836	0.126	0.101
-394.121	113.620	-0.147	0.233
-393.106	32.403	-0.458	0.514
-392.092	98.034	-0.091	0.136
-391.077	-40.659	-0.335	-0.225
-390.063	800.000	-0.081	-0.436
-389.048	-200.000	-0.009	0.389
-388.033	-200.000	0.042	0.741
-387.019	82.599	-0.122	0.173
-386.004	602.699	-0.095	-0.308
-384.990	-81.862	0.291	0.123
-383.975	240.253	0.230	0.499
-382.960	-83.120	-0.657	-0.273
-381.946	-74.803	0.446	-0.207
-380.931	-146.281	-0.256	-0.029
-379.917	-111.771	-0.091	0.024
-378.902	-127.180	-0.543	-0.102
-377.888	8.911	-0.146	0.143
-376.873	47.255	-0.422	0.511
-375.858	-42.439	-0.214	0.141
-374.844	-68.753	0.176	-0.088
-373.829	-200.000	-0.027	-0.449
-372.815	63.383	0.148	-0.192
-371.800	-96.964	-0.302	-0.102
-370.785	91.537	-0.036	-0.052
-369.771	239.398	-0.203	0.440
-368.756	-128.310	0.413	-0.076
-367.742	761.683	0.083	-0.294
-366.727	-146.511	-0.214	0.024
-365.712	-30.415	-0.344	-0.253
-364.698	-77.039	-0.190	-0.086
-363.683	-200.000	-0.008	-0.103
-362.669	-200.000	-0.025	0.193
-361.654	550.685	-0.178	0.557
-360.639	191.415	0.100	-0.197
-359.625	63.254	0.049	0.063
-358.610	689.556	-0.028	-0.096
-357.596	15.824	0.372	-0.379
-356.581	11.358	0.249	-0.247
-355.566	-89.738	0.354	-0.134
-354.552	-200.000	0.015	-0.249
-353.537	800.000	0.076	0.292
-352.523	103.212	0.123	0.187
-351.508	-97.858	-0.724	0.241
-350.493	-200.000	-0.003	-0.264
-349.479	175.374	0.272	0.513
-348.464	-13.221	0.019	-0.016
-347.450	-68.312	-0.113	-0.057
-346.435	490.208	-0.085	0.254
-345.420	800.000	-0.105	-0.445
-344.406	-142.927	-0.333	0.041
-343.391	137.649	0.041	-0.070
-342.377	-59.627	-0.097	0.054
-341.362	-62.448	0.550	0.295
-340.348	-110.804	0.199	0.053
-339.333	22.842	-0.141	0.150
-338.318	-55.678	0.578	0.334
-337.304	-72.141	-0.421	0.202
-336.289	-8.195	-0.411	-0.359
-335.275	-40.535	0.258	0.173
-334.260	137.577	0.225	0.383
-333.245	800.000	-0.054	-0.245
-332.231	47.313	-0.284	-0.343
-331.216	-66.561	0.253	-0.130
-330.202	800.000	-0.071	0.338
-329.187	-196.454	-0.559	-0.005
-328.172	-146.958	0.412	-0.045
-327.158	146.319	-0.062	0.109
-326.143	-82.492	0.240	-0.100
-325.129	518.814	-0.234	-0.714
-324.114	-88.575	0.618	-0.237
-323.099	800.000	-0.070	0.299
-322.085	175.776	0.124	-0.234
-321.070	-66.213	0.240	0.123
-320.056	800.000	0.026	-0.143
-319.041	-48.954	0.132	0.082
-318.026	86.339	0.138	-0.197
-317.012	546.281	-0.122	0.379
-315.997	-52.220	-0.232	-0.139
-314.983	-89.017	0.364	0.139
-313.968	-200.000	-0.008	-0.270
-312.953	-46.878	0.421	0.266
-311.939	70.037	-0.143	-0.192
-310.924	-120.294	0.341	-0.075
-309.910	-8.647	-0.127	0.111
-308.895	-16.266	-0.345	-0.284
-307.880	-79.619	0.906	0.394
-306.866	25.760	-0.135	-0.146
-305.851	453.982	0.112	0.321
-304.837	800.000	0.011	0.041
-303.822	102.968	-0.163	-0.248
-302.807	-54.131	-0.367	0.215
-301.793	-29.043	0.284	0.210
-300.778	-200.000	0.012	-0.148
-299.764	-94.512	0.543	-0.190
-298.749	-136.801	0.575	-0.085
-297.735	87.112	-0.173	0.248
-296.720	-162.942	-0.204	0.013
-295.705	-53.683	0.326	-0.192
-294.691	-140.854	-0.077	0.010
-293.676	186.493	0.099	-0.190
-292.662	484.591	0.166	0.492
-291.647	-163.555	0.253	0.015
-290.632	-71.986	-0.271	0.130
-289.618	-36.402	-0.363	-0.252
-288.603	-83.221	-0.439	-0.182
-287.589	-200.000	0.152	-0.000
-286.574	350.582	0.138	0.355
-285.559	-200.000	0.053	0.309
-284.545	-96.366	0.084	-0.029
-283.530	-86.264	-0.399	-0.158
-282.516	2.678	-0.188	0.176
-281.501	-53.407	-0.279	-0.165
-280.486	256.842	-0.042	-0.095
-279.472	200.759	0.172	0.343
-278.457	19.719	-0.260	-0.270
-277.443	-200.000	0.006	-0.496
-276.428	-93.193	-0.675	-0.241
-275.413	-136.954	-0.274	0.040
-274.399	-143.561	-0.357	-0.044
-273.384	-139.087	0.134	0.019
-272.370	-161.816	0.138	-0.009
-271.355	-142.790	0.275	-0.034
-270.340	178.834	-0.212	-0.402
-269.326	-49.694	0.204	0.125
-268.311	149.772	0.232	0.408
-267.297	-130.007	-0.075	0.013
-266.282	-200.000	0.042	-0.403
-265.267	195.161	0.225	0.443
-264.253	800.000	-0.064	0.347
-263.238	-200.000	-0.014	-0.374
-262.224	800.000	-0.079	-0.288
-261.209	-174.006	-0.379	0.014
-260.195	36.607	0.274	-0.313
-259.180	-116.033	-0.465	0.111
-258.165	62.808	-0.098	-0.127
-257.151	-2.359	-0.271	-0.245
-256.136	86.241	-0.149	0.212
-255.122	-84.249	-0.501	-0.204
-254.107	-111.881	0.284	0.074
-253.092	-78.375	-0.264	0.117
-252.078	34.566	-0.302	0.341
-251.063	-200.000	-0.047	0.269
-250.049	-103.401	0.288	-0.087
-249.034	140.583	-0.178	0.304
-248.019	-103.884	0.059	-0.018
-247.005	-59.915	0.440	0.242
-245.990	283.369	-0.271	0.631
-244.976	-200.000	0.012	0.197
-243.961	555.489	0.254	0.795
-242.946	-107.937	0.530	0.148
-241.932	-200.000	0.019	0.168
-240.917	-13.870	0.100	-0.084
-239.903	108.202	0.171	0.264
-238.888	445.120	0.157	-0.447
-237.873	28.855	-0.074	0.081
-236.859	257.133	0.083	0.184
-235.844	-38.804	0.088	-0.059
-234.830	800.000	0.053	0.257
-233.815	-86.656	-0.351	0.138
-232.800	800.000	-0.045	0.219
-231.786	7.924	0.232	0.224
-230.771	369.353	-0.064	0.168
-229.757	-29.378	-0.084	-0.062
-228.742	-136.268	0.437	0.065
-227.727	-99.603	0.404	-0.130
-226.713	-43.749	0.167	-0.109
-225.698	-28.607	-0.251	-0.186
-224.684	800.000	0.100	0.456
-223.669	-200.000	0.003	-0.185
-222.655	289.500	0.160	-0.377
-221.640	-104.053	-0.119	-0.035
-220.625	-150.213	-0.197	0.019
-219.611	-50.783	-0.208	-0.126
-218.596	545.027	-0.010	-0.030
-217.582	-77.084	0.529	0.237
-216.567	-94.268	-0.197	0.069
-215.552	196.298	0.085	-0.168
-214.538	-8.056	-0.234	-0.203
-213.523	800.000	-0.053	-0.249
-212.509	81.829	-0.196	0.274
-211.494	-150.316	-0.514	0.051
-210.479	-166.474	-0.601	0.032
-209.465	800.000	0.067	-0.376
-208.450	233.184	0.218	-0.465
-207.436	452.621	-0.159	0.456
-206.421	800.000	0.072	-0.272
-205.406	-128.105	0.500	-0.091
-204.392	-56.969	-0.160	0.091
-203.377	-49.763	0.070	-0.043
-202.363	-200.000	-0.052	0.371
-201.348	-200.000	-0.012	-0.163
-200.333	-5.716	-0.217	-0.192
-199.319	400.742	0.038	-0.105
-198.304	-200.000	-0.019	-0.128
-197.290	381.587	-0.212	0.564
-196.275	-5.554	-0.482	-0.426
-195.260	-140.437	-0.612	-0.081
-194.246	-113.655	-0.209	-0.052
-193.231	730.779	-0.137	-0.474
-192.217	-65.716	-0.562	0.289
-191.202	800.000	0.058	0.242
-190.187	-44.599	0.351	0.226
-189.173	-200.000	0.016	-0.104
-188.158	-162.208	-0.044	-0.003
-187.144	-77.566	0.120	0.054
-186.129	11.007	0.239	0.235
-185.114	4.816	0.222	0.210
-184.100	55.627	0.111	0.138
-183.085	105.616	-0.133	-0.202
-182.071	149.433	-0.229	-0.400
-181.056	-137.084	0.499	-0.073
-180.042	109.751	-0.241	-0.373
-179.027	-10.195	0.506	0.433
-178.012	-94.620	0.522	0.182
-176.998	-200.000	0.008	-0.065
-175.983	792.506	-0.122	0.434
-174.969	-0.770	0.268	0.244
-173.954	-200.000	-0.013	0.145
-172.939	316.015	-0.126	-0.308
-171.925	-53.408	-0.195	0.115
-170.910	-200.000	-0.009	-0.622
-169.896	34.916	-0.070	-0.079
-168.881	-158.684	-0.319	-0.023
-167.866	24.244	-0.223	-0.237
-166.852	-200.000	0.054	-0.361
-165.837	14.394	-0.092	-0.093
-164.823	-45.917	0.214	0.136
-163.808	-134.723	-0.295	0.046
-162.793	-52.748	-0.307	-0.182
-161.779	43.220	-0.130	-0.153
-160.764	561.648	0.139	-0.435
-159.750	-30.291	0.124	-0.091
-158.735	-35.511	-0.425	-0.296
-157.720	-57.038	0.174	0.099
-156.706	-89.332	-0.210	-0.079
-155.691	19.848	-0.190	-0.197
-154.677	-200.000	0.014	0.348
-153.662	800.000	-0.027	-0.141
-152.647	518.746	-0.121	-0.366
-151.633	-173.376	0.115	0.004
-150.618	20.209	0.188	0.195
-149.604	170.461	0.071	0.131
-148.589	59.966	0.234	-0.297
-147.574	-110.304	-0.601	-0.160
-146.560	-66.337	-0.537	0.274
-145.545	-159.426	0.270	0.019
-144.531	-141.760	-0.502	0.064
-143.516	-64.723	-0.322	0.167
-142.502	52.808	0.023	0.028
-141.487	675.939	0.137	-0.460
-140.472	276.717	-0.241	-0.554
-139.458	75.946	-0.174	0.237
-138.443	-90.737	0.462	-0.171
-137.429	-88.780	0.402	-0.153
-136.414	176.025	-0.127	0.237
-135.399	142.567	0.159	-0.273
-134.385	800.000	-0.121	0.623
-133.370	-112.039	0.418	0.107
-132.356	-200.000	0.011	-0.427
-131.341	-52.151	0.055	0.033
-130.326	-89.499	-0.378	0.142
-129.312	-89.421	-0.396	0.149
-128.297	-44.653	0.536	-0.343
-127.283	-149.039	-0.292	0.030
-126.268	-120.291	0.294	-0.064
-125.253	152.885	-0.320	0.565
-124.239	800.000	0.027	-0.136
-123.224	3.226	-0.214	-0.200
-122.210	-200.000	0.021	0.407
-121.195	14.118	0.294	0.294
