DTS Sentinel unit serial number:	SN409020Multiplexer serial number:	ORYXHardware model number:	OX4-SRSoftware version number:	ORYX F/W v3.00 Oryx Data Collector v3.7.2.0data status	okinstallation	HaddamTimeLapsedifferential loss correction	single-endedforward channel	channel 3reverse channel	N/Adate	2011/06/22time	02:06:16forward acquisition time	30.00reverse acquisition time	0.00gamma	498.7831k internal	0.1750k external	0.1750temperature offset calibration	1.0074default loss term (dB/km)	0.3790temperature slope calibration	1.3530multiplexer offset coefficient	1.0000multiplexer slope coefficient	1.0000fibre end	0.00T internal ref (°C)	22.37T ext. ref 1 (°C)	17.66T ext. ref 2 (°C)	0.01length (m)	temperature (°C)	Stokes	anti-Stokes-747.200	-171.060	-0.078	-0.003
-746.185	800.000	0.148	0.756
-745.171	-114.096	0.428	0.109
-744.156	-200.000	0.005	0.147
-743.142	-157.959	-0.162	0.013
-742.127	-200.000	0.009	0.258
-741.112	-19.180	-0.047	-0.039
-740.098	-72.499	0.079	0.039
-739.083	46.389	0.123	0.152
-738.069	-93.881	0.534	-0.194
-737.054	-150.703	0.211	-0.021
-736.039	-35.591	-0.477	-0.343
-735.025	-200.000	0.038	0.740
-734.010	-27.629	0.123	-0.095
-732.996	503.790	0.128	-0.394
-731.981	-105.483	-0.497	-0.149
-730.966	18.110	0.093	0.099
-729.952	317.219	0.190	0.480
-728.937	-57.693	-0.515	-0.299
-727.923	-60.391	-0.424	-0.239
-726.908	-55.453	0.215	0.128
-725.894	-129.983	-0.316	-0.057
-724.879	616.548	-0.056	0.189
-723.864	-49.834	0.428	-0.269
-722.850	-24.456	0.341	-0.269
-721.835	95.565	0.114	-0.172
-720.821	319.870	-0.082	0.207
-719.806	-105.667	-0.206	0.062
-718.791	-200.000	-0.002	0.117
-717.777	-142.336	-0.347	-0.045
-716.762	-76.947	-0.102	-0.047
-715.748	-175.607	-0.238	-0.008
-714.733	-16.942	0.356	0.298
-713.718	-9.604	0.347	0.307
-712.704	-76.066	-0.416	0.194
-711.689	-101.184	0.259	0.083
-710.675	108.532	-0.323	-0.513
-709.660	-200.000	-0.011	-0.498
-708.645	-12.195	-0.466	-0.404
-707.631	-147.812	-0.448	-0.049
-706.616	114.451	0.184	-0.297
-705.602	149.277	0.292	0.525
-704.587	88.174	-0.114	0.168
-703.572	-15.858	-0.138	0.116
-702.558	-158.636	0.304	-0.023
-701.543	76.502	-0.136	-0.192
-700.529	-64.323	-0.328	-0.177
-699.514	118.709	-0.318	0.521
-698.499	161.043	-0.174	-0.324
-697.485	-104.894	-0.239	0.072
-696.470	-200.000	-0.032	0.451
-695.456	800.000	-0.028	-0.148
-694.441	80.193	-0.105	-0.151
-693.426	19.744	0.301	-0.321
-692.412	208.813	-0.016	-0.034
-691.397	800.000	-0.074	-0.275
-690.383	-58.225	-0.510	0.294
-689.368	36.981	-0.184	-0.216
-688.354	8.731	-0.180	-0.180
-687.339	152.144	0.295	-0.535
-686.324	106.093	-0.256	-0.403
-685.310	197.994	-0.323	-0.656
-684.295	-128.945	0.172	-0.032
-683.281	800.000	-0.058	-0.235
-682.266	24.206	0.079	-0.086
-681.251	-41.460	0.059	0.040
-680.237	800.000	0.027	-0.154
-679.222	44.403	0.214	-0.260
-678.208	-200.000	0.007	-0.359
-677.193	139.717	-0.075	-0.131
-676.178	-200.000	-0.018	-0.215
-675.164	239.617	-0.148	-0.329
-674.149	-89.238	-0.369	0.144
-673.135	367.275	0.079	-0.214
-672.120	16.818	-0.206	0.216
-671.105	-200.000	0.007	0.301
-670.091	-6.632	0.153	-0.138
-669.076	800.000	-0.021	0.114
-668.062	718.674	-0.075	0.264
-667.047	777.705	-0.089	0.324
-666.032	-122.067	-0.597	0.129
-665.018	-137.839	0.561	0.082
-664.003	-200.000	-0.008	-0.550
-662.989	-93.793	0.146	0.053
-661.974	136.717	-0.133	-0.230
-660.959	-33.151	0.183	-0.134
-659.945	55.145	0.132	-0.169
-658.930	302.744	-0.132	0.326
-657.916	-176.683	-0.154	0.005
-656.901	357.748	-0.095	0.252
-655.886	-117.405	0.109	-0.026
-654.872	800.000	0.126	-0.473
-653.857	89.898	0.127	0.188
-652.843	770.568	0.045	-0.163
-651.828	-49.721	0.292	-0.183
-650.814	-89.483	0.502	0.195
-649.799	592.716	-0.053	-0.176
-648.784	-40.112	0.081	0.056
-647.770	72.056	0.072	0.100
-646.755	-7.534	-0.107	-0.096
-645.741	-132.632	0.268	-0.045
-644.726	-45.868	-0.280	0.182
-643.711	80.998	0.118	-0.169
-642.697	45.565	-0.216	-0.264
-641.682	134.847	-0.038	0.066
-640.668	2.051	0.452	0.431
-639.653	-59.251	0.312	0.177
-638.638	-159.857	-0.246	0.018
-637.624	110.799	-0.166	-0.264
-636.609	472.083	-0.074	0.221
-635.595	-200.000	0.025	-0.495
-634.580	-200.000	-0.001	0.170
-633.565	-108.193	0.662	-0.188
-632.551	133.681	0.136	-0.234
-631.536	-136.211	0.475	0.073
-630.522	43.928	-0.340	0.413
-629.507	31.329	0.057	-0.065
-628.492	-70.842	0.194	0.097
-627.478	163.779	0.238	0.444
-626.463	-55.075	0.570	0.338
-625.449	-20.409	-0.408	-0.331
-624.434	-200.000	0.074	-0.445
-623.419	800.000	0.003	0.017
-622.405	66.439	-0.047	-0.063
-621.390	295.686	-0.066	0.162
-620.376	16.834	0.093	0.098
-619.361	301.098	-0.312	-0.765
-618.346	32.601	-0.191	0.219
-617.332	-141.005	-0.365	-0.049
-616.317	-20.166	-0.127	-0.103
-615.303	747.199	-0.033	0.117
-614.288	-200.000	-0.001	0.156
-613.273	-3.703	0.133	0.122
-612.259	-200.000	0.007	-0.319
-611.244	-35.997	0.359	-0.256
-610.230	-200.000	0.016	-0.101
-609.215	-177.637	0.172	-0.005
-608.201	8.122	0.292	0.289
-607.186	-9.448	0.207	-0.183
-606.171	135.852	0.307	-0.530
-605.157	521.975	-0.131	-0.408
-604.142	5.344	0.016	-0.016
-603.128	42.131	-0.331	0.397
-602.113	676.250	0.108	0.374
-601.098	-110.964	-0.290	-0.078
-600.084	-64.393	-0.322	-0.172
-599.069	46.751	-0.359	0.441
-598.055	-158.548	-0.153	-0.012
-597.040	116.154	-0.062	-0.101
-596.025	-200.000	0.030	-0.211
-595.011	-83.940	-0.218	-0.091
-593.996	-151.815	0.320	-0.031
-592.982	-200.000	-0.042	0.286
-591.967	569.750	-0.118	0.382
-590.952	13.746	0.153	-0.157
-589.938	-64.832	-0.105	0.056
-588.923	-40.547	0.262	0.179
-587.909	-52.739	0.323	-0.196
-586.894	573.378	-0.069	0.224
-585.879	262.254	-0.158	-0.362
-584.865	615.773	-0.202	0.673
-583.850	210.240	-0.120	0.250
-582.836	-108.060	-0.434	0.123
-581.821	-87.950	-0.203	-0.080
-580.806	-200.000	-0.036	-0.317
-579.792	-24.768	0.151	0.118
-578.777	-43.426	-0.171	-0.114
-577.763	599.724	0.065	0.216
-576.748	131.758	0.017	-0.028
-575.733	49.891	-0.146	-0.182
-574.719	278.368	0.170	-0.402
-573.704	-78.195	0.185	-0.084
-572.690	237.598	0.149	-0.328
-571.675	67.015	0.395	0.531
-570.661	-189.164	-0.182	-0.003
-569.646	-58.329	0.433	0.248
-568.631	4.875	-0.352	0.342
-567.617	-66.033	0.324	0.170
-566.602	-200.000	0.023	-0.381
-565.588	-86.385	0.261	0.105
-564.573	569.840	-0.095	-0.306
-563.558	-90.054	-0.350	0.134
-562.544	-68.930	0.239	0.121
-561.529	-10.250	0.262	-0.229
-560.515	-54.421	-0.095	0.057
-559.500	800.000	-0.042	0.204
-558.485	-28.530	0.125	-0.095
-557.471	-84.028	0.361	-0.151
-556.456	-158.750	0.460	0.034
-555.442	-135.862	0.466	-0.072
-554.427	12.800	-0.347	-0.353
-553.412	-64.147	-0.262	0.140
-552.398	-146.328	0.503	-0.057
-551.383	33.694	0.308	0.354
-550.369	27.936	0.281	-0.313
-549.354	-70.552	-0.282	-0.140
-548.339	-5.578	0.069	0.063
-547.325	79.122	0.266	0.377
-546.310	-200.000	0.023	0.331
-545.296	-200.000	-0.014	-0.207
-544.281	745.255	-0.050	0.180
-543.266	-95.585	0.408	0.143
-542.252	-135.706	-0.090	0.014
-541.237	-37.561	0.215	-0.151
-540.223	-27.174	-0.209	-0.160
-539.208	-128.691	-0.535	0.099
-538.193	-132.490	-0.324	0.054
-537.179	-200.000	-0.016	0.247
-536.164	-74.368	-0.331	0.157
-535.150	122.776	-0.106	-0.175
-534.135	-131.662	0.245	-0.042
-533.121	8.575	0.091	0.090
-532.106	-85.085	0.413	0.170
-531.091	-46.367	0.108	0.070
-530.077	657.092	0.072	0.244
-529.062	30.603	0.073	-0.082
-528.048	-124.729	0.323	-0.065
-527.033	-108.676	0.423	0.119
-526.018	-200.000	-0.036	-0.289
-525.004	-149.097	-0.055	-0.006
-523.989	-160.531	-0.522	-0.036
-522.975	800.000	-0.076	-0.387
-521.960	-200.000	-0.016	0.262
-520.945	60.972	0.452	0.591
-519.931	82.568	-0.132	-0.189
-518.916	-113.104	0.252	-0.065
-517.902	800.000	-0.063	-0.322
-516.887	-192.571	-0.290	-0.003
-515.872	174.649	-0.120	-0.229
-514.858	-12.429	0.146	-0.125
-513.843	800.000	0.101	0.498
-512.829	583.361	0.110	0.357
-511.814	19.813	-0.162	0.172
-510.799	-86.010	-0.364	-0.147
-509.785	-42.174	0.364	0.245
-508.770	114.389	0.019	-0.030
-507.756	800.000	0.131	-0.504
-506.741	138.122	-0.075	-0.130
-505.726	126.663	0.224	0.375
-504.712	-46.284	0.115	-0.074
-503.697	800.000	-0.027	0.137
-502.683	-4.585	-0.342	0.310
-501.668	795.156	-0.068	0.250
-500.653	-28.605	0.065	-0.049
-499.639	-98.667	0.493	-0.164
-498.624	-51.471	0.202	0.124
-497.610	-10.443	-0.475	0.414
-496.595	-116.512	-0.208	-0.050
-495.581	-151.049	0.168	-0.016
-494.566	-148.458	-0.810	0.086
-493.551	800.000	0.063	0.264
-492.537	-200.000	0.047	-0.368
-491.522	362.628	0.097	-0.257
-490.508	-13.590	0.252	0.214
-489.493	13.743	-0.117	0.119
-488.478	144.093	0.090	-0.158
-487.464	334.837	-0.037	-0.095
-486.449	-136.222	-0.222	0.034
-485.435	-166.238	-0.541	-0.030
-484.420	-200.000	-0.010	0.187
-483.405	303.221	-0.148	0.363
-482.391	-48.378	0.191	-0.121
-481.376	-0.031	-0.109	0.102
-480.362	517.643	-0.020	0.063
-479.347	468.761	0.090	0.267
-478.332	-200.000	0.002	-0.511
-477.318	661.646	-0.087	-0.298
-476.303	301.844	0.131	0.320
-475.289	-200.000	0.014	-0.097
-474.274	-32.693	-0.444	-0.324
-473.259	457.299	-0.133	0.391
-472.245	29.268	0.180	0.201
-471.230	-50.443	-0.320	-0.198
-470.216	-200.000	0.017	-0.342
-469.201	-87.757	0.474	0.187
-468.186	49.487	0.123	-0.153
-467.172	-101.139	0.346	0.111
-466.157	-200.000	-0.051	0.578
-465.143	-57.169	-0.245	0.141
-464.128	353.240	-0.155	-0.407
-463.113	-146.490	-0.195	-0.022
-462.099	-31.482	-0.591	0.435
-461.084	-147.271	0.055	-0.006
-460.070	318.844	0.108	-0.270
-459.055	252.959	0.064	0.145
-458.040	24.998	-0.288	0.314
-457.026	21.244	-0.147	0.156
-456.011	-18.581	0.456	0.373
-454.997	-142.737	0.281	0.036
-453.982	-8.908	0.061	0.054
-452.968	-94.875	-0.202	-0.071
-451.953	800.000	0.093	0.421
-450.938	-72.211	0.379	0.184
-449.924	-5.176	-0.371	0.335
-448.909	-23.415	-0.277	0.219
-447.895	-200.000	0.038	-0.262
-446.880	-70.678	0.224	-0.111
-445.865	-164.840	-0.164	0.010
-444.851	251.501	0.126	-0.284
-443.836	-200.000	-0.102	0.762
-442.822	-127.880	-0.337	-0.063
-441.807	102.569	0.145	-0.224
-440.792	-12.868	-0.314	0.268
-439.778	800.000	-0.062	0.275
-438.763	-12.989	-0.470	-0.401
-437.749	-98.533	-0.521	-0.174
-436.734	19.941	-0.381	-0.403
-435.719	-24.353	0.260	-0.204
-434.705	-2.970	-0.310	-0.284
-433.690	800.000	-0.075	-0.339
-432.676	-200.000	-0.014	0.398
-431.661	-47.403	0.358	-0.228
-430.646	619.028	0.070	0.231
-429.632	-59.612	0.087	-0.049
-428.617	-64.403	0.156	0.083
-427.603	-79.957	-0.580	-0.254
-426.588	-67.229	-0.509	-0.262
-425.573	-119.847	-0.269	-0.060
-424.559	20.671	-0.309	-0.328
-423.544	398.672	0.181	0.500
-422.530	-13.928	0.199	0.169
-421.515	-200.000	0.001	-0.032
-420.500	-84.541	0.333	0.137
-419.486	140.179	0.163	0.282
-418.471	157.478	0.200	0.364
-417.457	557.638	0.035	0.111
-416.442	-87.109	0.206	0.082
-415.428	658.785	-0.063	0.213
-414.413	-121.316	0.407	0.088
-413.398	-15.237	0.093	-0.078
-412.384	-178.730	0.263	0.008
-411.369	-37.634	0.137	0.096
-410.355	-149.897	0.338	-0.034
-409.340	94.312	0.282	-0.420
-408.325	103.678	-0.040	0.062
-407.311	-79.088	-0.299	-0.133
-406.296	513.127	0.236	0.726
-405.282	-200.000	-0.081	0.621
-404.267	259.353	-0.155	-0.352
-403.252	-55.130	0.201	-0.118
-402.238	322.508	0.130	0.325
-401.223	-87.593	0.288	0.113
-400.209	-200.000	0.016	-0.241
-399.194	601.995	-0.166	-0.543
-398.179	-80.289	0.137	-0.060
-397.165	20.693	0.060	0.064
-396.150	319.633	-0.069	-0.171
-395.136	800.000	-0.138	-0.524
-394.121	-96.258	0.171	0.059
-393.106	-84.547	-0.182	-0.075
-392.092	69.410	-0.132	0.179
-391.077	-105.486	0.139	-0.041
-390.063	7.212	-0.077	-0.075
-389.048	76.818	0.084	-0.117
-388.033	25.687	0.179	0.196
-387.019	-150.298	0.300	0.030
-386.004	55.760	0.217	-0.275
-384.990	-133.187	-0.183	-0.030
-383.975	17.151	-0.368	0.382
-382.960	-200.000	-0.009	-0.304
-381.946	15.899	0.108	-0.111
-380.931	-176.452	-0.247	-0.008
-379.917	143.819	-0.182	-0.319
-378.902	127.594	0.187	-0.312
-377.888	800.000	0.030	-0.111
-376.873	800.000	0.081	0.340
-375.858	-99.797	0.267	0.087
-374.844	511.824	0.133	-0.406
-373.829	800.000	-0.084	0.449
-372.815	-17.242	0.267	0.220
-371.800	-88.730	-0.750	0.290
-370.785	-95.228	0.240	0.084
-369.771	113.644	0.076	-0.120
-368.756	107.723	0.261	-0.408
-367.742	-200.000	0.050	-0.340
-366.727	292.052	0.202	0.483
-365.712	-111.458	0.542	-0.143
-364.698	101.647	-0.301	0.461
-363.683	800.000	-0.071	0.323
-362.669	31.960	0.148	-0.167
-361.654	-192.206	0.324	-0.004
-360.639	-175.772	0.201	-0.007
-359.625	-78.951	-0.212	0.094
-358.610	-123.693	0.603	-0.124
-357.596	-102.870	-0.157	0.049
-356.581	-136.823	0.484	0.072
-355.566	-200.000	-0.036	0.220
-354.552	17.762	0.121	-0.126
-353.537	-75.043	-0.447	-0.209
-352.523	301.260	-0.013	0.031
-351.508	-98.806	0.305	0.101
-350.493	800.000	-0.086	-0.312
-349.479	38.677	0.235	0.274
-348.464	-47.091	-0.411	-0.262
-347.450	-95.829	0.297	0.103
-346.435	-142.892	-0.561	0.070
-345.420	10.338	0.198	-0.197
-344.406	-144.768	0.090	-0.011
-343.391	-200.000	-0.041	-0.423
-342.377	-93.832	-0.296	0.106
-341.362	57.465	-0.460	-0.588
-340.348	-200.000	0.002	-0.461
-339.333	-113.865	0.462	0.117
-338.318	-200.000	-0.011	0.250
-337.304	90.771	0.079	-0.116
-336.289	-200.000	-0.563	-0.002
-335.275	-66.750	-0.155	-0.080
-334.260	268.490	0.131	-0.302
-333.245	800.000	-0.054	-0.216
-332.231	26.092	-0.315	-0.344
-331.216	-62.461	-0.280	-0.152
-330.202	415.001	-0.099	0.276
-329.187	-196.425	-0.625	-0.005
-328.172	-200.000	0.060	-0.480
-327.158	-66.509	-0.532	0.275
-326.143	180.001	0.264	-0.507
-325.129	800.000	0.081	-0.358
-324.114	168.050	-0.194	0.362
-323.099	62.356	0.229	-0.299
-322.085	10.487	-0.049	-0.049
-321.070	-21.947	-0.054	0.043
-320.056	116.653	0.184	0.295
-319.041	-62.344	-0.256	0.139
-318.026	49.240	0.190	0.233
-317.012	-147.711	-0.315	0.034
-315.997	-24.126	-0.500	0.389
-314.983	-32.756	-0.251	0.182
-313.968	-200.000	0.011	0.105
-312.953	-113.083	-0.216	-0.055
-311.939	-124.768	0.193	-0.039
-310.924	51.605	0.078	-0.096
-309.910	-138.608	0.410	0.058
-308.895	-100.960	0.103	0.033
-307.880	-37.925	-0.082	0.057
-306.866	-64.304	-0.092	-0.049
-305.851	188.013	-0.162	-0.317
-304.837	-68.000	-0.191	-0.097
-303.822	800.000	-0.074	-0.403
-302.807	-152.392	0.451	0.042
-301.793	44.990	-0.171	0.206
-300.778	-200.000	0.006	-0.458
-299.764	800.000	0.030	-0.170
-298.749	-200.000	-0.038	0.373
-297.735	-73.789	-0.068	0.032
-296.720	-183.681	0.188	-0.004
-295.705	-147.853	0.423	0.046
-294.691	-57.603	0.316	-0.180
-293.676	-91.344	0.429	-0.159
-292.662	343.524	0.054	0.140
-291.647	129.049	-0.155	-0.259
-290.632	329.632	0.092	-0.233
-289.618	-200.000	-0.032	0.332
-288.603	144.794	0.141	0.246
-287.589	122.767	-0.266	-0.435
-286.574	37.706	-0.059	0.068
-285.559	-133.645	0.302	-0.049
-284.545	-160.068	-0.522	0.037
-283.530	-95.116	-0.356	0.125
-282.516	117.290	-0.125	0.200
-281.501	-18.343	-0.146	0.119
-280.486	-32.523	-0.496	0.360
-279.472	-80.614	0.339	0.147
-278.457	-63.803	0.070	0.037
-277.443	-18.779	-0.271	-0.220
-276.428	-106.719	0.344	0.099
-275.413	-33.328	0.221	-0.159
-274.399	26.864	0.024	0.026
-273.384	-51.482	0.437	0.266
-272.370	-11.710	0.296	0.253
-271.355	-93.010	-0.543	0.196
-270.340	-42.513	-0.322	-0.213
-269.326	-12.927	-0.221	0.188
-268.311	800.000	-0.033	-0.160
-267.297	123.901	-0.176	0.289
-266.282	-53.352	0.348	-0.207
-265.267	-200.000	-0.023	0.304
-264.253	442.537	0.115	0.329
-263.238	95.749	0.124	-0.185
-262.224	379.694	0.278	-0.747
-261.209	-32.014	-0.344	-0.251
-260.195	131.896	-0.225	-0.379
-259.180	-104.046	0.206	-0.062
-258.165	-174.893	0.353	0.013
-257.151	-182.260	-0.677	0.016
-256.136	-200.000	0.036	-0.327
-255.122	-200.000	0.089	-0.532
-254.107	-20.555	-0.605	-0.484
-253.092	98.974	-0.109	0.165
-252.078	58.019	0.188	0.241
-251.063	80.618	-0.084	0.118
-250.049	-72.565	0.209	-0.100
-249.034	-70.460	0.393	-0.193
-248.019	-16.616	-0.460	0.379
-247.005	-160.719	-0.239	-0.016
-245.990	-159.246	0.536	-0.039
-244.976	-173.403	0.280	0.011
-243.961	708.915	-0.103	-0.355
-242.946	-19.378	0.078	-0.063
-241.932	45.514	-0.112	0.135
-240.917	-200.000	0.009	-0.112
-239.903	-162.342	0.281	-0.018
-238.888	5.305	-0.159	0.153
-237.873	228.882	-0.078	-0.166
-236.859	1.559	0.286	-0.268
-235.844	30.133	-0.287	0.319
-234.830	129.426	-0.036	0.059
-233.815	800.000	-0.140	0.531
-232.800	163.967	-0.095	0.175
-231.786	97.182	-0.116	-0.173
-230.771	-93.698	0.308	0.110
-229.757	135.614	-0.048	-0.081
-228.742	521.994	-0.100	-0.307
-227.727	800.000	0.161	0.699
-226.713	-65.154	-0.486	0.254
-225.698	309.839	0.103	-0.251
-224.684	-142.744	-0.115	0.014
-223.669	-28.081	0.369	-0.277
-222.655	-39.554	-0.356	0.242
-221.640	271.524	0.290	0.669
-220.625	800.000	-0.089	-0.373
-219.611	60.712	-0.185	0.238
-218.596	-80.125	-0.397	-0.172
-217.582	-56.712	-0.061	-0.035
-216.567	468.892	0.054	-0.159
-215.552	88.761	0.144	-0.209
-214.538	85.594	0.113	-0.161
-213.523	-200.000	0.022	-0.125
-212.509	-76.582	-0.322	0.146
-211.494	157.089	-0.086	-0.155
-210.479	-35.385	0.162	0.114
-209.465	-64.859	-0.307	-0.161
-208.450	160.216	0.129	-0.234
-207.436	135.625	0.215	-0.365
-206.421	486.981	0.077	0.231
-205.406	-109.939	0.618	-0.167
-204.392	-200.000	-0.069	0.454
-203.377	-200.000	0.009	-0.347
-202.363	-31.758	0.281	-0.205
-201.348	-200.000	0.037	0.299
-200.333	317.250	-0.017	-0.042
-199.319	-100.012	0.189	0.061
-198.304	-68.779	-0.280	-0.140
-197.290	24.036	0.325	-0.349
-196.275	800.000	-0.038	0.146
-195.260	-182.951	0.383	-0.009
-194.246	25.986	0.224	0.243
-193.231	300.141	-0.106	0.256
-192.217	-200.000	0.130	-0.000
-191.202	120.581	-0.233	-0.378
-190.187	22.448	-0.199	0.212
-189.173	-39.536	-0.456	0.310
-188.158	-126.887	0.148	0.028
-187.144	1.118	0.021	0.019
-186.129	800.000	0.036	0.135
-185.114	100.495	-0.079	-0.120
-184.100	-125.585	0.290	0.057
-183.085	800.000	-0.106	0.404
-182.071	-158.420	-0.417	-0.031
-181.056	-111.529	-0.137	-0.036
-180.042	56.146	0.025	0.032
-179.027	-118.487	-0.089	-0.020
-178.012	-37.599	-0.441	-0.305
-176.998	-42.199	-0.352	-0.233
-175.983	-200.000	-0.006	-0.252
-174.969	800.000	0.105	-0.589
-173.954	71.001	0.114	0.153
-172.939	128.899	-0.268	0.444
-171.925	109.384	-0.191	-0.297
-170.910	-157.462	-0.133	0.010
-169.896	-57.606	-0.393	-0.223
-168.881	-21.985	0.325	-0.256
-167.866	-55.772	-0.227	-0.132
-166.852	158.861	-0.029	0.053
-165.837	-64.037	0.422	-0.223
-164.823	49.738	0.164	0.201
-163.808	-200.000	0.000	-0.054
-162.793	-156.008	0.355	-0.029
-161.779	-132.382	0.179	-0.030
-160.764	54.152	0.155	0.194
-159.750	-128.715	0.569	-0.103
-158.735	-35.833	0.331	0.232
-157.720	-0.052	-0.094	-0.087
-156.706	-200.000	-0.092	0.573
-155.691	-81.594	-0.257	-0.109
-154.677	-119.605	-0.327	0.073
-153.662	-116.888	-0.355	-0.084
-152.647	-74.447	0.107	-0.050
-151.633	-129.142	-0.336	-0.060
-150.618	605.502	-0.080	0.261
-149.604	-200.000	-0.005	0.294
-148.589	151.697	0.063	0.111
-147.574	-130.327	0.295	0.052
-146.560	-62.752	-0.047	-0.025
-145.545	-143.979	-0.281	0.034
-144.531	135.444	-0.365	0.618
-143.516	107.670	0.038	-0.059
-142.502	88.781	0.402	0.582
-141.487	357.897	0.128	0.334
-140.472	-94.521	-0.392	0.138
-139.458	-2.985	0.356	0.322
-138.443	-101.869	0.183	-0.057
-137.429	-58.950	0.320	-0.179
-136.414	-44.608	0.114	-0.073
-135.399	-70.185	0.202	0.099
-134.385	466.770	0.178	-0.520
-133.370	-192.362	0.442	-0.005
-132.356	6.952	0.100	0.097
-131.341	-57.348	0.353	0.201
-130.326	-163.248	-0.433	0.027
-129.312	-52.010	0.531	-0.319
-128.297	-141.995	-0.383	-0.049
-127.283	-15.532	0.333	-0.275
-126.268	69.028	0.225	-0.301
-125.253	-60.332	-0.290	-0.160
-124.239	328.793	0.058	0.144
-123.224	-68.635	-0.230	0.115
-122.210	-75.451	0.229	0.105
-121.195	-16.773	0.203	0.166
