DTS Sentinel unit serial number:	SN409020Multiplexer serial number:	ORYXHardware model number:	OX4-SRSoftware version number:	ORYX F/W v3.00 Oryx Data Collector v3.7.2.0data status	okinstallation	HaddamTimeLapsedifferential loss correction	single-endedforward channel	channel 3reverse channel	N/Adate	2011/06/21time	15:01:17forward acquisition time	30.00reverse acquisition time	0.00gamma	498.7831k internal	0.1834k external	0.1834temperature offset calibration	1.0074default loss term (dB/km)	0.3790temperature slope calibration	1.3530multiplexer offset coefficient	1.0000multiplexer slope coefficient	1.0000fibre end	0.00T internal ref (°C)	38.37T ext. ref 1 (°C)	30.98T ext. ref 2 (°C)	0.27length (m)	temperature (°C)	Stokes	anti-Stokes-747.200	-25.734	-0.227	0.170
-746.185	-200.000	0.030	0.429
-745.171	7.465	0.285	-0.270
-744.156	-200.000	-0.027	0.711
-743.142	181.866	-0.114	-0.213
-742.127	-200.000	0.011	0.067
-741.112	-157.716	0.349	-0.026
-740.098	-200.000	0.037	0.394
-739.083	23.335	-0.222	0.232
-738.069	-102.129	-0.155	0.047
-737.054	260.784	-0.090	-0.198
-736.039	183.494	-0.195	0.366
-735.025	48.715	-0.098	-0.117
-734.010	-169.025	0.392	0.018
-732.996	-125.625	0.185	-0.035
-731.981	151.618	0.240	0.416
-730.966	-60.464	0.423	-0.227
-729.952	21.726	0.220	-0.227
-728.937	-103.723	0.491	0.145
-727.923	191.225	-0.058	-0.111
-726.908	112.347	0.052	-0.079
-725.894	-200.000	-0.036	-0.247
-724.879	-68.847	-0.587	-0.286
-723.864	-34.482	-0.409	-0.284
-722.850	27.199	0.297	-0.316
-721.835	-200.000	0.003	0.228
-720.821	-63.683	0.211	-0.109
-719.806	-200.000	-0.000	-0.297
-718.791	-115.511	-0.175	-0.041
-717.777	183.876	-0.142	0.267
-716.762	-200.000	0.077	0.610
-715.748	62.993	-0.305	-0.387
-714.733	-130.520	-0.212	0.036
-713.718	66.022	0.122	0.157
-712.704	-11.506	-0.292	0.243
-711.689	-49.897	-0.534	0.320
-710.675	-58.097	-0.060	-0.033
-709.660	-56.674	0.308	-0.172
-708.645	-61.757	-0.274	-0.145
-707.631	67.940	0.198	-0.256
-706.616	2.659	-0.106	0.098
-705.602	-58.551	-0.334	0.183
-704.587	-32.130	0.260	-0.183
-703.572	23.834	0.257	-0.268
-702.558	-86.412	-0.366	-0.142
-701.543	-102.524	-0.778	0.234
-700.529	-73.313	-0.410	-0.189
-699.514	-83.521	-0.513	0.207
-698.499	100.935	0.281	0.414
-697.485	-144.382	0.163	0.019
-696.470	-102.973	-0.541	-0.161
-695.456	800.000	0.087	0.437
-694.441	4.853	-0.333	0.310
-693.426	-30.791	0.163	0.116
-692.412	-133.168	0.204	0.032
-691.397	-89.376	0.362	-0.134
-690.383	-175.494	-0.362	0.012
-689.368	-13.249	0.298	-0.244
-688.354	36.737	-0.411	0.460
-687.339	80.223	-0.112	-0.153
-686.324	151.334	-0.061	-0.106
-685.310	47.900	-0.231	-0.273
-684.295	22.580	0.478	-0.495
-683.281	30.623	-0.082	-0.089
-682.266	-2.341	0.138	0.122
-681.251	706.662	0.248	0.833
-680.237	-60.440	-0.108	0.058
-679.222	-106.267	-0.332	-0.093
-678.208	-97.155	0.187	0.061
-677.193	-176.428	0.163	0.005
-676.178	800.000	-0.104	0.557
-675.164	-87.034	0.151	0.058
-674.149	-157.494	-0.381	0.029
-673.135	800.000	-0.140	0.495
-672.120	79.863	-0.231	0.314
-671.105	659.723	-0.062	0.204
-670.091	-91.957	-0.209	-0.074
-669.076	-200.000	-0.007	-0.164
-668.062	800.000	0.062	-0.327
-667.047	-112.579	0.415	0.104
-666.032	800.000	0.095	0.380
-665.018	-13.313	-0.419	0.343
-664.003	248.145	-0.208	-0.446
-662.989	68.894	-0.140	0.181
-661.974	-125.588	-0.316	0.060
-660.959	-153.265	-0.393	-0.034
-659.945	-165.141	-0.405	-0.022
-658.930	-114.489	0.289	-0.070
-657.916	-200.000	-0.021	0.000
-656.901	800.000	-0.063	-0.222
-655.886	-54.769	-0.480	-0.273
-654.872	114.248	-0.320	0.494
-653.857	-200.000	-0.009	-0.096
-652.843	800.000	-0.031	0.153
-651.828	-176.199	0.443	-0.014
-650.814	32.865	0.279	0.306
-649.799	-167.130	-0.343	0.017
-648.784	-89.046	0.200	-0.074
-647.770	109.657	0.148	0.224
-646.755	-99.513	0.212	-0.067
-645.741	19.984	0.225	0.229
-644.726	800.000	-0.127	0.463
-643.711	-78.840	-0.346	0.148
-642.697	315.206	-0.102	0.245
-641.682	-56.062	0.331	0.186
-640.668	118.291	0.151	0.236
-639.653	2.794	-0.116	0.106
-638.638	-92.974	-0.403	0.141
-637.624	37.094	-0.242	0.271
-636.609	-40.494	0.257	0.168
-635.595	25.658	0.327	0.344
-634.580	-61.153	0.395	0.210
-633.565	96.921	-0.282	0.409
-632.551	280.846	-0.122	-0.277
-631.536	-106.400	0.211	-0.059
-630.522	-113.542	0.310	0.076
-629.507	-200.000	0.022	0.130
-628.492	-191.864	-0.397	-0.005
-627.478	77.133	-0.183	0.246
-626.463	509.624	0.265	-0.783
-625.449	-200.000	0.057	-0.643
-624.434	-78.469	-0.238	0.102
-623.419	800.000	-0.049	0.226
-622.405	-149.770	-0.337	-0.033
-621.390	626.380	0.048	0.154
-620.376	72.363	0.153	0.201
-619.361	412.954	0.032	0.085
-618.346	-149.884	-0.524	-0.051
-617.332	4.436	-0.434	-0.401
-616.317	800.000	-0.096	-0.368
-615.303	456.170	-0.054	-0.151
-614.288	-122.712	0.266	-0.054
-613.273	80.621	0.152	-0.207
-612.259	800.000	-0.146	-0.565
-611.244	-10.994	-0.239	-0.199
-610.230	-100.195	-0.383	-0.119
-609.215	443.517	0.097	-0.268
-608.201	-54.332	-0.148	-0.084
-607.186	-122.644	-0.522	-0.106
-606.171	-200.000	0.054	0.503
-605.157	-163.804	-0.456	0.027
-604.142	-69.580	0.230	0.111
-603.128	286.637	0.056	0.129
-602.113	-200.000	0.013	-0.131
-601.098	800.000	-0.100	0.384
-600.084	800.000	-0.069	-0.266
-599.069	-125.220	-0.176	-0.034
-598.055	-131.952	-0.031	0.005
-597.040	345.052	0.201	-0.499
-596.025	153.696	0.050	0.087
-595.011	-21.331	0.400	0.308
-593.996	-25.519	-0.374	0.278
-592.982	-34.405	0.189	0.131
-591.967	37.031	-0.238	0.265
-590.952	227.975	-0.115	-0.236
-589.938	-52.777	0.555	-0.322
-588.923	-200.000	-0.030	0.173
-587.909	-148.466	-0.607	0.062
-586.894	-115.254	-0.581	0.137
-585.879	-80.922	-0.510	0.212
-584.865	-142.314	-0.140	0.017
-583.850	-200.000	0.016	-0.261
-582.836	214.028	0.031	-0.062
-581.821	-200.000	-0.043	0.316
-580.806	-137.446	0.079	0.011
-579.792	4.005	0.325	-0.299
-578.777	800.000	-0.023	0.089
-577.763	-92.219	0.509	0.180
-576.748	-87.782	0.419	-0.158
-575.733	-113.915	0.498	0.121
-574.719	241.184	0.246	-0.520
-573.704	118.797	-0.130	-0.203
-572.690	-178.387	0.351	0.010
-571.675	-200.000	0.016	0.234
-570.661	-106.515	0.321	0.089
-569.646	-104.562	-0.111	0.032
-568.631	-68.825	-0.097	0.047
-567.617	201.850	-0.260	0.506
-566.602	53.717	0.075	0.091
-565.588	800.000	-0.091	0.438
-564.573	72.364	0.231	0.304
-563.558	800.000	-0.114	-0.541
-562.544	-151.341	-0.100	0.009
-561.529	38.729	0.442	0.497
-560.515	-192.127	0.312	0.004
-559.500	-41.046	0.367	-0.238
-558.485	-80.486	-0.374	-0.156
-557.471	-200.000	-0.020	0.203
-556.456	-59.614	0.197	0.106
-555.442	-55.822	0.256	-0.143
-554.427	-11.050	0.104	0.087
-553.412	77.044	-0.066	0.088
-552.398	-200.000	0.035	-0.363
-551.383	59.817	-0.036	-0.045
-550.369	12.352	-0.119	-0.115
-549.354	238.391	0.043	0.090
-548.339	580.008	0.052	0.161
-547.325	75.996	-0.210	-0.281
-546.310	7.079	-0.215	-0.202
-545.296	-75.784	-0.721	0.320
-544.281	-16.956	0.155	-0.123
-543.266	523.861	0.105	-0.313
-542.252	-71.524	-0.186	0.087
-541.237	-171.926	-0.266	-0.011
-540.223	-29.967	0.065	0.047
-539.208	34.453	0.076	0.084
-538.193	-52.774	0.392	0.227
-537.179	-99.680	-0.225	0.070
-536.164	447.800	0.088	-0.244
-535.150	84.685	-0.214	-0.295
-534.135	-200.000	-0.025	-0.178
-533.121	182.750	-0.199	0.371
-532.106	-129.746	0.386	0.066
-531.091	350.648	-0.145	-0.363
-530.077	-139.581	-0.491	-0.065
-529.062	-183.518	-0.380	-0.008
-528.048	362.044	-0.099	0.250
-527.033	-200.000	-0.026	-0.177
-526.018	800.000	-0.040	0.213
-525.004	-200.000	0.054	0.504
-523.989	138.452	0.079	-0.131
-522.975	-54.271	0.353	-0.201
-521.960	129.028	-0.111	-0.179
-520.945	-138.088	0.180	-0.025
-519.931	-51.415	0.258	-0.151
-518.916	1.284	-0.339	0.306
-517.902	540.292	-0.138	-0.416
-516.887	409.199	0.074	-0.198
-515.872	-130.493	0.535	0.090
-514.858	-136.183	-0.187	0.027
-513.843	-45.789	0.216	-0.134
-512.829	-200.000	0.003	0.140
-511.814	19.475	-0.310	-0.313
-510.799	800.000	0.046	-0.195
-509.785	202.606	-0.185	0.360
-508.770	-37.472	-0.300	-0.201
-507.756	42.037	-0.200	-0.228
-506.741	-51.911	0.465	-0.271
-505.726	-70.178	0.215	0.102
-504.712	800.000	0.083	0.428
-503.697	-200.000	0.000	0.422
-502.683	-126.706	0.320	0.059
-501.668	-70.386	0.493	0.234
-500.653	53.211	0.200	-0.241
-499.639	-200.000	0.029	-0.530
-498.624	452.261	-0.053	-0.148
-497.610	751.699	-0.028	0.097
-496.595	-130.071	0.169	-0.029
-495.581	6.966	0.290	-0.271
-494.566	-200.000	-0.100	0.692
-493.551	-135.018	0.191	0.029
-492.537	-127.630	-0.516	-0.093
-491.522	-119.659	-0.283	0.061
-490.508	-60.166	0.353	0.188
-489.493	278.601	0.039	-0.089
-488.478	-200.000	-0.003	0.116
-487.464	106.665	0.316	-0.472
-486.449	47.672	0.060	-0.071
-485.435	90.002	0.350	-0.491
-484.420	85.542	-0.234	-0.323
-483.405	-145.060	-0.612	-0.069
-482.391	-75.377	-0.747	-0.333
-481.376	-8.826	-0.275	0.231
-480.362	-200.000	-0.071	0.454
-479.347	-200.000	0.051	0.335
-478.332	-164.938	-0.471	0.026
-477.318	-74.834	-0.438	0.196
-476.303	22.853	0.173	-0.178
-475.289	88.286	0.282	-0.393
-474.274	-65.229	-0.114	0.057
-473.259	158.364	-0.186	0.325
-472.245	-97.132	0.403	0.131
-471.230	-82.107	0.178	0.073
-470.216	-200.000	-0.042	-0.596
-469.201	-89.720	0.209	0.076
-468.186	-200.000	-0.024	-0.211
-467.172	-151.212	-0.376	-0.035
-466.157	88.715	-0.123	-0.171
-465.143	-74.205	0.419	-0.189
-464.128	183.091	0.059	-0.111
-463.113	-30.853	-0.402	0.285
-462.099	-125.706	-0.447	-0.084
-461.084	-105.642	-0.409	0.115
-460.070	60.147	0.210	0.260
-459.055	-68.510	0.093	0.045
-458.040	-49.803	0.062	-0.037
-457.026	-121.108	-0.501	0.104
-456.011	-200.000	0.006	0.100
-454.997	-93.792	0.258	-0.089
-453.982	-16.332	-0.321	-0.255
-452.968	105.686	-0.195	-0.289
-451.953	-29.619	-0.561	-0.401
-450.938	-57.366	-0.268	0.147
-449.924	800.000	-0.022	0.078
-448.909	152.887	0.049	0.084
-447.895	-68.672	0.216	-0.104
-446.880	306.960	0.165	0.386
-445.865	139.569	0.124	-0.205
-444.851	-200.000	0.001	-0.402
-443.836	695.028	0.059	-0.195
-442.822	523.056	-0.069	-0.204
-441.807	-162.717	0.071	0.004
-440.792	800.000	0.044	-0.169
-439.778	800.000	0.117	0.458
-438.763	-108.668	0.548	-0.146
-437.749	-200.000	-0.005	0.248
-436.734	22.920	-0.439	0.451
-435.719	-15.368	0.267	-0.213
-434.705	-109.712	0.154	0.040
-433.690	19.037	0.326	0.327
-432.676	507.522	0.051	-0.150
-431.661	-200.000	-0.020	-0.109
-430.646	-200.000	-0.022	0.433
-429.632	306.457	-0.050	0.117
-428.617	-147.521	0.268	-0.028
-427.603	-66.661	0.243	0.120
-426.588	173.284	0.095	-0.172
-425.573	-127.524	0.300	0.054
-424.559	27.504	-0.202	0.213
-423.544	800.000	0.116	-0.480
-422.530	54.137	-0.287	0.346
-421.515	81.851	0.284	-0.386
-420.500	3.790	-0.159	0.146
-419.486	545.978	0.104	-0.314
-418.471	-52.323	-0.144	0.083
-417.457	-19.282	0.166	0.129
-416.442	800.000	-0.064	-0.273
-415.428	-176.270	-0.226	-0.007
-414.413	280.709	0.210	0.471
-413.398	-104.729	-0.297	0.085
-412.384	-121.121	0.146	0.030
-411.369	171.536	-0.090	0.161
-410.355	-60.678	0.114	-0.060
-409.340	351.688	-0.152	-0.380
-408.325	56.778	-0.112	0.137
-407.311	50.486	-0.110	0.130
-406.296	-14.937	-0.218	0.174
-405.282	-71.633	-0.529	0.246
-404.267	193.605	-0.016	-0.031
-403.252	257.556	-0.199	0.431
-402.238	-182.923	-0.282	-0.006
-401.223	571.458	0.213	-0.653
-400.209	93.517	-0.296	-0.420
-399.194	-132.061	-0.292	-0.047
-398.179	154.697	-0.069	0.119
-397.165	9.152	-0.375	0.355
-396.150	-119.014	-0.127	0.028
-395.136	572.769	-0.095	-0.290
-394.121	79.461	0.288	0.387
-393.106	-107.696	0.198	-0.054
-392.092	21.366	-0.318	0.323
-391.077	258.133	0.110	0.239
-390.063	800.000	-0.053	-0.258
-389.048	-47.998	0.228	-0.138
-388.033	800.000	-0.026	0.095
-387.019	-160.909	-0.370	0.024
-386.004	220.444	-0.044	-0.089
-384.990	-200.000	0.022	-0.514
-383.975	800.000	-0.062	-0.248
-382.960	408.292	0.028	-0.075
-381.946	-170.077	0.251	-0.011
-380.931	-69.955	-0.091	0.043
-379.917	16.837	0.072	-0.071
-378.902	138.204	0.058	0.095
-377.888	-200.000	-0.009	0.433
-376.873	-103.384	0.344	-0.101
-375.858	8.730	0.205	0.193
-374.844	-200.000	0.013	-0.289
-373.829	21.183	-0.259	-0.262
-372.815	-200.000	-0.007	-0.100
-371.800	260.630	-0.158	0.343
-370.785	146.922	0.201	-0.338
-369.771	-33.563	0.145	0.100
-368.756	-200.000	-0.029	0.338
-367.742	-45.809	-0.031	0.019
-366.727	-200.000	-0.035	-0.328
-365.712	65.328	0.166	0.210
-364.698	-85.192	0.347	-0.135
-363.683	347.972	-0.100	0.247
-362.669	367.215	0.071	-0.179
-361.654	-200.000	-0.025	-0.409
-360.639	192.134	0.095	-0.179
-359.625	-149.302	0.417	0.041
-358.610	-200.000	0.048	0.301
-357.596	340.966	-0.176	0.432
-356.581	800.000	0.050	0.193
-355.566	54.530	0.166	-0.200
-354.552	315.898	0.014	-0.034
-353.537	-200.000	0.003	0.018
-352.523	314.115	0.402	0.949
-351.508	800.000	0.057	0.202
-350.493	101.900	-0.127	-0.186
-349.479	15.523	0.380	0.372
-348.464	212.342	0.069	-0.137
-347.450	22.409	0.091	-0.093
-346.435	173.340	0.078	-0.141
-345.420	-146.297	-0.372	0.040
-344.406	-151.351	-0.308	-0.028
-343.391	90.762	-0.073	0.102
-342.377	40.100	0.207	0.232
-341.362	800.000	0.078	-0.309
-340.348	-123.958	0.101	0.020
-339.333	653.352	-0.121	0.391
-338.318	448.882	-0.177	0.490
-337.304	128.702	0.215	-0.343
-336.289	800.000	-0.092	-0.351
-335.275	-18.381	0.400	0.312
-334.260	125.506	-0.193	-0.305
-333.245	-200.000	0.039	-0.237
-332.231	644.707	0.077	-0.248
-331.216	-163.126	-0.318	0.019
-330.202	-43.206	-0.222	-0.140
-329.187	450.582	0.072	-0.199
-328.172	400.721	0.095	-0.249
-327.158	191.184	-0.169	-0.319
-326.143	-200.000	0.052	0.639
-325.129	-73.292	0.130	-0.059
-324.114	403.334	0.184	-0.485
-323.099	-102.578	0.154	0.046
-322.085	-62.432	-0.137	0.071
-321.070	86.063	0.245	0.336
-320.056	577.896	0.011	-0.033
-319.041	79.453	0.034	0.046
-318.026	31.231	0.228	0.244
-317.012	89.494	-0.065	-0.091
-315.997	-81.019	-0.147	0.060
-314.983	-88.324	-0.195	-0.072
-313.968	-77.242	0.371	0.160
-312.953	136.366	-0.286	0.466
-311.939	578.720	0.092	-0.284
-310.924	41.136	0.303	0.342
-309.910	800.000	0.060	-0.273
-308.895	50.113	-0.148	-0.175
-307.880	-67.226	0.225	0.110
-306.866	800.000	0.028	0.150
-305.851	-67.372	0.124	-0.060
-304.837	203.727	-0.087	0.169
-303.822	-171.172	0.330	0.014
-302.807	-200.000	-0.014	0.316
-301.793	331.163	-0.199	0.480
-300.778	-200.000	-0.057	-0.457
-299.764	25.370	0.105	-0.108
-298.749	51.505	0.191	-0.226
-297.735	225.586	0.271	-0.548
-296.720	800.000	0.037	-0.136
-295.705	-97.999	0.576	0.184
-294.691	-200.000	-0.017	0.134
-293.676	-93.572	-0.090	0.031
-292.662	343.803	0.039	-0.095
-291.647	11.177	0.084	-0.080
-290.632	800.000	0.075	-0.266
-289.618	-30.475	-0.242	0.171
-288.603	-37.825	0.115	-0.076
-287.589	-200.000	0.055	-0.320
-286.574	45.974	0.132	0.152
-285.559	481.502	-0.013	-0.036
-284.545	-99.536	-0.436	-0.136
-283.530	-64.254	0.128	0.065
-282.516	800.000	0.031	0.113
-281.501	-95.357	-0.318	-0.106
-280.486	-128.961	0.390	0.068
-279.472	-25.227	-0.342	0.252
-278.457	-119.781	-0.468	-0.100
-277.443	-103.296	0.283	0.083
-276.428	-56.051	-0.140	-0.078
-275.413	245.169	-0.090	-0.188
-274.399	162.378	0.178	-0.311
-273.384	-72.750	-0.127	0.058
-272.370	-62.176	-0.342	0.177
-271.355	50.657	-0.115	-0.136
-270.340	109.069	-0.060	-0.090
-269.326	84.356	-0.056	0.077
-268.311	59.214	0.424	-0.520
-267.297	-200.000	-0.046	-0.290
-266.282	86.937	-0.309	-0.425
-265.267	91.196	-0.232	0.325
-264.253	-65.114	-0.246	-0.123
-263.238	58.392	-0.107	0.131
-262.224	-74.645	-0.304	-0.136
-261.209	-79.789	-0.325	-0.135
-260.195	103.815	0.074	0.109
-259.180	-89.321	0.466	0.170
-258.165	-200.000	0.011	0.170
-257.151	288.590	-0.053	0.121
-256.136	-200.000	0.022	-0.250
-255.122	75.385	-0.298	-0.392
-254.107	168.877	-0.224	0.398
-253.092	29.982	-0.171	0.182
-252.078	800.000	0.036	0.128
-251.063	800.000	0.036	0.176
-250.049	93.050	0.122	0.172
-249.034	33.705	0.058	-0.063
-248.019	539.178	-0.069	-0.205
-247.005	29.017	0.125	0.132
-245.990	-162.225	0.340	-0.021
-244.976	-44.919	-0.649	0.401
-243.961	-49.496	-0.389	0.230
-242.946	-164.580	-0.549	-0.030
-241.932	295.001	-0.066	-0.151
-240.917	709.398	0.074	0.245
-239.903	103.845	0.172	0.251
-238.888	-13.736	-0.343	0.276
-237.873	410.838	-0.148	0.391
-236.859	-84.903	0.421	0.163
-235.844	524.252	0.109	-0.321
-234.830	-3.920	-0.268	0.231
-233.815	-15.818	-0.155	0.123
-232.800	-53.522	0.139	-0.079
-231.786	-147.597	0.107	0.011
-230.771	-98.056	0.545	0.173
-229.757	-123.640	0.165	-0.032
-228.742	-200.000	0.044	0.474
-227.727	-124.000	0.224	-0.043
-226.713	-32.551	0.391	-0.270
-225.698	-56.609	0.443	-0.243
-224.684	-54.723	0.247	-0.138
-223.669	-200.000	-0.028	-0.730
-222.655	-127.449	0.169	0.030
-221.640	436.054	0.115	-0.311
-220.625	800.000	-0.098	0.344
-219.611	548.546	-0.061	0.184
-218.596	-179.257	0.346	0.009
-217.582	-103.366	-0.472	-0.137
-216.567	-114.544	0.151	0.036
-215.552	800.000	-0.149	0.589
-214.538	800.000	0.033	0.175
-213.523	800.000	0.148	0.567
-212.509	433.442	-0.034	0.091
-211.494	-25.823	-0.122	0.089
-210.479	800.000	0.029	-0.144
-209.465	-9.467	-0.353	0.293
-208.450	-117.370	0.123	-0.028
-207.436	-36.962	0.299	-0.199
-206.421	-166.168	-0.175	-0.009
-205.406	800.000	-0.048	-0.249
-204.392	-38.259	0.538	0.353
-203.377	-92.455	0.487	-0.169
-202.363	-60.924	-0.243	-0.127
-201.348	52.175	-0.115	0.136
-200.333	-104.153	0.292	0.084
-199.319	1.674	0.151	0.135
-198.304	156.981	0.094	-0.162
-197.290	-147.398	0.186	-0.019
-196.275	-24.976	-0.293	0.216
-195.260	-56.959	-0.318	-0.173
-194.246	-21.975	-0.198	0.149
-193.231	252.861	-0.087	0.184
-192.217	375.706	0.238	0.604
-191.202	800.000	0.015	0.055
-190.187	83.336	0.245	-0.332
-189.173	21.822	0.126	-0.127
-188.158	0.392	0.402	-0.356
-187.144	-113.177	-1.172	-0.284
-186.129	190.272	0.304	0.568
-185.114	-137.684	0.214	0.030
-184.100	181.894	-0.184	0.338
-183.085	-200.000	0.001	0.025
-182.071	800.000	-0.131	-0.548
-181.056	652.178	0.050	-0.159
-180.042	-99.736	0.525	0.162
-179.027	-85.458	0.339	-0.130
-178.012	-93.042	0.402	-0.138
-176.998	78.644	0.192	-0.255
-175.983	109.526	-0.141	-0.209
-174.969	185.135	-0.186	-0.343
-173.954	19.871	-0.301	-0.301
-172.939	-119.024	0.668	0.144
-171.925	-76.737	0.229	-0.099
-170.910	-25.422	-0.101	-0.074
-169.896	255.865	-0.214	-0.456
-168.881	-30.474	0.394	0.277
-167.866	26.010	-0.159	0.164
-166.852	429.589	-0.101	-0.271
-165.837	27.156	-0.287	0.298
-164.823	50.200	0.184	-0.215
-163.808	-200.000	0.011	-0.736
-162.793	11.655	-0.229	0.218
-161.779	216.454	-0.078	-0.155
-160.764	-42.125	0.214	-0.135
-159.750	54.066	0.194	0.232
-158.735	800.000	0.056	-0.285
-157.720	-112.055	-0.038	0.009
-156.706	283.609	0.047	-0.105
-155.691	-143.336	-0.205	-0.024
-154.677	18.037	-0.068	-0.067
-153.662	-138.506	-0.260	-0.035
-152.647	576.870	0.101	-0.307
-151.633	8.138	0.280	0.260
-150.618	-30.539	0.219	-0.154
-149.604	-38.052	0.448	-0.294
-148.589	-118.354	0.259	-0.057
-147.574	-200.000	0.059	0.409
-146.560	580.262	0.069	-0.212
-145.545	-144.495	-0.481	0.055
-144.531	-26.287	-0.099	0.072
-143.516	-200.000	0.023	0.141
-142.502	-200.000	-0.007	0.147
-141.487	372.676	0.266	0.673
-140.472	-200.000	0.004	-0.178
-139.458	20.251	0.341	-0.341
-138.443	-200.000	0.003	0.275
-137.429	128.872	0.174	0.276
-136.414	174.664	-0.234	0.421
-135.399	-46.764	0.125	-0.075
-134.385	-76.500	0.280	0.121
-133.370	471.313	-0.209	-0.585
-132.356	800.000	-0.111	-0.437
-131.341	-13.226	-0.209	-0.168
-130.326	337.329	-0.136	-0.330
-129.312	-73.389	-0.234	-0.105
-128.297	-200.000	0.005	-0.217
-127.283	76.272	0.207	0.272
-126.268	-101.272	0.144	-0.043
-125.253	216.460	-0.195	-0.386
-124.239	-46.047	-0.095	-0.058
-123.224	-163.152	-0.269	0.016
-122.210	-30.829	-0.270	0.188
-121.195	-124.792	-0.089	0.017
-120.180	-73.803	0.608	0.272
