DTS Sentinel unit serial number:	SN409020Multiplexer serial number:	ORYXHardware model number:	OX4-SRSoftware version number:	ORYX F/W v3.00 Oryx Data Collector v3.7.2.0data status	okinstallation	HaddamTimeLapsedifferential loss correction	single-endedforward channel	channel 3reverse channel	N/Adate	2011/06/22time	07:11:17forward acquisition time	30.00reverse acquisition time	0.00gamma	498.7831k internal	0.1753k external	0.1753temperature offset calibration	1.0074default loss term (dB/km)	0.3790temperature slope calibration	1.3530multiplexer offset coefficient	1.0000multiplexer slope coefficient	1.0000fibre end	0.00T internal ref (°C)	22.91T ext. ref 1 (°C)	19.64T ext. ref 2 (°C)	0.13length (m)	temperature (°C)	Stokes	anti-Stokes-747.200	24.053	0.354	-0.388
-746.185	-40.970	0.469	0.321
-745.171	-96.553	0.314	-0.109
-744.156	453.881	0.215	0.636
-743.142	-18.052	-0.395	-0.328
-742.127	-119.291	-0.148	0.034
-741.112	-15.289	0.373	0.316
-740.098	40.453	-0.280	0.335
-739.083	-37.826	-0.275	-0.194
-738.069	51.965	-0.230	0.291
-737.054	-122.674	-0.282	0.060
-736.039	800.000	-0.047	0.221
-735.025	-200.000	-0.588	0.003
-734.010	0.665	0.247	-0.234
-732.996	154.071	0.171	0.313
-731.981	-80.653	-0.405	-0.178
-730.966	-59.979	-0.149	-0.084
-729.952	-200.000	0.053	0.859
-728.937	109.913	0.148	0.235
-727.923	800.000	0.123	-0.708
-726.908	65.537	0.163	0.219
-725.894	-126.410	0.079	0.016
-724.879	260.431	0.077	0.177
-723.864	-115.665	0.451	0.111
-722.850	-15.406	0.108	0.092
-721.835	-172.511	-0.217	-0.009
-720.821	25.829	0.237	-0.261
-719.806	-50.467	-0.236	0.147
-718.791	-26.031	-0.400	-0.311
-717.777	541.355	-0.061	0.195
-716.762	-50.080	0.145	-0.091
-715.748	471.125	-0.090	-0.269
-714.733	32.296	-0.157	0.180
-713.718	800.000	-0.041	-0.204
-712.704	9.024	-0.233	0.233
-711.689	89.280	-0.103	-0.152
-710.675	-107.220	-0.328	-0.095
-709.660	800.000	-0.069	0.352
-708.645	-200.000	0.039	0.295
-707.631	-200.000	0.001	-0.010
-706.616	338.434	-0.027	-0.070
-705.602	73.044	0.059	-0.082
-704.587	39.107	0.147	0.174
-703.572	-93.926	0.434	-0.157
-702.558	-100.672	-0.002	0.001
-701.543	6.373	-0.362	0.356
-700.529	-200.000	-0.044	0.334
-699.514	-200.000	-0.014	0.174
-698.499	-103.717	-0.600	-0.185
-697.485	-200.000	-0.021	-0.193
-696.470	242.181	0.056	-0.124
-695.456	-10.462	0.206	-0.180
-694.441	32.407	-0.217	-0.249
-693.426	-85.457	-0.208	-0.086
-692.412	-75.552	-0.180	0.084
-691.397	-142.957	-0.586	-0.074
-690.383	-34.177	0.205	0.149
-689.368	31.970	0.100	0.114
-688.354	150.537	-0.323	-0.583
-687.339	-88.643	0.350	-0.137
-686.324	800.000	0.033	0.139
-685.310	128.121	0.057	-0.097
-684.295	-101.076	-0.126	0.041
-683.281	-137.677	-0.268	0.040
-682.266	224.338	-0.072	0.155
-681.251	-110.908	-0.739	-0.200
-680.237	-29.799	0.251	0.189
-679.222	115.480	-0.027	-0.044
-678.208	308.216	-0.088	0.218
-677.193	-64.917	-0.449	0.240
-676.178	-95.474	-0.204	0.072
-675.164	-123.650	0.503	0.105
-674.149	191.886	0.117	-0.234
-673.135	51.079	0.105	-0.132
-672.120	315.357	0.106	0.265
-671.105	-40.149	-0.027	-0.019
-670.091	-125.185	0.321	0.064
-669.076	684.491	0.068	0.235
-668.062	218.140	-0.154	0.327
-667.047	800.000	-0.035	-0.138
-666.032	-160.747	-0.228	0.016
-665.018	164.697	0.063	-0.118
-664.003	-146.904	-0.174	-0.020
-662.989	-11.890	-0.380	0.329
-661.974	5.025	-0.272	-0.264
-660.959	47.120	0.317	-0.390
-659.945	493.630	0.113	-0.345
-658.930	-161.327	0.177	0.012
-657.916	163.411	0.239	0.445
-656.901	-50.908	0.275	-0.170
-655.886	34.141	0.074	0.085
-654.872	-52.918	-0.415	-0.252
-653.857	-153.110	0.257	-0.024
-652.843	-48.437	0.346	0.219
-651.828	-105.637	0.342	0.102
-650.814	18.593	0.068	0.072
-649.799	-31.517	-0.375	0.278
-648.784	-120.891	0.225	0.050
-647.770	239.753	0.075	0.165
-646.755	-152.835	0.187	-0.017
-645.741	-85.936	0.659	-0.268
-644.726	-200.000	-0.079	0.566
-643.711	-200.000	0.058	0.621
-642.697	-144.869	-0.289	-0.035
-641.682	-200.000	0.054	-0.464
-640.668	-76.750	-0.319	-0.147
-639.653	-75.061	-0.368	-0.173
-638.638	-179.409	-0.648	0.018
-637.624	27.639	-0.085	0.094
-636.609	12.080	0.117	-0.119
-635.595	-8.375	0.058	0.051
-634.580	-200.000	-0.049	0.330
-633.565	69.237	0.159	-0.216
-632.551	-56.869	0.202	-0.117
-631.536	-82.566	-0.123	-0.052
-630.522	-169.235	-0.333	-0.016
-629.507	66.793	-0.140	-0.189
-628.492	189.318	-0.119	0.236
-627.478	-184.651	-0.601	-0.013
-626.463	-116.941	0.467	-0.112
-625.449	-34.331	-0.095	-0.069
-624.434	-112.346	-0.494	0.130
-623.419	-100.940	-0.156	0.050
-622.405	-200.000	-0.010	-0.201
-621.390	800.000	-0.125	0.462
-620.376	-119.065	-0.497	-0.114
-619.361	800.000	-0.081	-0.334
-618.346	-68.330	-0.244	-0.125
-617.332	800.000	-0.075	0.374
-616.317	78.609	-0.114	-0.161
-615.303	-141.539	-0.167	0.022
-614.288	415.505	0.084	0.239
-613.273	-64.076	-0.253	0.136
-612.259	348.708	-0.192	-0.504
-611.244	800.000	0.084	0.396
-610.230	-200.000	-0.012	0.519
-609.215	-200.000	-0.097	-0.574
-608.201	76.231	0.226	-0.316
-607.186	-62.448	-0.465	-0.254
-606.171	-87.825	-0.291	-0.115
-605.157	-46.353	-0.314	0.203
-604.142	800.000	-0.043	0.160
-603.128	129.068	0.079	0.133
-602.113	-75.686	-0.152	0.071
-601.098	126.397	0.256	-0.429
-600.084	161.842	-0.137	-0.253
-599.069	-86.962	0.749	0.300
-598.055	757.834	0.082	-0.294
-597.040	-119.106	-0.083	-0.019
-596.025	800.000	-0.066	0.368
-595.011	664.605	-0.039	-0.135
-593.996	26.621	0.292	-0.323
-592.982	-200.000	-0.046	-0.278
-591.967	800.000	-0.074	-0.410
-590.952	-69.784	-0.221	-0.111
-589.938	119.059	0.124	0.202
-588.923	-200.000	0.004	0.280
-587.909	-59.465	-0.565	-0.319
-586.894	-200.000	0.004	-0.141
-585.879	-190.431	0.556	-0.008
-584.865	-119.599	-0.269	0.061
-583.850	-121.810	-0.259	0.056
-582.836	-151.312	0.176	0.017
-581.821	-30.898	-0.293	-0.218
-580.806	-58.552	-0.110	-0.062
-579.792	-76.244	0.394	0.183
-578.777	-120.253	0.212	-0.047
-577.763	113.289	-0.227	0.363
-576.748	-200.000	0.027	0.718
-575.733	274.897	-0.079	0.185
-574.719	-12.821	-0.343	-0.294
-573.704	73.480	0.115	0.159
-572.690	-6.704	0.366	0.328
-571.675	518.967	-0.050	-0.155
-570.661	800.000	-0.115	-0.438
-569.646	60.216	-0.184	0.240
-568.631	243.062	0.091	0.203
-567.617	489.978	-0.130	-0.395
-566.602	396.103	-0.115	0.317
-565.588	-200.000	-0.028	-0.193
-564.573	-66.473	-0.177	0.092
-563.558	-200.000	-0.292	0.001
-562.544	95.626	0.285	0.428
-561.529	-12.760	-0.189	0.162
-560.515	-82.228	-0.199	0.085
-559.500	-194.250	0.353	-0.004
-558.485	-53.319	0.265	-0.159
-557.471	664.010	-0.046	0.156
-556.456	172.082	-0.191	-0.362
-555.442	-200.000	0.003	-0.235
-554.427	-89.712	-0.161	0.062
-553.412	-130.139	-0.251	0.045
-552.398	95.402	-0.088	-0.132
-551.383	3.433	0.094	0.090
-550.369	208.621	-0.166	-0.344
-549.354	-98.123	0.075	0.025
-548.339	-43.056	-0.328	0.218
-547.325	-200.000	0.011	-0.126
-546.310	-69.987	0.137	0.068
-545.296	-125.604	0.535	0.106
-544.281	-200.000	-0.005	-0.052
-543.266	-3.642	0.415	0.379
-542.252	-110.448	0.297	0.081
-541.237	200.415	0.322	-0.652
-540.223	-56.618	0.235	-0.136
-539.208	-55.520	-0.203	-0.119
-538.193	-17.195	-0.667	0.553
-537.179	-83.631	-0.135	-0.057
-536.164	70.169	-0.155	0.212
-535.150	-200.000	0.026	0.584
-534.135	-200.000	0.027	0.547
-533.121	800.000	-0.036	-0.148
-532.106	-101.456	0.410	0.131
-531.091	800.000	-0.015	0.055
-530.077	479.086	0.125	-0.375
-529.062	405.861	0.079	-0.219
-528.048	473.447	-0.074	0.221
-527.033	4.996	0.155	0.150
-526.018	331.636	-0.070	0.180
-525.004	-34.295	-0.119	-0.085
-523.989	-5.031	0.111	0.101
-522.975	-137.897	-0.205	-0.030
-521.960	-138.957	0.408	0.058
-520.945	-200.000	0.024	0.608
-519.931	181.929	0.160	0.311
-518.916	154.968	0.100	0.181
-517.902	-200.000	0.003	0.069
-516.887	800.000	0.018	-0.091
-515.872	574.600	-0.106	-0.343
-514.858	-29.603	-0.274	0.206
-513.843	-130.820	-0.391	0.068
-512.829	10.837	0.442	-0.444
-511.814	-151.987	0.191	-0.018
-510.799	-69.770	-0.311	-0.156
-509.785	430.832	0.032	0.091
-508.770	-80.347	0.119	0.052
-507.756	702.148	0.111	0.386
-506.741	256.988	-0.051	0.116
-505.726	800.000	-0.092	-0.514
-504.712	275.393	-0.068	0.159
-503.697	130.157	0.208	-0.352
-502.683	-133.317	-0.333	0.055
-501.668	-200.000	-0.022	-0.628
-500.653	-84.908	0.792	0.325
-499.639	-111.907	-0.654	0.172
-498.624	800.000	0.027	-0.105
-497.610	132.470	-0.081	-0.138
-496.595	625.226	0.126	-0.420
-495.581	-91.178	0.299	-0.112
-494.566	-146.390	0.166	0.019
-493.551	30.402	0.079	-0.088
-492.537	-117.869	-0.509	0.119
-491.522	33.270	0.242	-0.277
-490.508	-101.049	0.548	-0.175
-489.493	-200.000	-0.027	-0.499
-488.478	84.404	-0.241	0.347
-487.464	195.260	-0.216	0.433
-486.449	-88.654	-0.389	0.151
-485.435	-5.321	0.154	-0.139
-484.420	-48.817	-0.138	-0.087
-483.405	55.456	0.026	0.033
-482.391	-60.248	0.374	0.209
-481.376	167.561	-0.105	0.196
-480.362	6.131	0.210	-0.205
-479.347	22.095	-0.276	-0.296
-478.332	64.776	-0.101	-0.134
-477.318	-67.204	0.088	-0.045
-476.303	591.980	0.046	-0.151
-475.289	-97.507	-0.593	-0.201
-474.274	249.904	-0.089	0.198
-473.259	-105.600	-0.624	-0.184
-472.245	-138.465	-0.414	-0.059
-471.230	196.367	0.139	-0.278
-470.216	-68.096	-0.645	-0.329
-469.201	-24.969	-0.245	0.190
-468.186	-200.000	-0.018	-0.134
-467.172	-114.860	-0.518	-0.129
-466.157	-200.000	0.069	-0.647
-465.143	94.081	0.236	-0.352
-464.128	-38.454	0.393	-0.272
-463.113	-96.754	0.063	-0.022
-462.099	-37.583	-0.289	0.202
-461.084	10.244	0.184	0.184
-460.070	79.256	-0.087	-0.123
-459.055	-87.845	-0.384	-0.151
-458.040	-200.000	0.011	0.385
-457.026	-93.353	-0.466	-0.169
-456.011	419.759	-0.052	-0.146
-454.997	68.754	0.149	0.201
-453.982	477.735	-0.141	-0.419
-452.968	-7.971	-0.181	-0.160
-451.953	-12.236	0.074	0.064
-450.938	-111.402	0.222	-0.059
-449.924	107.801	-0.147	0.231
-448.909	-154.528	-0.213	-0.018
-447.895	-17.092	0.262	0.216
-446.880	-107.549	0.595	0.170
-445.865	-79.151	0.242	-0.107
-444.851	193.579	-0.201	-0.401
-443.836	687.853	0.162	0.557
-442.822	-81.582	-0.154	-0.066
-441.807	-200.000	0.022	0.159
-440.792	-43.869	0.288	-0.190
-439.778	-78.471	0.098	0.044
-438.763	-200.000	-0.026	0.305
-437.749	11.425	0.174	-0.175
-436.734	59.296	-0.135	-0.174
-435.719	69.674	-0.260	0.351
-434.705	-137.193	-0.069	-0.010
-433.690	-102.998	-0.683	0.211
-432.676	-80.912	0.130	-0.056
-431.661	116.566	0.173	0.279
-430.646	-139.017	-0.187	0.026
-429.632	-88.704	0.150	0.058
-428.617	-60.127	0.305	0.170
-427.603	47.997	0.082	0.101
-426.588	-92.001	0.100	-0.037
-425.573	243.430	0.100	-0.220
-424.559	403.103	0.133	-0.369
-423.544	-3.906	-0.254	-0.231
-422.530	-200.000	0.028	0.449
-421.515	-173.242	0.512	0.020
-420.500	214.216	-0.108	0.225
-419.486	-200.000	-0.000	-0.406
-418.471	9.429	-0.084	-0.083
-417.457	-88.949	-0.317	0.123
-416.442	-192.820	0.209	0.002
-415.428	800.000	-0.091	-0.456
-414.413	318.869	-0.072	0.179
-413.398	-23.951	-0.200	-0.156
-412.384	-97.062	0.409	-0.139
-411.369	800.000	0.092	0.378
-410.355	-200.000	-0.123	-0.751
-409.340	-172.773	0.460	0.018
-408.325	323.703	0.055	0.137
-407.311	192.615	-0.195	-0.386
-406.296	9.480	0.201	-0.199
-405.282	-33.542	0.235	-0.170
-404.267	452.446	0.148	0.431
-403.252	-92.196	0.486	0.179
-402.238	-17.796	0.329	0.270
-401.223	-123.240	0.553	-0.115
-400.209	-200.000	-0.004	-0.156
-399.194	-10.166	0.223	0.193
-398.179	123.691	0.136	0.225
-397.165	510.569	-0.122	0.372
-396.150	-165.256	0.537	0.031
-395.136	800.000	0.010	0.047
-394.121	-112.301	-0.355	0.093
-393.106	-167.626	-0.188	0.010
-392.092	81.548	0.154	-0.218
-391.077	800.000	-0.097	0.380
-390.063	27.804	0.206	0.227
-389.048	-92.022	-0.285	-0.105
-388.033	-6.976	-0.302	0.268
-387.019	-14.844	0.082	-0.069
-386.004	-95.123	0.156	-0.055
-384.990	12.574	0.364	-0.368
-383.975	-91.784	0.188	-0.069
-382.960	-112.713	0.247	0.064
-381.946	-81.528	0.149	-0.064
-380.931	-116.084	0.503	-0.122
-379.917	557.325	0.095	-0.300
-378.902	-141.059	-0.048	0.006
-377.888	-123.097	-0.166	-0.035
-376.873	39.267	-0.080	0.094
-375.858	-107.212	0.449	-0.128
-374.844	-2.763	0.397	-0.363
-373.829	-171.134	0.113	0.005
-372.815	-22.658	-0.367	0.289
-371.800	-61.900	0.423	0.231
-370.785	-103.751	0.324	0.099
-369.771	-200.000	0.001	-0.088
-368.756	284.040	0.126	-0.297
-367.742	-106.688	0.048	0.014
-366.727	-200.000	0.041	0.267
-365.712	161.596	0.044	0.081
-364.698	-17.525	0.167	0.137
-363.683	-103.053	-0.194	0.060
-362.669	-200.000	0.056	-0.370
-361.654	-95.656	0.206	0.071
-360.639	-36.316	-0.534	0.375
-359.625	412.381	0.048	-0.135
-358.610	800.000	-0.073	0.285
-357.596	800.000	0.153	0.606
-356.581	689.772	0.078	-0.269
-355.566	-88.908	-0.192	-0.074
-354.552	-151.903	0.184	0.017
-353.537	162.431	0.170	-0.312
-352.523	-23.667	-0.079	-0.062
-351.508	-164.243	-0.320	-0.019
-350.493	-117.797	-0.248	-0.058
-349.479	486.522	-0.065	-0.195
-348.464	-30.915	-0.073	0.054
-347.450	-116.185	0.589	-0.142
-346.435	65.610	-0.103	-0.136
-345.420	335.033	-0.167	-0.425
-344.406	111.854	0.312	0.494
-343.391	49.296	0.376	-0.463
-342.377	107.831	-0.201	-0.313
-341.362	-200.000	0.028	-0.519
-340.348	156.501	0.246	0.445
-339.333	-12.579	-0.465	0.396
-338.318	276.512	0.046	0.106
-337.304	135.260	0.263	0.448
-336.289	-90.954	0.339	0.126
-335.275	538.154	-0.126	0.393
-334.260	-200.000	-0.036	0.225
-333.245	315.691	-0.129	0.320
-332.231	-41.390	0.237	0.159
-331.216	298.500	-0.046	0.112
-330.202	-117.643	0.450	-0.105
-329.187	125.899	0.350	-0.579
-328.172	-134.657	-0.337	0.053
-327.158	47.787	-0.334	-0.408
-326.143	-100.559	-0.585	0.187
-325.129	84.859	-0.344	0.493
-324.114	-107.933	0.585	-0.165
-323.099	521.306	-0.072	0.222
-322.085	-34.448	-0.376	-0.268
-321.070	241.396	0.175	0.383
-320.056	-40.208	-0.264	0.179
-319.041	-54.968	-0.271	-0.159
-318.026	-123.457	0.277	0.057
-317.012	175.862	0.176	-0.335
-315.997	-69.785	-0.110	0.055
-314.983	-200.000	0.063	0.413
-313.968	-92.530	-0.619	-0.226
-312.953	73.209	0.110	-0.150
-311.939	-132.747	0.497	-0.082
-310.924	8.097	-0.278	0.272
-309.910	-62.210	0.477	0.258
-308.895	286.439	0.096	-0.228
-307.880	-43.452	-0.253	0.167
-306.866	80.921	0.167	0.235
-305.851	-44.121	-0.245	-0.160
-304.837	-200.000	-0.037	0.256
-303.822	-84.536	0.390	0.160
-302.807	174.396	-0.198	-0.375
-301.793	98.532	-0.208	-0.313
-300.778	-115.700	-0.228	-0.055
-299.764	-16.130	0.327	-0.270
-298.749	-21.342	0.148	-0.117
-297.735	-147.133	-0.526	-0.058
-296.720	-120.592	0.319	-0.070
-295.705	-200.000	-0.043	0.588
-294.691	80.913	0.422	0.594
-293.676	-138.994	-0.864	-0.121
-292.662	-149.784	0.070	-0.007
-291.647	75.995	-0.184	-0.254
-290.632	-54.119	0.594	-0.351
-289.618	392.026	-0.166	-0.453
-288.603	-39.044	-0.388	-0.265
-287.589	-72.904	-0.195	-0.093
-286.574	-200.000	0.001	-0.035
-285.559	-152.606	0.367	-0.034
-284.545	-200.000	0.027	-0.304
-283.530	-67.614	0.301	-0.153
-282.516	38.947	-0.242	-0.281
-281.501	-200.000	0.010	-0.152
-280.486	-159.669	-0.525	0.037
-279.472	289.875	-0.137	-0.326
-278.457	688.012	0.034	-0.118
-277.443	-75.590	-0.385	-0.178
-276.428	-0.726	-0.299	-0.276
-275.413	223.046	-0.290	-0.612
-274.399	-200.000	-0.033	0.309
-273.384	-200.000	-0.052	0.330
-272.370	5.521	0.266	0.255
-271.355	253.402	-0.203	0.452
-270.340	800.000	0.118	0.470
-269.326	542.075	-0.182	0.570
-268.311	134.458	-0.076	0.129
-267.297	-200.000	0.066	0.399
-266.282	-13.685	-0.306	0.257
-265.267	-89.776	-0.136	0.052
-264.253	-53.674	0.563	-0.334
-263.238	-40.102	-0.249	0.168
-262.224	10.734	-0.355	0.353
-261.209	-128.139	0.194	-0.036
-260.195	-20.772	-0.347	-0.277
-259.180	-82.991	0.306	0.128
-258.165	-102.837	-0.308	-0.095
-257.151	37.195	-0.083	-0.096
-256.136	194.611	-0.100	0.198
-255.122	-123.252	-0.455	-0.094
-254.107	-122.052	-0.753	-0.160
-253.092	-135.047	0.473	-0.074
-252.078	-155.979	0.238	-0.019
-251.063	-24.447	0.420	0.325
-250.049	800.000	0.083	0.318
-249.034	-100.088	0.510	-0.164
-248.019	-200.000	0.004	-0.607
-247.005	-109.059	0.325	0.089
-245.990	-147.434	0.434	-0.047
-244.976	-147.616	0.369	0.040
-243.961	-42.511	0.232	-0.154
-242.946	-129.378	0.218	-0.039
-241.932	307.754	-0.122	0.297
-240.917	-100.250	-0.473	0.152
-239.903	-53.188	-0.685	-0.408
-238.888	-40.322	0.181	-0.122
-237.873	-162.006	-0.358	0.023
-236.859	800.000	-0.087	-0.327
-235.844	174.245	-0.203	0.383
-234.830	-200.000	-0.016	0.286
-233.815	-19.354	0.295	0.238
-232.800	-200.000	-0.050	-0.332
-231.786	-100.492	0.388	-0.124
-230.771	-51.216	0.322	-0.196
-229.757	-113.585	-0.499	-0.126
-228.742	-91.575	0.504	0.186
-227.727	-116.173	0.425	-0.102
-226.713	-64.699	0.183	-0.096
-225.698	-109.555	0.096	-0.026
-224.684	-63.064	0.478	0.256
-223.669	191.379	0.020	-0.038
-222.655	-106.594	0.263	-0.076
-221.640	-39.653	0.434	0.295
-220.625	-38.416	0.060	0.042
-219.611	-53.816	-0.109	-0.064
-218.596	-200.000	0.016	-0.429
-217.582	61.646	0.284	-0.367
-216.567	-97.608	0.288	0.096
-215.552	-25.929	0.098	-0.074
-214.538	-7.564	0.087	-0.077
-213.523	-6.796	-0.290	-0.256
-212.509	-1.102	0.297	-0.272
-211.494	529.267	-0.076	-0.233
-210.479	-123.064	0.103	0.021
-209.465	46.187	0.245	0.295
-208.450	158.066	-0.250	0.451
-207.436	67.274	0.255	0.338
-206.421	28.143	0.218	0.239
-205.406	800.000	0.025	0.126
-204.392	121.280	-0.136	-0.221
-203.377	-89.393	0.286	-0.109
-202.363	-79.510	-0.528	0.231
-201.348	90.303	-0.068	-0.099
-200.333	-122.486	0.151	0.032
-199.319	-124.345	0.090	0.018
-198.304	-14.427	-0.541	0.452
-197.290	800.000	0.071	-0.270
-196.275	-93.685	-0.132	-0.047
-195.260	52.724	-0.311	0.386
-194.246	-200.000	-0.061	-0.369
-193.231	-171.685	0.499	0.021
-192.217	159.801	0.259	-0.469
-191.202	-186.366	0.169	0.003
-190.187	4.916	0.371	-0.354
-189.173	277.136	-0.115	-0.265
-188.158	131.641	-0.169	-0.283
-187.144	-116.517	0.141	-0.033
-186.129	800.000	-0.104	-0.397
-185.114	800.000	-0.041	0.213
-184.100	-63.586	-0.027	0.014
-183.085	-42.815	0.305	0.201
-182.071	-145.309	-0.333	0.039
-181.056	-200.000	0.075	0.455
-180.042	-89.884	-0.114	-0.043
-179.027	30.524	-0.111	0.123
-178.012	94.679	-0.228	0.338
-176.998	800.000	-0.061	0.289
-175.983	800.000	-0.202	-0.748
-174.969	172.457	0.172	0.323
-173.954	800.000	0.096	0.381
-172.939	135.714	0.023	-0.039
-171.925	800.000	0.106	-0.521
-170.910	604.714	0.132	-0.430
-169.896	406.028	0.207	0.570
-168.881	528.034	-0.161	-0.494
-167.866	-165.201	0.462	0.026
-166.852	145.790	-0.103	0.179
-165.837	188.677	0.215	0.419
-164.823	-171.223	0.070	-0.003
-163.808	-77.431	0.288	0.129
-162.793	68.928	0.042	0.056
-161.779	633.793	0.024	0.079
-160.764	100.438	0.046	-0.069
-159.750	-163.681	-0.558	-0.034
-158.735	800.000	0.045	0.170
-157.720	-30.374	-0.470	0.345
-156.706	-44.183	-0.392	0.254
-155.691	-23.821	-0.164	-0.127
-154.677	-38.652	0.157	0.107
-153.662	-154.926	-0.147	0.012
-152.647	-69.419	0.188	0.093
-151.633	-97.571	0.030	0.010
-150.618	96.597	-0.167	0.249
-149.604	-64.672	0.569	-0.298
-148.589	-108.674	-0.079	-0.022
-147.574	-200.000	0.029	-0.227
-146.560	114.389	0.146	-0.230
-145.545	-200.000	-0.017	0.108
-144.531	364.222	0.247	-0.646
-143.516	-52.408	0.251	0.150
-142.502	65.132	0.310	0.407
-141.487	-91.681	-0.147	-0.054
-140.472	-54.821	0.097	0.057
-139.458	-3.235	0.302	-0.273
-138.443	-8.379	0.103	0.090
-137.429	129.722	-0.101	0.168
-136.414	-200.000	-0.030	0.783
-135.399	-200.000	0.019	0.395
-134.385	800.000	0.037	0.141
-133.370	141.448	0.106	0.182
-132.356	-200.000	-0.032	0.409
-131.341	373.652	-0.134	-0.354
-130.326	-9.835	0.078	-0.067
-129.312	79.095	0.160	-0.222
-128.297	-75.548	0.463	0.212
-127.283	-74.411	-0.315	0.147
-126.268	-22.572	-0.261	-0.204
-125.253	121.171	0.198	0.320
-124.239	-23.445	0.225	0.175
-123.224	-8.703	0.394	0.342
-122.210	-25.994	-0.077	0.058
-121.195	37.819	0.370	-0.425
