DTS Sentinel unit serial number:	SN409020Multiplexer serial number:	ORYXHardware model number:	OX4-SRSoftware version number:	ORYX F/W v3.00 Oryx Data Collector v3.7.2.0data status	okinstallation	HaddamTimeLapsedifferential loss correction	single-endedforward channel	channel 3reverse channel	N/Adate	2011/06/21time	14:01:17forward acquisition time	30.00reverse acquisition time	0.00gamma	498.7831k internal	0.1820k external	0.1820temperature offset calibration	1.0074default loss term (dB/km)	0.3790temperature slope calibration	1.3530multiplexer offset coefficient	1.0000multiplexer slope coefficient	1.0000fibre end	0.00T internal ref (°C)	37.12T ext. ref 1 (°C)	33.69T ext. ref 2 (°C)	0.23length (m)	temperature (°C)	Stokes	anti-Stokes-747.200	55.004	0.214	0.264
-746.185	3.025	0.309	0.287
-745.171	-200.000	0.016	0.206
-744.156	800.000	0.154	0.696
-743.142	800.000	-0.069	0.273
-742.127	101.608	0.258	0.385
-741.112	2.591	0.420	-0.388
-740.098	133.453	0.065	0.107
-739.083	321.857	0.258	-0.630
-738.069	-118.266	-0.207	-0.047
-737.054	-138.370	0.341	0.048
-736.039	800.000	-0.106	-0.463
-735.025	-25.256	-0.287	0.217
-734.010	286.975	-0.072	-0.168
-732.996	79.113	-0.041	-0.056
-731.981	174.472	0.080	-0.148
-730.966	-200.000	-0.085	-0.558
-729.952	800.000	-0.064	-0.310
-728.937	-154.186	-0.360	-0.031
-727.923	152.055	-0.095	-0.166
-726.908	-200.000	0.012	0.204
-725.894	-200.000	0.051	0.358
-724.879	-106.243	-0.420	-0.119
-723.864	484.896	-0.210	0.613
-722.850	187.665	-0.162	0.309
-721.835	-26.884	-0.314	-0.234
-720.821	-30.790	-0.707	0.509
-719.806	-150.745	0.268	-0.026
-718.791	-77.810	0.266	0.117
-717.777	-49.915	0.305	0.184
-716.762	19.161	0.350	0.358
-715.748	122.513	0.063	-0.102
-714.733	176.381	-0.155	0.288
-713.718	114.363	0.052	0.082
-712.704	800.000	-0.016	-0.059
-711.689	-200.000	0.036	0.265
-710.675	-65.625	-0.515	0.263
-709.660	-40.338	-0.430	0.284
-708.645	33.188	0.149	-0.165
-707.631	-124.851	0.167	-0.033
-706.616	800.000	0.118	0.647
-705.602	142.847	-0.272	0.463
-704.587	-200.000	0.008	0.452
-703.572	459.044	-0.105	-0.299
-702.558	-19.052	0.251	0.198
-701.543	374.435	-0.057	-0.149
-700.529	-41.109	0.213	-0.140
-699.514	183.412	0.172	0.326
-698.499	-12.262	0.295	0.246
-697.485	301.123	-0.090	-0.214
-696.470	-139.820	0.078	-0.010
-695.456	-109.905	0.274	-0.073
-694.441	-103.335	-0.347	-0.104
-693.426	576.374	-0.136	0.425
-692.412	-66.531	-0.299	0.151
-691.397	105.026	0.126	0.191
-690.383	21.275	-0.203	-0.210
-689.368	-103.199	0.075	-0.023
-688.354	-151.900	0.243	0.022
-687.339	291.163	0.195	0.455
-686.324	-50.860	-0.463	0.277
-685.310	-116.969	0.277	0.064
-684.295	-9.224	0.251	0.214
-683.281	-179.810	0.644	-0.017
-682.266	-71.878	-0.046	0.022
-681.251	252.116	-0.210	0.459
-680.237	-200.000	0.015	-0.175
-679.222	-89.646	0.270	-0.100
-678.208	-72.694	-0.148	-0.069
-677.193	36.256	-0.088	-0.099
-676.178	-200.000	-0.086	-0.581
-675.164	249.450	-0.209	-0.453
-674.149	-150.740	-0.309	0.030
-673.135	23.906	-0.316	-0.332
-672.120	189.815	0.227	-0.436
-671.105	65.283	0.230	-0.297
-670.091	-129.922	-0.196	-0.034
-669.076	-141.316	-0.558	-0.072
-668.062	-82.003	-0.432	-0.179
-667.047	-12.350	-0.182	0.152
-666.032	-200.000	0.016	-0.150
-665.018	800.000	-0.070	-0.280
-664.003	-88.220	-0.325	0.123
-662.989	-37.532	-0.093	-0.063
-661.974	69.697	-0.299	-0.393
-660.959	199.763	-0.235	-0.460
-659.945	254.397	0.147	-0.321
-658.930	-200.000	0.014	0.081
-657.916	93.859	-0.380	-0.550
-656.901	193.738	-0.117	0.227
-655.886	-197.423	-0.442	0.003
-654.872	-151.125	-0.123	0.012
-653.857	-162.933	-0.176	-0.011
-652.843	800.000	0.041	-0.217
-651.828	800.000	-0.116	-0.508
-650.814	46.875	0.117	-0.139
-649.799	131.651	0.181	0.297
-648.784	-27.491	-0.446	-0.329
-647.770	-121.589	-0.379	-0.079
-646.755	164.751	-0.245	0.441
-645.741	-91.816	-0.200	-0.072
-644.726	267.164	-0.037	0.082
-643.711	-200.000	-0.040	-0.490
-642.697	-38.693	-0.209	-0.140
-641.682	371.008	0.196	-0.509
-640.668	-88.554	-0.723	-0.273
-639.653	179.437	-0.225	0.420
-638.638	-178.327	-0.280	0.008
-637.624	800.000	0.114	-0.495
-636.609	1.932	0.060	-0.055
-635.595	-200.000	0.127	-0.724
-634.580	82.631	0.284	0.393
-633.565	523.328	-0.031	-0.094
-632.551	111.296	0.187	0.287
-631.536	143.366	-0.088	-0.150
-630.522	45.013	-0.198	0.233
-629.507	-11.675	0.401	-0.335
-628.492	1.645	0.170	-0.156
-627.478	-200.000	0.003	0.074
-626.463	73.686	0.224	0.299
-625.449	-91.303	0.248	-0.090
-624.434	124.584	0.210	-0.338
-623.419	800.000	0.180	-0.732
-622.405	755.738	0.099	-0.343
-621.390	125.414	-0.169	-0.272
-620.376	-128.589	-0.196	-0.035
-619.361	-86.349	-0.276	-0.108
-618.346	723.304	0.053	0.180
-617.332	-108.624	-0.558	0.151
-616.317	286.053	0.206	0.474
-615.303	24.354	-0.094	-0.099
-614.288	800.000	-0.027	0.134
-613.273	-134.263	0.381	-0.059
-612.259	-33.979	-0.277	-0.193
-611.244	16.814	-0.299	-0.301
-610.230	-200.000	0.043	-0.354
-609.215	140.611	0.120	-0.201
-608.201	-17.786	0.439	0.350
-607.186	-45.186	-0.152	0.096
-606.171	18.915	-0.209	-0.213
-605.157	-200.000	0.032	-0.211
-604.142	-167.618	-0.472	0.024
-603.128	800.000	-0.099	-0.390
-602.113	95.175	-0.296	-0.429
-601.098	2.427	0.067	-0.062
-600.084	51.119	0.096	-0.116
-599.069	800.000	-0.044	0.223
-598.055	-88.736	0.634	-0.238
-597.040	-65.893	0.301	0.152
-596.025	275.297	0.094	0.214
-595.011	101.109	0.141	-0.208
-593.996	158.936	-0.206	-0.365
-592.982	-170.703	-0.454	0.020
-591.967	-65.861	0.553	0.280
-590.952	-20.450	0.203	-0.158
-589.938	800.000	-0.077	0.282
-588.923	27.440	-0.108	0.116
-587.909	-200.000	0.008	-0.370
-586.894	-59.463	0.015	-0.008
-585.879	-134.473	0.208	-0.032
-584.865	-170.273	0.248	-0.011
-583.850	-123.300	0.216	-0.044
-582.836	-200.000	-0.001	-0.336
-581.821	299.040	-0.053	0.125
-580.806	56.902	0.253	-0.313
-579.792	-49.253	-0.168	-0.102
-578.777	-65.069	0.041	-0.021
-577.763	-83.983	0.213	-0.086
-576.748	-200.000	0.013	0.112
-575.733	201.192	-0.239	0.469
-574.719	16.571	-0.161	-0.162
-573.704	800.000	0.136	-0.485
-572.690	-124.067	-0.161	-0.032
-571.675	-185.991	-0.339	0.006
-570.661	-99.048	-0.621	0.199
-569.646	292.094	-0.085	0.196
-568.631	35.143	0.315	0.351
-567.617	-197.688	0.190	0.001
-566.602	-200.000	-0.041	-0.432
-565.588	158.419	0.095	0.168
-564.573	800.000	0.062	-0.287
-563.558	-125.225	-0.377	-0.073
-562.544	464.725	0.155	-0.442
-561.529	-200.000	-0.000	0.039
-560.515	-0.036	-0.044	-0.040
-559.500	34.997	-0.362	0.403
-558.485	-134.662	-0.321	-0.049
-557.471	-156.217	0.395	0.031
-556.456	154.463	-0.267	0.466
-555.442	-74.196	-0.185	0.084
-554.427	42.453	0.139	-0.160
-553.412	-103.940	0.359	0.106
-552.398	184.880	0.056	0.105
-551.383	800.000	-0.036	0.188
-550.369	-43.300	0.289	-0.185
-549.354	-79.799	-0.209	0.089
-548.339	800.000	0.020	0.110
-547.325	-82.388	-0.250	0.103
-546.310	513.242	0.115	-0.342
-545.296	-64.453	0.122	0.063
-544.281	-52.765	0.103	-0.060
-543.266	50.963	-0.149	0.180
-542.252	-186.035	-0.089	0.002
-541.237	585.847	0.158	-0.496
-540.223	800.000	0.041	0.163
-539.208	-200.000	0.058	0.352
-538.193	-200.000	0.024	0.272
-537.179	-43.552	-0.211	0.135
-536.164	-200.000	0.032	0.269
-535.150	-99.174	-0.120	-0.038
-534.135	178.951	0.043	-0.080
-533.121	1.417	-0.282	-0.257
-532.106	-200.000	-0.097	0.591
-531.091	800.000	-0.026	0.096
-530.077	91.242	-0.173	0.247
-529.062	-15.635	-0.296	-0.239
-528.048	-185.928	-0.151	0.003
-527.033	-130.794	-0.370	-0.062
-526.018	22.304	0.168	-0.174
-525.004	110.772	-0.209	-0.319
-523.989	455.958	0.099	0.279
-522.975	-44.301	-0.278	-0.176
-521.960	-148.495	0.092	-0.009
-520.945	198.454	-0.080	0.155
-519.931	-30.997	-0.109	0.078
-518.916	481.788	-0.122	-0.353
-517.902	-183.786	0.131	0.003
-516.887	-200.000	0.111	-0.648
-515.872	-200.000	0.009	-0.318
-514.858	-134.892	0.331	0.050
-513.843	257.506	0.132	-0.289
-512.829	-52.639	0.615	-0.359
-511.814	800.000	-0.170	-0.648
-510.799	-124.756	-0.417	-0.081
-509.785	-33.674	0.249	0.174
-508.770	-66.782	-0.132	-0.066
-507.756	45.430	0.253	-0.296
-506.741	-136.883	-0.366	0.053
-505.726	-200.000	-0.036	0.490
-504.712	776.954	-0.075	0.261
-503.697	-200.000	-0.054	-0.395
-502.683	-152.032	-0.019	-0.002
-501.668	-66.244	-0.646	0.325
-500.653	-200.000	-0.055	0.456
-499.639	-12.282	0.446	0.368
-498.624	-128.777	0.417	-0.074
-497.610	800.000	0.018	0.091
-496.595	-129.434	0.177	0.031
-495.581	234.711	0.031	0.064
-494.566	776.619	0.066	0.231
-493.551	-151.429	0.222	-0.021
-492.537	75.586	0.097	-0.130
-491.522	26.710	0.217	-0.230
-490.508	76.836	0.168	-0.225
-489.493	-128.041	-0.346	-0.062
-488.478	800.000	0.051	-0.258
-487.464	-200.000	0.048	-0.483
-486.449	-127.341	-0.190	-0.035
-485.435	-159.371	0.717	0.050
-484.420	-25.662	0.328	0.245
-483.405	-43.907	-0.269	0.171
-482.391	-12.343	-0.285	0.235
-481.376	-118.121	-0.367	0.082
-480.362	168.716	-0.051	0.093
-479.347	-27.550	0.374	-0.274
-478.332	3.163	-0.095	-0.087
-477.318	800.000	0.046	-0.199
-476.303	-81.144	-0.239	0.099
-475.289	-109.671	0.063	0.017
-474.274	-200.000	0.003	-0.162
-473.259	-200.000	-0.019	-0.330
-472.245	-176.867	-0.491	0.015
-471.230	-117.309	-0.353	-0.080
-470.216	273.696	0.124	-0.279
-469.201	-184.660	0.147	0.003
-468.186	-89.849	0.325	-0.119
-467.172	-200.000	-0.012	0.251
-466.157	-65.125	0.236	0.120
-465.143	-10.555	0.479	-0.400
-464.128	-61.724	0.154	-0.081
-463.113	80.907	0.242	0.331
-462.099	-114.074	0.584	0.142
-461.084	-200.000	0.007	-0.107
-460.070	-93.064	-0.140	-0.049
-459.055	-75.803	0.206	-0.092
-458.040	-81.109	0.312	-0.130
-457.026	-34.556	-0.144	0.099
-456.011	131.435	-0.120	0.196
-454.997	-153.876	-0.378	0.032
-453.982	-1.661	-0.410	0.365
-452.968	632.316	-0.119	-0.382
-451.953	197.350	-0.089	-0.172
-450.938	1.751	0.028	0.025
-449.924	23.888	-0.208	-0.216
-448.909	67.244	-0.201	-0.259
-447.895	-200.000	0.018	-0.147
-446.880	-169.227	-0.441	-0.020
-445.865	-125.336	-0.486	0.093
-444.851	377.667	-0.145	0.377
-443.836	406.293	0.009	0.025
-442.822	-66.193	-0.631	0.316
-441.807	-152.154	0.396	-0.036
-440.792	-57.745	0.374	0.206
-439.778	121.430	0.416	0.656
-438.763	-78.606	0.231	0.099
-437.749	733.170	0.036	0.122
-436.734	-51.693	0.278	0.163
-435.719	42.762	0.267	-0.308
-434.705	-135.311	-0.145	-0.022
-433.690	43.973	0.066	0.077
-432.676	-200.000	-0.019	-0.147
-431.661	800.000	-0.059	-0.294
-430.646	-74.032	-0.209	0.095
-429.632	133.169	-0.094	-0.153
-428.617	-14.869	0.077	0.062
-427.603	-127.894	0.180	-0.032
-426.588	-96.944	0.224	-0.074
-425.573	-16.943	0.380	0.302
-424.559	33.262	0.430	-0.471
-423.544	479.148	-0.103	0.297
-422.530	-41.597	-0.128	-0.083
-421.515	-85.357	-0.179	0.070
-420.500	-78.420	0.092	-0.040
-419.486	-200.000	0.031	0.468
-418.471	-102.389	0.349	-0.105
-417.457	-200.000	-0.066	-0.538
-416.442	442.640	-0.090	-0.251
-415.428	-41.585	-0.323	0.209
-414.413	800.000	-0.094	-0.335
-413.398	51.801	-0.130	0.156
-412.384	-141.729	-0.228	0.029
-411.369	764.779	-0.088	0.302
-410.355	-80.978	-0.805	-0.335
-409.340	133.349	-0.071	0.116
-408.325	143.063	-0.296	-0.498
-407.311	-120.218	-0.307	0.066
-406.296	-68.806	-0.270	-0.131
-405.282	213.708	-0.165	0.331
-404.267	800.000	-0.121	0.625
-403.252	81.707	-0.215	-0.294
-402.238	-77.021	0.309	0.135
-401.223	441.227	0.116	-0.321
-400.209	102.762	0.327	0.484
-399.194	800.000	0.097	0.439
-398.179	-200.000	0.025	-0.486
-397.165	-120.300	-0.427	-0.091
-396.150	-200.000	0.038	-0.217
-395.136	552.243	-0.117	-0.355
-394.121	126.561	0.293	-0.468
-393.106	-116.311	-0.383	-0.089
-392.092	192.289	0.154	-0.294
-391.077	28.543	0.447	0.476
-390.063	18.723	-0.223	0.225
-389.048	-169.619	-0.144	-0.006
-388.033	-54.184	-0.346	0.198
-387.019	-138.269	0.156	0.022
-386.004	800.000	0.053	0.204
-384.990	-158.424	0.359	-0.026
-383.975	800.000	0.105	0.474
-382.960	55.877	-0.314	0.385
-381.946	-91.191	0.400	0.144
-380.931	-200.000	0.041	0.259
-379.917	-25.182	-0.147	0.110
-378.902	-63.364	-0.449	-0.232
-377.888	-118.886	-0.229	0.050
-376.873	-73.314	-0.249	0.114
-375.858	76.915	0.181	0.243
-374.844	800.000	-0.106	-0.546
-373.829	151.277	0.184	0.317
-372.815	75.001	0.297	-0.395
-371.800	-82.644	0.254	-0.103
-370.785	327.250	0.054	-0.131
-369.771	-27.933	-0.237	0.173
-368.756	-110.177	0.541	-0.141
-367.742	178.913	0.078	-0.145
-366.727	309.377	0.133	-0.314
-365.712	-64.786	-0.248	-0.126
-364.698	-142.286	-0.450	-0.055
-363.683	-200.000	-0.002	-0.247
-362.669	-46.870	-0.193	0.119
-361.654	407.139	0.017	-0.044
-360.639	-163.849	0.155	0.009
-359.625	-83.732	-0.125	0.050
-358.610	-93.864	0.712	0.245
-357.596	389.130	0.136	0.356
-356.581	-200.000	0.040	-0.290
-355.566	2.380	-0.126	-0.115
-354.552	-116.260	-0.165	0.038
-353.537	-133.300	-0.069	-0.011
-352.523	-10.286	-0.313	0.261
-351.508	-155.427	0.426	0.034
-350.493	-200.000	-0.029	0.240
-349.479	-19.356	-0.180	0.140
-348.464	79.613	0.210	0.285
-347.450	-65.128	0.148	-0.075
-346.435	-200.000	0.021	-0.197
-345.420	-200.000	0.501	-0.000
-344.406	-200.000	0.043	0.342
-343.391	-200.000	0.068	0.560
-342.377	800.000	0.075	0.376
-341.362	-1.452	-0.201	0.178
-340.348	-111.834	0.552	-0.139
-339.333	49.764	0.309	0.366
-338.318	76.143	-0.304	-0.406
-337.304	197.761	0.097	0.186
-336.289	388.717	0.159	0.417
-335.275	731.716	-0.095	-0.321
-334.260	-122.812	-0.334	-0.067
-333.245	-181.086	-0.435	-0.011
-332.231	800.000	0.078	-0.429
-331.216	-119.097	0.452	-0.099
-330.202	-200.000	-0.005	0.118
-329.187	243.271	-0.151	0.319
-328.172	-120.655	0.320	0.067
-327.158	-13.002	-0.297	0.243
-326.143	-83.931	0.251	0.100
-325.129	-37.241	-0.217	-0.146
-324.114	62.661	0.163	-0.205
-323.099	800.000	0.032	0.178
-322.085	29.376	-0.208	-0.222
-321.070	-125.509	-0.369	0.070
-320.056	-113.334	-0.158	0.039
-319.041	-40.418	0.309	0.201
-318.026	439.883	0.161	0.446
-317.012	-98.083	-0.528	0.170
-315.997	251.813	0.239	0.514
-314.983	-87.229	0.236	-0.089
-313.968	-59.312	0.251	0.135
-312.953	41.313	0.364	0.414
-311.939	793.205	-0.127	0.442
-310.924	-200.000	-0.012	-0.454
-309.910	-200.000	-0.031	-0.200
-308.895	800.000	0.077	0.272
-307.880	-200.000	-0.017	0.398
-306.866	-177.616	-0.402	-0.012
-305.851	-200.000	0.079	-0.880
-304.837	150.388	0.156	-0.267
-303.822	32.375	-0.175	-0.190
-302.807	356.558	-0.294	-0.741
-301.793	-200.000	0.016	-0.146
-300.778	259.659	-0.096	-0.209
-299.764	-39.950	0.253	-0.166
-298.749	-200.000	-0.037	-0.406
-297.735	-155.061	0.393	0.032
-296.720	-81.875	-0.105	0.043
-295.705	-146.992	0.075	-0.008
-294.691	-173.876	-0.347	0.013
-293.676	-200.000	-0.006	0.297
-292.662	-200.000	-0.077	0.495
-291.647	511.993	0.095	-0.280
-290.632	-69.967	-0.040	0.019
-289.618	149.206	0.160	-0.272
-288.603	-181.074	0.609	-0.015
-287.589	-96.528	0.297	0.098
-286.574	247.580	-0.213	0.453
-285.559	377.968	-0.010	-0.026
-284.545	-155.395	-0.314	-0.025
-283.530	129.697	0.067	-0.107
-282.516	-54.608	0.131	0.074
-281.501	9.729	-0.393	0.374
-280.486	206.765	0.152	-0.299
-279.472	28.614	-0.209	0.222
-278.457	-171.735	-0.378	-0.015
-277.443	-155.350	-0.566	-0.046
-276.428	-200.000	0.020	0.291
-275.413	48.680	0.175	0.206
-274.399	-134.104	-0.185	0.028
-273.384	101.087	0.029	0.043
-272.370	-104.397	-0.051	-0.015
-271.355	-143.597	0.160	0.019
-270.340	21.747	0.232	0.237
-269.326	-65.144	-0.175	0.088
-268.311	-71.439	-0.226	-0.106
-267.297	102.316	-0.350	-0.514
-266.282	75.136	-0.144	0.190
-265.267	-26.116	-0.349	0.257
-264.253	214.017	-0.169	-0.337
-263.238	-108.157	0.338	0.091
-262.224	-108.799	0.521	0.139
-261.209	265.498	-0.065	-0.142
-260.195	26.903	0.178	0.187
-259.180	-74.648	-0.330	-0.148
-258.165	-200.000	-0.062	0.361
-257.151	-40.558	0.215	0.139
-256.136	800.000	-0.074	-0.266
-255.122	22.648	-0.320	-0.329
-254.107	-175.148	0.054	-0.002
-253.092	-118.715	0.124	0.027
-252.078	-200.000	-0.024	0.146
-251.063	-3.248	-0.337	0.294
-250.049	270.033	0.116	0.257
-249.034	74.978	-0.265	-0.350
-248.019	-87.979	0.196	0.073
-247.005	-200.000	0.053	-0.304
-245.990	-147.992	0.195	0.020
-244.976	-93.298	0.297	-0.103
-243.961	597.913	-0.118	0.367
-242.946	-116.540	-0.180	0.041
-241.932	36.108	0.188	0.208
-240.917	-136.516	0.264	-0.038
-239.903	24.214	-0.061	0.063
-238.888	19.363	0.037	0.037
-237.873	-58.324	-0.214	-0.116
-236.859	-14.992	-0.504	-0.404
-235.844	-200.000	0.008	0.256
-234.830	-43.407	0.227	-0.143
-233.815	-132.148	0.226	-0.036
-232.800	-165.433	0.164	0.009
-231.786	-200.000	-0.042	0.574
-230.771	28.509	0.330	0.349
-229.757	753.814	0.055	-0.186
-228.742	-122.449	0.165	-0.033
-227.727	-165.240	0.260	0.014
-226.713	468.738	-0.113	-0.319
-225.698	-67.685	-0.397	0.194
-224.684	307.805	-0.104	-0.243
-223.669	43.432	0.112	0.128
-222.655	-200.000	-0.027	0.244
-221.640	-189.238	-0.395	0.006
-220.625	336.008	0.198	-0.482
-219.611	-3.548	-0.133	-0.116
-218.596	135.010	0.347	0.565
-217.582	-38.176	-0.148	0.098
-216.567	111.263	-0.168	0.254
-215.552	194.637	0.141	0.269
-214.538	-23.207	-0.222	0.167
-213.523	800.000	0.068	0.256
-212.509	-109.247	-0.453	0.120
-211.494	-43.509	-0.214	-0.135
-210.479	26.490	0.288	0.302
-209.465	121.705	-0.108	-0.170
-208.450	-127.306	-0.098	-0.018
-207.436	-133.010	0.405	-0.064
-206.421	-108.283	0.365	-0.098
-205.406	-200.000	0.010	-0.173
-204.392	-135.771	-0.301	0.044
-203.377	800.000	-0.041	0.162
-202.363	-200.000	-0.012	0.182
-201.348	-87.837	0.454	-0.170
-200.333	-107.562	0.447	0.122
-199.319	-106.709	-0.439	0.121
-198.304	-17.843	0.173	-0.136
-197.290	800.000	-0.025	-0.132
-196.275	158.170	-0.073	0.126
-195.260	800.000	-0.040	0.145
-194.246	-200.000	0.038	-0.483
-193.231	-200.000	-0.010	-0.079
-192.217	200.430	0.190	0.367
-191.202	85.697	-0.187	0.257
-190.187	-118.144	0.230	0.051
-189.173	-145.280	0.271	-0.030
-188.158	-95.488	0.473	-0.158
-187.144	-200.000	0.044	0.362
-186.129	-200.000	0.008	-0.467
-185.114	-152.914	0.387	0.034
-184.100	-200.000	0.026	-0.282
-183.085	800.000	-0.056	0.250
-182.071	-164.903	-0.207	-0.011
-181.056	287.631	0.044	0.099
-180.042	173.594	0.129	0.233
-179.027	-137.417	0.532	0.075
-178.012	-40.748	0.266	-0.172
-176.998	-179.399	-0.395	0.011
-175.983	-200.000	-0.079	-0.644
-174.969	351.728	0.117	0.291
-173.954	-108.435	0.337	0.090
-172.939	24.378	0.172	0.178
-171.925	190.546	0.129	0.243
-170.910	-41.653	-0.278	0.178
-169.896	-124.604	-0.368	0.071
-168.881	463.175	0.073	0.205
-167.866	-109.246	0.427	0.112
-166.852	-61.313	-0.228	-0.120
-165.837	-117.170	-0.209	-0.047
-164.823	800.000	0.074	-0.303
-163.808	800.000	-0.087	0.316
-162.793	-200.000	-0.019	-0.335
-161.779	-187.836	0.292	-0.005
-160.764	32.788	-0.174	0.188
-159.750	289.309	0.163	-0.371
-158.735	-42.656	0.336	0.213
-157.720	-24.634	-0.078	-0.058
-156.706	-74.662	0.146	0.065
-155.691	-146.859	-0.289	0.031
-154.677	314.752	-0.165	0.390
-153.662	-184.044	-0.135	0.003
-152.647	25.061	0.162	0.168
-151.633	-94.022	0.181	0.062
-150.618	621.755	-0.074	-0.234
-149.604	551.064	0.153	-0.462
-148.589	307.323	-0.127	0.298
-147.574	-200.000	0.008	0.325
-146.560	41.326	0.192	-0.217
-145.545	47.375	0.194	-0.226
-144.531	-3.388	-0.275	0.238
-143.516	134.805	-0.052	-0.085
-142.502	-200.000	-0.026	-0.260
-141.487	497.339	0.235	-0.677
-140.472	-34.075	0.193	-0.132
-139.458	-118.460	-0.326	-0.072
-138.443	87.637	0.204	0.283
-137.429	800.000	0.125	0.482
-136.414	1.577	-0.422	-0.379
-135.399	-53.457	0.296	0.168
-134.385	253.884	-0.087	-0.186
-133.370	-66.834	-0.160	-0.079
-132.356	-109.945	-0.263	0.068
-131.341	201.554	-0.216	0.417
-130.326	15.138	0.139	-0.136
-129.312	285.498	0.068	0.153
-128.297	115.528	-0.273	0.418
-127.283	-200.000	-0.004	-0.435
-126.268	34.555	-0.150	0.163
-125.253	155.512	-0.053	0.091
-124.239	316.224	-0.263	0.623
-123.224	177.631	-0.211	0.384
-122.210	68.661	0.355	-0.455
