DTS Sentinel unit serial number:	SN409020Multiplexer serial number:	ORYXHardware model number:	OX4-SRSoftware version number:	ORYX F/W v3.00 Oryx Data Collector v3.7.2.0data status	okinstallation	HaddamTimeLapsedifferential loss correction	single-endedforward channel	channel 3reverse channel	N/Adate	2011/06/22time	10:21:17forward acquisition time	30.00reverse acquisition time	0.00gamma	498.7831k internal	0.1812k external	0.1812temperature offset calibration	1.0074default loss term (dB/km)	0.3790temperature slope calibration	1.3530multiplexer offset coefficient	1.0000multiplexer slope coefficient	1.0000fibre end	0.00T internal ref (°C)	29.87T ext. ref 1 (°C)	26.23T ext. ref 2 (°C)	0.22length (m)	temperature (°C)	Stokes	anti-Stokes-747.200	669.150	-0.207	0.693
-746.185	70.764	-0.299	0.397
-745.171	604.265	-0.104	-0.335
-744.156	-200.000	0.077	0.590
-743.142	31.550	0.385	0.425
-742.127	-15.781	0.150	-0.122
-741.112	12.464	0.387	-0.383
-740.098	800.000	0.095	0.402
-739.083	-96.628	-0.405	0.136
-738.069	-200.000	0.010	0.354
-737.054	208.888	-0.114	-0.230
-736.039	-158.434	-0.550	-0.040
-735.025	552.391	0.167	-0.518
-734.010	489.743	-0.108	-0.320
-732.996	54.903	-0.332	-0.411
-731.981	-105.566	-0.183	-0.053
-730.966	-52.769	0.194	-0.115
-729.952	-200.000	0.070	-0.656
-728.937	67.912	-0.190	-0.249
-727.923	-129.617	0.539	-0.095
-726.908	-113.686	0.395	0.098
-725.894	-44.455	-0.180	0.115
-724.879	-12.346	-0.409	-0.343
-723.864	-200.000	-0.104	-0.615
-722.850	800.000	0.121	-0.457
-721.835	-123.209	-0.322	0.066
-720.821	-31.161	-0.302	0.218
-719.806	205.714	-0.267	-0.535
-718.791	-129.038	-0.818	0.145
-717.777	800.000	0.024	0.118
-716.762	-105.348	0.649	-0.188
-715.748	-95.559	-0.501	-0.171
-714.733	28.017	-0.154	-0.166
-713.718	700.715	0.075	0.255
-712.704	-90.662	-0.421	-0.155
-711.689	-86.812	-0.298	0.116
-710.675	42.888	-0.127	-0.148
-709.660	289.910	-0.051	-0.118
-708.645	57.563	0.133	0.167
-707.631	181.627	0.082	0.155
-706.616	-80.436	0.107	-0.045
-705.602	-90.014	-0.469	-0.174
-704.587	743.692	-0.045	0.155
-703.572	-200.000	-0.024	0.220
-702.558	47.677	-0.254	-0.304
-701.543	-101.489	0.186	-0.058
-700.529	-81.396	-0.229	0.096
-699.514	18.388	0.026	0.027
-698.499	-70.341	-0.037	-0.018
-697.485	407.241	0.062	-0.170
-696.470	3.556	0.126	-0.118
-695.456	-200.000	0.014	-0.180
-694.441	76.944	0.212	0.288
-693.426	52.498	0.328	0.402
-692.412	-155.125	0.364	-0.030
-691.397	46.309	0.274	-0.325
-690.383	-90.894	-0.231	-0.085
-689.368	84.037	-0.228	0.319
-688.354	52.871	-0.377	0.462
-687.339	73.774	-0.364	-0.490
-686.324	257.733	-0.202	-0.447
-685.310	191.847	0.183	-0.355
-684.295	16.512	0.074	-0.074
-683.281	-5.665	0.458	-0.402
-682.266	282.842	-0.111	0.257
-681.251	-200.000	-0.026	0.363
-680.237	-62.831	-0.355	-0.188
-679.222	296.808	0.071	0.167
-678.208	800.000	-0.036	-0.148
-677.193	-126.184	0.368	-0.070
-676.178	-108.560	-0.265	0.072
-675.164	25.091	0.097	0.103
-674.149	-121.258	0.514	0.109
-673.135	-176.052	0.599	-0.020
-672.120	-200.000	-0.038	0.218
-671.105	157.596	-0.085	-0.150
-670.091	-17.028	-0.267	0.216
-669.076	-151.561	-0.280	0.026
-668.062	-133.587	-0.150	0.024
-667.047	-170.512	0.330	-0.014
-666.032	-200.000	-0.024	0.163
-665.018	-126.817	0.083	0.015
-664.003	-200.000	-0.006	-0.222
-662.989	-151.033	0.152	-0.014
-661.974	-11.850	-0.213	-0.178
-660.959	96.379	0.159	-0.233
-659.945	154.961	-0.088	0.156
-658.930	144.922	0.356	-0.611
-657.916	90.712	0.226	-0.324
-656.901	-66.361	-0.425	-0.216
-655.886	-200.000	-0.109	-0.000
-654.872	-96.125	-0.137	-0.046
-653.857	800.000	0.025	0.124
-652.843	-174.480	0.251	-0.009
-651.828	-61.760	-0.179	0.096
-650.814	46.955	-0.387	-0.460
-649.799	7.782	0.096	-0.092
-648.784	-98.093	0.308	0.101
-647.770	-124.695	0.482	0.095
-646.755	-200.000	-0.008	0.436
-645.741	-174.129	0.132	0.005
-644.726	-53.435	-0.391	-0.228
-643.711	60.040	-0.270	-0.342
-642.697	-187.912	0.426	0.007
-641.682	364.421	-0.117	0.302
-640.668	-59.857	-0.267	0.145
-639.653	-44.274	-0.448	0.287
-638.638	256.144	-0.131	-0.288
-637.624	75.527	0.075	0.102
-636.609	-43.220	-0.136	-0.088
-635.595	-127.926	-0.151	0.028
-634.580	-57.877	0.723	-0.403
-633.565	-166.650	0.072	-0.004
-632.551	9.369	0.134	0.130
-631.536	256.870	0.293	-0.646
-630.522	606.820	0.081	0.261
-629.507	20.881	-0.161	0.167
-628.492	800.000	-0.031	-0.128
-627.478	-200.000	0.020	-0.387
-626.463	-128.638	-0.276	-0.049
-625.449	-60.123	0.589	0.320
-624.434	25.616	0.126	-0.134
-623.419	-102.761	-0.256	-0.077
-622.405	-71.206	-0.287	-0.137
-621.390	-43.204	-0.488	0.315
-620.376	-25.598	-0.168	-0.127
-619.361	-70.068	-0.445	0.215
-618.346	-150.802	-0.494	-0.047
-617.332	41.440	-0.322	-0.373
-616.317	175.089	0.173	-0.320
-615.303	-27.148	-0.212	-0.157
-614.288	65.625	0.241	-0.311
-613.273	-65.933	0.048	-0.024
-612.259	-82.183	0.229	-0.095
-611.244	-17.188	-0.403	0.324
-610.230	-200.000	0.006	0.121
-609.215	-200.000	0.015	-0.221
-608.201	-94.686	-0.294	0.101
-607.186	794.320	-0.105	-0.370
-606.171	124.067	0.162	-0.261
-605.157	-169.786	0.086	-0.004
-604.142	99.250	0.367	-0.542
-603.128	-54.098	-0.284	-0.164
-602.113	53.217	-0.434	0.532
-601.098	-56.492	0.297	0.167
-600.084	37.309	0.504	0.570
-599.069	91.147	0.174	0.250
-598.055	80.539	0.110	-0.152
-597.040	-48.183	0.326	0.200
-596.025	150.907	0.332	0.577
-595.011	38.533	0.266	0.303
-593.996	-139.672	0.494	0.066
-592.982	453.126	0.037	-0.106
-591.967	-100.978	0.212	0.066
-590.952	238.397	-0.167	-0.354
-589.938	-99.516	-0.231	0.074
-588.923	411.418	-0.125	-0.341
-587.909	42.369	0.302	-0.351
-586.894	-104.866	-0.325	-0.095
-585.879	-39.587	0.123	-0.082
-584.865	-41.786	0.181	0.118
-583.850	181.735	-0.084	0.158
-582.836	246.577	0.161	-0.347
-581.821	-137.528	0.024	-0.003
-580.806	-88.962	0.260	0.098
-579.792	-76.264	0.040	-0.018
-578.777	-101.446	0.313	0.097
-577.763	-157.153	0.383	0.029
-576.748	-100.776	-0.020	0.006
-575.733	-52.412	-0.341	0.201
-574.719	-172.046	0.687	0.028
-573.704	-200.000	-0.018	0.280
-572.690	-6.381	-0.154	-0.134
-571.675	-66.586	-0.114	-0.057
-570.661	800.000	0.161	0.611
-569.646	-117.033	-0.245	0.056
-568.631	-196.085	-0.278	-0.002
-567.617	63.866	0.113	0.145
-566.602	-125.315	-0.123	-0.024
-565.588	-200.000	-0.005	-0.138
-564.573	743.891	-0.150	-0.519
-563.558	8.639	-0.219	0.210
-562.544	59.380	-0.207	0.261
-561.529	-135.857	-0.509	0.076
-560.515	-85.084	0.201	0.080
-559.500	1.260	0.091	-0.084
-558.485	136.921	0.169	0.282
-557.471	-200.000	-0.010	0.235
-556.456	5.217	-0.147	-0.138
-555.442	-200.000	0.078	-0.441
-554.427	514.915	-0.068	-0.202
-553.412	-1.702	0.308	-0.276
-552.398	192.541	0.214	-0.412
-551.383	34.556	0.075	-0.084
-550.369	800.000	0.107	0.561
-549.354	-200.000	-0.008	-0.221
-548.339	-144.447	-0.208	-0.024
-547.325	-96.719	-0.388	0.129
-546.310	226.393	-0.110	-0.228
-545.296	21.156	0.188	0.195
-544.281	41.682	0.126	-0.145
-543.266	40.188	-0.267	-0.306
-542.252	-200.000	0.058	0.363
-541.237	-70.315	0.699	0.337
-540.223	-145.219	-0.076	0.009
-539.208	-2.646	0.224	0.200
-538.193	192.394	-0.152	0.294
-537.179	-200.000	-0.013	-0.332
-536.164	-200.000	-0.002	0.217
-535.150	70.023	-0.092	0.121
-534.135	-61.926	-0.356	0.189
-533.121	-12.789	0.298	0.247
-532.106	41.277	-0.079	-0.092
-531.091	-122.429	-0.589	-0.121
-530.077	-49.598	0.176	0.106
-529.062	34.679	-0.177	0.197
-528.048	13.935	-0.285	0.282
-527.033	-102.664	0.193	-0.058
-526.018	-200.000	0.041	-0.493
-525.004	-65.670	0.435	0.221
-523.989	-49.213	-0.320	0.194
-522.975	21.219	-0.090	0.093
-521.960	-62.095	-0.508	-0.269
-520.945	12.674	0.104	0.103
-519.931	-143.234	0.501	0.061
-518.916	94.548	-0.128	-0.186
-517.902	-148.240	0.220	0.023
-516.887	-10.795	-0.147	-0.124
-515.872	-82.468	-0.161	-0.066
-514.858	31.089	0.549	-0.599
-513.843	-58.794	0.187	-0.103
-512.829	-33.359	0.227	-0.159
-511.814	800.000	-0.126	-0.560
-510.799	-14.653	-0.167	-0.136
-509.785	-28.934	0.084	0.061
-508.770	-72.339	0.298	-0.140
-507.756	77.259	0.187	0.253
-506.741	-140.219	0.258	0.034
-505.726	-57.789	0.266	0.147
-504.712	-159.521	0.453	-0.032
-503.697	-142.719	0.209	-0.026
-502.683	800.000	-0.144	-0.683
-501.668	165.128	-0.238	-0.428
-500.653	-11.337	-0.106	0.089
-499.639	93.751	0.105	-0.151
-498.624	263.964	-0.207	0.459
-497.610	-16.530	-0.213	0.171
-496.595	-200.000	0.003	-0.301
-495.581	-64.065	0.081	-0.042
-494.566	-39.576	0.267	0.178
-493.551	48.959	-0.188	0.225
-492.537	-200.000	0.004	-0.072
-491.522	165.277	0.104	-0.187
-490.508	12.795	-0.223	0.219
-489.493	-200.000	-0.014	-0.119
-488.478	-164.536	-0.171	-0.010
-487.464	-35.656	-0.154	0.106
-486.449	190.913	-0.352	-0.674
-485.435	-53.542	-0.011	-0.007
-484.420	-50.714	-0.596	-0.355
-483.405	39.442	0.054	-0.061
-482.391	-78.049	0.606	0.264
-481.376	95.038	-0.247	-0.358
-480.362	242.559	-0.061	-0.129
-479.347	-192.009	-0.210	0.003
-478.332	-60.496	0.610	-0.328
-477.318	-85.017	0.118	-0.047
-476.303	-19.815	-0.245	-0.192
-475.289	-117.575	-0.487	0.111
-474.274	58.621	-0.228	0.285
-473.259	61.442	-0.127	-0.161
-472.245	-173.705	-0.137	0.005
-471.230	-25.244	0.292	0.219
-470.216	300.866	-0.095	0.223
-469.201	495.325	0.147	-0.432
-468.186	725.733	-0.203	0.691
-467.172	-60.936	0.129	0.069
-466.157	-95.648	-0.148	-0.050
-465.143	-83.507	0.482	-0.195
-464.128	285.282	-0.093	0.213
-463.113	363.500	-0.141	0.362
-462.099	40.069	0.239	-0.273
-461.084	-200.000	0.070	-0.488
-460.070	-83.039	-0.350	-0.142
-459.055	800.000	0.062	0.280
-458.040	-200.000	0.017	-0.123
-457.026	-75.988	0.541	0.242
-456.011	109.214	-0.074	0.112
-454.997	-175.834	-0.239	0.008
-453.982	189.142	0.083	-0.157
-452.968	123.661	-0.185	0.295
-451.953	-200.000	-0.004	0.430
-450.938	-63.926	0.386	0.200
-449.924	49.005	0.122	0.146
-448.909	-31.120	0.250	0.179
-447.895	162.339	0.134	0.239
-446.880	-200.000	0.087	0.581
-445.865	251.466	0.117	-0.253
-444.851	61.160	-0.326	0.411
-443.836	-161.141	0.177	0.012
-442.822	221.451	0.144	-0.294
-441.807	-96.392	0.359	0.120
-440.792	622.375	0.105	-0.337
-439.778	-66.429	0.259	0.130
-438.763	-200.000	0.036	0.357
-437.749	-166.659	-0.242	0.013
-436.734	-53.574	-0.527	-0.305
-435.719	-193.674	-0.515	-0.005
-434.705	-1.548	0.094	-0.084
-433.690	-62.358	0.345	-0.181
-432.676	-115.083	-0.160	0.038
-431.661	-200.000	0.031	0.195
-430.646	-51.892	-0.190	0.112
-429.632	106.860	-0.532	-0.803
-428.617	-59.978	-0.390	0.211
-427.603	550.214	0.006	0.019
-426.588	-190.995	-0.276	-0.004
-425.573	-200.000	0.113	0.664
-424.559	226.593	0.210	0.434
-423.544	-28.859	-0.252	-0.183
-422.530	70.004	0.322	-0.422
-421.515	139.913	0.313	-0.524
-420.500	-173.926	0.517	0.019
-419.486	-200.000	-0.028	0.217
-418.471	-104.205	-0.488	0.143
-417.457	25.546	0.249	-0.263
-416.442	-63.409	0.101	-0.053
-415.428	-109.652	-0.276	0.073
-414.413	800.000	0.091	0.383
-413.398	-6.552	-0.421	-0.363
-412.384	-113.182	-0.230	0.057
-411.369	-135.564	-0.327	-0.049
-410.355	-134.149	-0.182	0.028
-409.340	-0.580	0.433	-0.389
-408.325	190.265	-0.111	0.212
-407.311	21.294	0.304	0.313
-406.296	-63.474	0.512	0.266
-405.282	800.000	0.063	0.253
-404.267	-112.147	-0.365	-0.092
-403.252	800.000	0.062	0.267
-402.238	-147.402	0.422	-0.045
-401.223	18.464	-0.317	0.321
-400.209	247.126	-0.178	0.383
-399.194	-72.465	0.552	-0.257
-398.179	-59.130	0.141	0.077
-397.165	-78.678	-0.410	-0.177
-396.150	-197.473	-0.229	-0.002
-395.136	-200.000	-0.050	-0.308
-394.121	-200.000	0.022	-0.123
-393.106	0.528	0.159	-0.144
-392.092	-51.449	-0.416	-0.246
-391.077	-83.203	-0.201	-0.081
-390.063	1.954	0.140	0.128
-389.048	322.758	0.086	0.208
-388.033	8.631	-0.113	0.107
-387.019	60.114	-0.102	0.128
-386.004	-94.205	0.345	-0.119
-384.990	183.867	-0.014	0.027
-383.975	-19.241	-0.381	-0.299
-382.960	-200.000	-0.017	0.664
-381.946	200.797	-0.155	-0.302
-380.931	-81.579	-0.518	0.215
-379.917	-56.049	-0.174	0.098
-378.902	-154.408	0.295	-0.025
-377.888	-112.458	0.328	0.082
-376.873	295.416	0.046	-0.107
-375.858	800.000	0.065	0.231
-374.844	140.259	0.094	0.157
-373.829	800.000	-0.023	0.109
-372.815	387.670	0.038	0.100
-371.800	-96.241	0.138	0.046
-370.785	-200.000	0.021	-0.360
-369.771	-6.176	0.451	-0.390
-368.756	-136.971	0.438	-0.063
-367.742	-15.381	0.312	0.252
-366.727	-200.000	0.023	0.351
-365.712	-35.868	0.106	0.073
-364.698	-137.676	-0.142	0.020
-363.683	-104.863	-0.342	0.099
-362.669	-129.457	-0.580	0.101
-361.654	197.406	0.116	0.225
-360.639	-200.000	0.110	0.790
-359.625	77.345	0.179	0.241
-358.610	500.368	-0.027	0.080
-357.596	-117.718	0.396	0.089
-356.581	130.427	0.190	-0.309
-355.566	-53.598	0.417	-0.240
-354.552	166.785	-0.243	0.437
-353.537	-137.130	-0.466	0.067
-352.523	-137.302	-0.085	0.012
-351.508	-200.000	-0.006	-0.198
-350.493	432.611	0.098	0.269
-349.479	-200.000	-0.084	0.750
-348.464	-58.311	-0.178	-0.098
-347.450	-99.744	-0.574	0.181
-346.435	-130.465	0.607	0.103
-345.420	449.089	0.170	-0.475
-344.406	-200.000	-0.115	-0.746
-343.391	-133.005	0.148	-0.024
-342.377	-3.232	-0.114	-0.100
-341.362	139.464	0.180	0.299
-340.348	800.000	0.040	0.206
-339.333	800.000	0.096	-0.473
-338.318	-85.953	0.650	-0.253
-337.304	-50.821	-0.497	-0.294
-336.289	60.571	0.086	0.108
-335.275	-55.280	-0.150	0.085
-334.260	-49.311	-0.209	0.126
-333.245	220.997	0.136	-0.276
-332.231	2.567	0.282	0.258
-331.216	-177.969	-0.238	-0.007
-330.202	41.650	0.069	-0.079
-329.187	11.141	0.116	0.112
-328.172	20.753	-0.125	-0.128
-327.158	-84.703	-0.366	-0.145
-326.143	-110.066	0.366	-0.096
-325.129	-200.000	-0.028	-0.398
-324.114	-24.069	0.192	0.145
-323.099	320.773	-0.142	-0.342
-322.085	-200.000	-0.020	0.316
-321.070	-39.448	0.166	0.110
-320.056	-58.420	-0.338	-0.185
-319.041	221.099	-0.153	-0.311
-318.026	-52.361	0.178	0.104
-317.012	-200.000	-0.023	0.374
-315.997	-133.675	-0.281	0.044
-314.983	182.073	-0.095	0.177
-313.968	-200.000	0.513	-0.001
-312.953	-43.682	-0.254	-0.161
-311.939	-50.271	-0.537	-0.320
-310.924	-51.936	0.260	-0.152
-309.910	800.000	-0.076	-0.282
-308.895	-65.333	-0.194	0.098
-307.880	-200.000	0.058	0.547
-306.866	-200.000	-0.060	0.380
-305.851	-150.849	0.269	-0.025
-304.837	-200.000	0.004	-0.181
-303.822	27.553	0.199	0.212
-302.807	76.356	0.271	-0.363
-301.793	-68.082	-0.038	0.019
-300.778	138.280	-0.197	0.327
-299.764	134.794	-0.116	0.191
-298.749	-142.073	-0.226	0.028
-297.735	480.632	0.095	-0.273
-296.720	-103.729	0.454	0.133
-295.705	431.324	0.093	0.255
-294.691	-98.721	0.346	0.110
-293.676	-122.313	-0.306	0.063
-292.662	-200.000	-0.027	0.200
-291.647	28.154	-0.151	0.161
-290.632	-54.475	0.282	0.160
-289.618	-101.025	-0.310	-0.095
-288.603	-22.852	-0.279	-0.212
-287.589	-200.000	-0.018	0.312
-286.574	800.000	-0.064	0.344
-285.559	-200.000	0.002	-0.041
-284.545	-138.860	-0.283	-0.038
-283.530	800.000	0.025	0.107
-282.516	-93.137	0.440	-0.153
-281.501	-143.360	0.240	0.029
-280.486	74.871	-0.040	0.054
-279.472	187.653	0.143	0.270
-278.457	800.000	-0.059	0.206
-277.443	404.233	0.131	0.349
-276.428	800.000	-0.108	0.387
-275.413	800.000	-0.044	-0.172
-274.399	-200.000	-0.040	0.311
-273.384	-140.543	0.295	0.038
-272.370	-156.942	-0.466	0.035
-271.355	640.439	0.089	0.287
-270.340	-88.210	0.573	-0.215
-269.326	-39.771	-0.547	-0.359
-268.311	-57.669	0.067	0.037
-267.297	10.441	0.058	0.055
-266.282	393.947	0.096	-0.254
-265.267	-115.597	0.466	0.110
-264.253	-200.000	-0.003	-0.289
-263.238	-5.326	0.239	0.207
-262.224	-61.288	0.261	0.138
-261.209	-73.056	-0.450	-0.207
-260.195	-89.640	-0.213	-0.078
-259.180	81.158	-0.219	0.298
-258.165	66.283	0.063	-0.081
-257.151	-127.160	-0.224	0.041
-256.136	-200.000	0.017	-0.189
-255.122	-98.986	-0.465	0.148
-254.107	-104.015	-0.690	-0.201
-253.092	-85.132	-0.236	0.092
-252.078	-156.760	0.448	0.034
-251.063	252.281	0.193	-0.416
-250.049	-107.691	-0.164	0.045
-249.034	797.767	0.093	0.323
-248.019	230.949	0.186	-0.385
-247.005	-141.856	-0.252	-0.031
-245.990	350.743	0.103	-0.257
-244.976	-120.865	0.193	0.041
-243.961	90.528	0.166	-0.234
-242.946	-200.000	-0.025	-0.160
-241.932	-110.953	-0.551	0.142
-240.917	-19.636	-0.249	0.194
-239.903	-31.295	0.499	-0.353
-238.888	-121.849	-0.434	0.089
-237.873	-58.154	-0.268	-0.147
-236.859	-168.191	-0.539	0.026
-235.844	-200.000	-0.015	-0.277
-234.830	800.000	0.067	-0.248
-233.815	-17.788	-0.215	0.169
-232.800	-66.368	-0.303	-0.151
-231.786	-77.829	-0.234	-0.101
-230.771	-200.000	-0.027	-0.553
-229.757	66.701	0.150	0.192
-228.742	197.458	-0.008	0.015
-227.727	106.094	-0.133	-0.198
-226.713	-125.364	0.427	-0.081
-225.698	-200.000	0.029	0.310
-224.684	486.854	0.106	0.307
-223.669	175.542	0.107	-0.196
-222.655	-200.000	0.019	0.253
-221.640	-148.646	0.588	0.060
-220.625	-69.348	-0.388	-0.186
-219.611	800.000	-0.086	0.326
-218.596	-75.699	-0.372	-0.165
-217.582	9.101	-0.234	-0.222
-216.567	17.467	-0.263	0.263
-215.552	-200.000	-0.059	0.332
-214.538	-200.000	0.023	-0.374
-213.523	110.666	-0.075	-0.114
-212.509	-149.121	0.094	0.009
-211.494	-103.269	0.358	0.106
-210.479	83.024	-0.015	-0.021
-209.465	-102.875	0.231	0.069
-208.450	221.039	-0.201	0.407
-207.436	-1.048	-0.347	0.309
-206.421	-137.325	-0.457	-0.065
-205.406	-30.228	0.371	-0.264
-204.392	-125.764	0.496	-0.093
-203.377	-119.567	0.170	-0.037
-202.363	-107.023	-0.118	0.033
-201.348	800.000	0.045	-0.178
-200.333	-122.074	0.179	-0.037
-199.319	-90.749	0.309	0.111
-198.304	-200.000	-0.054	-0.383
-197.290	26.282	0.390	-0.410
-196.275	-200.000	0.010	-0.252
-195.260	-106.149	0.110	0.031
-194.246	800.000	0.128	-0.452
-193.231	-129.772	-0.562	0.096
-192.217	276.508	0.096	0.215
-191.202	117.079	0.011	0.017
-190.187	-200.000	0.021	-0.209
-189.173	315.352	0.103	-0.246
-188.158	480.657	-0.192	0.551
-187.144	-91.163	0.403	0.144
-186.129	-200.000	-0.048	-0.361
-185.114	-132.723	0.368	0.059
-184.100	-87.385	0.410	0.155
-183.085	-200.000	0.008	-0.055
-182.071	234.276	-0.297	-0.616
-181.056	-82.519	-0.231	-0.094
-180.042	-79.067	0.354	-0.150
-179.027	-124.540	0.283	0.055
-178.012	237.135	0.147	-0.306
-176.998	117.083	0.096	0.148
-175.983	67.927	-0.113	0.145
-174.969	-175.828	0.153	-0.005
-173.954	-132.282	0.205	-0.033
-172.939	67.888	-0.292	-0.376
-171.925	-48.201	-0.422	0.255
-170.910	800.000	0.033	-0.149
-169.896	-173.546	0.511	0.019
-168.881	54.556	-0.455	-0.551
-167.866	-78.050	-0.186	-0.080
-166.852	433.216	-0.072	0.196
-165.837	-42.578	-0.273	-0.174
-164.823	800.000	0.077	0.383
-163.808	-94.529	-0.188	-0.064
-162.793	49.732	-0.137	0.162
-161.779	-95.844	-0.315	-0.105
-160.764	73.226	0.155	-0.204
-159.750	-70.219	-0.172	0.082
-158.735	17.675	-0.329	0.328
-157.720	35.348	-0.098	0.108
-156.706	-200.000	0.046	-0.270
-155.691	-113.285	0.249	0.061
-154.677	-13.504	-0.182	-0.148
-153.662	-175.743	0.199	0.007
-152.647	454.169	-0.090	0.251
-151.633	-37.698	-0.143	-0.095
-150.618	183.193	0.225	0.418
-149.604	204.916	0.201	0.392
-148.589	-200.000	-0.011	-0.307
-147.574	-81.215	-0.616	0.254
-146.560	-120.953	0.133	0.028
-145.545	-99.576	0.107	-0.033
-144.531	9.584	-0.468	0.444
-143.516	548.628	0.178	-0.539
-142.502	-74.299	0.135	-0.061
-141.487	39.585	0.072	-0.081
-140.472	456.657	-0.036	-0.100
-139.458	99.229	0.172	0.250
-138.443	3.585	-0.172	0.157
-137.429	95.588	0.239	0.342
-136.414	-4.158	0.279	0.242
-135.399	64.070	0.290	0.366
-134.385	50.225	-0.250	0.297
-133.370	198.974	-0.181	0.350
-132.356	-113.635	-0.342	-0.083
-131.341	-99.911	0.298	0.093
-130.326	-200.000	-0.024	0.135
-129.312	-65.171	-0.569	-0.286
-128.297	-68.166	-0.124	-0.060
-127.283	45.558	0.066	0.077
-126.268	-200.000	0.128	-0.845
-125.253	116.293	-0.294	-0.452
-124.239	-115.915	0.264	-0.061
-123.224	518.585	-0.049	0.145
-122.210	-22.916	0.200	0.151
-121.195	12.384	-0.160	-0.154
