DTS Sentinel unit serial number:	SN409020Multiplexer serial number:	ORYXHardware model number:	OX4-SRSoftware version number:	ORYX F/W v3.00 Oryx Data Collector v3.7.2.0data status	okinstallation	HaddamTimeLapsedifferential loss correction	single-endedforward channel	channel 3reverse channel	N/Adate	2011/06/21time	18:26:17forward acquisition time	30.00reverse acquisition time	0.00gamma	498.7831k internal	0.1820k external	0.1820temperature offset calibration	1.0074default loss term (dB/km)	0.3790temperature slope calibration	1.3530multiplexer offset coefficient	1.0000multiplexer slope coefficient	1.0000fibre end	0.00T internal ref (°C)	36.19T ext. ref 1 (°C)	27.44T ext. ref 2 (°C)	0.26length (m)	temperature (°C)	Stokes	anti-Stokes-747.200	77.293	0.145	-0.197
-746.185	29.462	-0.486	0.528
-745.171	61.496	-0.106	-0.135
-744.156	-199.246	-0.240	0.002
-743.142	-25.046	-0.156	0.118
-742.127	-200.000	-0.097	0.742
-741.112	312.363	-0.110	-0.265
-740.098	6.515	0.289	-0.274
-739.083	-17.457	0.343	0.276
-738.069	-200.000	0.056	0.459
-737.054	256.903	-0.144	-0.318
-736.039	-18.834	0.194	0.154
-735.025	18.431	0.031	0.032
-734.010	-124.307	0.365	0.072
-732.996	183.994	0.155	0.294
-731.981	527.699	-0.109	0.330
-730.966	-105.870	-0.633	-0.181
-729.952	-91.901	0.348	0.125
-728.937	101.209	-0.031	0.047
-727.923	-181.783	-0.238	0.006
-726.908	-32.921	0.399	-0.282
-725.894	151.095	0.082	-0.143
-724.879	106.896	0.091	-0.139
-723.864	-27.058	0.150	-0.112
-722.850	-115.337	-0.203	-0.049
-721.835	800.000	0.060	0.290
-720.821	-23.413	-0.035	0.027
-719.806	-10.306	-0.190	-0.161
-718.791	374.523	0.141	-0.367
-717.777	53.482	-0.321	0.393
-716.762	-200.000	0.034	0.425
-715.748	-124.428	0.120	-0.024
-714.733	800.000	0.077	0.317
-713.718	-200.000	0.005	-0.124
-712.704	-47.387	0.269	0.167
-711.689	357.239	-0.030	-0.077
-710.675	-200.000	-0.014	0.266
-709.660	144.047	0.043	-0.073
-708.645	-111.285	0.557	-0.144
-707.631	800.000	0.073	-0.372
-706.616	-200.000	0.006	0.052
-705.602	-183.934	-0.558	-0.012
-704.587	-74.745	-0.417	-0.190
-703.572	309.976	0.056	0.134
-702.558	638.386	0.067	0.218
-701.543	-161.267	-0.458	0.030
-700.529	43.659	-0.085	-0.099
-699.514	-83.748	0.284	-0.115
-698.499	-200.000	-0.015	0.236
-697.485	218.332	-0.055	-0.111
-696.470	-22.150	0.505	0.390
-695.456	109.751	-0.214	-0.328
-694.441	684.864	0.024	0.079
-693.426	-127.762	-0.045	-0.008
-692.412	-65.384	0.185	0.094
-691.397	-94.728	-0.336	-0.116
-690.383	800.000	0.101	-0.376
-689.368	-200.000	0.009	0.321
-688.354	-200.000	-0.006	0.130
-687.339	-155.112	-0.343	0.028
-686.324	-7.411	-0.221	0.191
-685.310	-200.000	-0.010	-0.301
-684.295	-38.180	-0.321	-0.216
-683.281	-10.443	0.302	-0.255
-682.266	301.193	-0.062	-0.146
-681.251	-200.000	0.063	-0.468
-680.237	-158.331	0.576	0.042
-679.222	-114.651	-0.045	-0.011
-678.208	28.119	0.477	-0.513
-677.193	-148.269	0.685	0.071
-676.178	-121.690	0.275	-0.058
-675.164	-3.277	0.288	0.256
-674.149	117.543	0.029	0.045
-673.135	-17.054	-0.240	0.192
-672.120	3.025	0.309	0.286
-671.105	442.660	-0.165	-0.463
-670.091	98.875	-0.153	0.225
-669.076	-76.082	-0.459	-0.206
-668.062	76.913	-0.161	-0.218
-667.047	-200.000	-0.034	-0.318
-666.032	-200.000	0.020	-0.477
-665.018	-200.000	-0.008	-0.512
-664.003	-200.000	-0.018	-0.326
-662.989	800.000	-0.113	0.457
-661.974	55.643	-0.044	0.054
-660.959	800.000	0.137	-0.533
-659.945	105.917	0.188	0.283
-658.930	-200.000	-0.007	0.050
-657.916	-152.483	-0.158	0.014
-656.901	-200.000	0.007	0.038
-655.886	-36.106	0.174	-0.119
-654.872	186.652	0.134	-0.255
-653.857	-200.000	-0.014	-0.150
-652.843	159.833	0.122	-0.218
-651.828	-200.000	0.017	-0.365
-650.814	-112.913	-0.234	0.059
-649.799	-81.073	-0.098	0.041
-648.784	760.832	-0.085	-0.294
-647.770	-200.000	0.003	-0.189
-646.755	134.214	-0.068	0.113
-645.741	-200.000	-0.040	-0.417
-644.726	156.853	-0.079	-0.140
-643.711	-170.936	0.294	-0.013
-642.697	-85.843	-0.380	-0.149
-641.682	-37.685	0.263	0.178
-640.668	-200.000	0.068	-0.407
-639.653	-200.000	0.080	-0.473
-638.638	110.313	0.293	-0.448
-637.624	-141.958	0.376	-0.047
-636.609	-80.018	0.357	0.152
-635.595	-146.483	-0.611	0.067
-634.580	800.000	-0.020	-0.078
-633.565	13.904	0.164	-0.162
-632.551	-12.331	0.251	0.209
-631.536	42.551	0.030	-0.034
-630.522	-184.611	-0.169	0.003
-629.507	265.823	0.386	-0.860
-628.492	105.597	0.337	-0.508
-627.478	800.000	0.069	-0.259
-626.463	-95.070	-0.307	-0.105
-625.449	66.002	0.049	0.063
-624.434	157.413	-0.109	0.192
-623.419	-49.787	0.229	0.138
-622.405	403.515	0.163	0.439
-621.390	-13.394	-0.074	0.061
-620.376	800.000	-0.033	-0.140
-619.361	-15.555	-0.232	0.188
-618.346	-21.568	0.125	0.097
-617.332	-200.000	-0.130	-0.769
-616.317	-5.683	0.370	-0.322
-615.303	129.114	-0.250	-0.406
-614.288	-200.000	0.005	-0.398
-613.273	-131.504	-0.451	-0.075
-612.259	-200.000	0.012	-0.140
-611.244	800.000	0.119	-0.425
-610.230	800.000	0.135	0.479
-609.215	39.595	-0.235	0.267
-608.201	636.003	0.053	-0.171
-607.186	-200.000	-0.007	0.237
-606.171	15.771	-0.115	0.115
-605.157	-124.779	0.160	0.031
-604.142	254.013	-0.063	0.136
-603.128	-81.476	-0.234	0.097
-602.113	-148.634	0.481	0.049
-601.098	-92.685	0.271	0.096
-600.084	800.000	-0.022	-0.082
-599.069	-200.000	-0.022	-0.379
-598.055	800.000	0.121	-0.578
-597.040	-200.000	-0.024	-0.134
-596.025	-21.447	0.208	-0.161
-595.011	-66.728	0.188	0.094
-593.996	572.986	0.142	-0.443
-592.982	-115.671	-0.392	-0.093
-591.967	140.627	0.080	-0.135
-590.952	566.245	0.163	-0.505
-589.938	-2.958	0.224	-0.198
-588.923	-26.183	-0.071	0.053
-587.909	426.636	-0.145	0.399
-586.894	309.741	0.151	0.360
-585.879	507.681	-0.163	0.483
-584.865	-48.121	-0.146	-0.089
-583.850	37.110	0.291	0.327
-582.836	-109.991	-0.029	0.008
-581.821	-121.849	0.209	-0.043
-580.806	118.434	0.107	0.168
-579.792	-94.548	-0.280	-0.096
-578.777	-184.363	-0.374	-0.008
-577.763	-95.747	0.293	-0.099
-576.748	-200.000	-0.003	0.316
-575.733	267.488	0.138	-0.309
-574.719	-31.385	-0.013	-0.009
-573.704	-24.557	-0.200	-0.151
-572.690	-90.727	0.381	-0.139
-571.675	219.703	-0.120	-0.244
-570.661	800.000	-0.175	-0.786
-569.646	9.254	-0.276	-0.265
-568.631	-200.000	0.039	-0.262
-567.617	-129.646	-0.339	0.059
-566.602	-128.931	-0.471	-0.083
-565.588	39.885	-0.169	-0.192
-564.573	127.005	0.076	-0.123
-563.558	-40.055	-0.244	-0.161
-562.544	57.389	-0.182	0.226
-561.529	-200.000	-0.062	-0.550
-560.515	87.910	0.193	0.272
-559.500	-73.444	-0.345	0.159
-558.485	-78.941	-0.462	0.199
-557.471	-200.000	0.033	0.235
-556.456	-134.983	-0.433	-0.066
-555.442	-200.000	-0.032	0.460
-554.427	68.254	-0.201	0.261
-553.412	43.349	-0.225	-0.260
-552.398	800.000	-0.082	-0.319
-551.383	142.419	0.073	-0.123
-550.369	-91.184	-0.081	-0.029
-549.354	-23.821	-0.417	0.316
-548.339	59.692	-0.295	0.369
-547.325	-71.047	-0.523	0.248
-546.310	-200.000	0.008	0.262
-545.296	-200.000	-0.019	0.186
-544.281	431.636	0.091	-0.250
-543.266	53.723	-0.198	0.241
-542.252	-119.158	-0.036	0.008
-541.237	112.340	-0.107	0.164
-540.223	-200.000	0.044	0.245
-539.208	31.417	0.121	0.132
-538.193	-200.000	-0.449	0.002
-537.179	47.283	-0.101	0.120
-536.164	800.000	-0.122	0.508
-535.150	291.102	-0.116	0.268
-534.135	-200.000	0.061	0.487
-533.121	-14.925	-0.221	-0.179
-532.106	161.755	-0.157	-0.280
-531.091	-71.340	0.320	0.151
-530.077	-25.469	0.445	-0.333
-529.062	-128.225	0.152	0.027
-528.048	-8.290	-0.384	0.327
-527.033	-101.662	-0.391	0.119
-526.018	220.476	-0.034	-0.069
-525.004	82.079	0.112	-0.154
-523.989	-57.546	-0.083	0.046
-522.975	-25.406	-0.081	0.060
-521.960	84.801	-0.256	-0.356
-520.945	-200.000	-0.106	0.749
-519.931	140.143	-0.248	0.415
-518.916	220.218	-0.202	-0.411
-517.902	-108.287	-0.047	-0.013
-516.887	-55.266	-0.038	-0.021
-515.872	800.000	-0.139	0.609
-514.858	473.299	0.142	-0.407
-513.843	-200.000	0.039	-0.246
-512.829	-200.000	-0.006	-0.064
-511.814	37.296	-0.178	-0.200
-510.799	800.000	-0.191	0.754
-509.785	800.000	-0.082	0.293
-508.770	126.821	-0.054	0.087
-507.756	745.325	-0.163	-0.559
-506.741	-23.246	-0.319	-0.242
-505.726	-200.000	-0.021	-0.225
-504.712	451.876	-0.101	0.284
-503.697	254.778	0.390	0.849
-502.683	800.000	-0.128	-0.490
-501.668	-200.000	0.049	-0.489
-500.653	-69.663	-0.302	-0.145
-499.639	70.441	0.203	-0.266
-498.624	-156.130	0.682	-0.054
-497.610	800.000	-0.061	-0.256
-496.595	159.746	-0.070	-0.125
-495.581	166.015	-0.228	-0.410
-494.566	-54.527	-0.284	-0.162
-493.551	800.000	-0.132	0.561
-492.537	-62.389	0.172	0.090
-491.522	800.000	-0.085	0.334
-490.508	9.797	0.038	0.036
-489.493	63.294	0.133	0.169
-488.478	-96.648	-0.138	0.046
-487.464	-69.054	-0.118	0.057
-486.449	-35.793	0.090	-0.062
-485.435	317.687	0.117	-0.280
-484.420	89.999	-0.196	0.277
-483.405	20.183	0.173	0.176
-482.391	-46.557	0.145	0.090
-481.376	-24.366	0.237	0.178
-480.362	-200.000	-0.087	-0.585
-479.347	-86.567	-0.367	0.142
-478.332	-77.029	-0.265	0.116
-477.318	-85.733	-0.433	-0.169
-476.303	302.309	-0.108	0.253
-475.289	-179.709	0.519	0.014
-474.274	-148.214	-0.374	-0.039
-473.259	-83.253	0.213	0.086
-472.245	-72.593	0.311	-0.145
-471.230	466.949	0.100	-0.285
-470.216	-134.817	0.196	0.030
-469.201	146.105	-0.168	-0.286
-468.186	5.269	-0.422	-0.393
-467.172	800.000	0.058	-0.284
-466.157	10.724	0.277	-0.267
-465.143	-136.450	0.439	0.064
-464.128	11.447	0.299	-0.289
-463.113	-73.214	-0.134	-0.062
-462.099	31.825	0.361	0.393
-461.084	-200.000	-0.092	0.658
-460.070	228.202	-0.090	0.186
-459.055	-193.370	0.348	0.004
-458.040	13.633	-0.144	-0.142
-457.026	89.330	0.445	-0.627
-456.011	-6.471	0.467	-0.402
-454.997	-32.943	-0.285	-0.200
-453.982	800.000	-0.129	0.469
-452.968	66.110	-0.216	0.277
-451.953	209.219	-0.052	-0.104
-450.938	-33.420	-0.519	-0.362
-449.924	800.000	-0.098	-0.469
-448.909	-88.390	-0.358	-0.134
-447.895	48.854	0.325	-0.386
-446.880	-87.769	-0.165	-0.063
-445.865	-110.945	0.319	0.082
-444.851	-28.995	-0.302	0.219
-443.836	-109.183	-0.416	0.111
-442.822	-132.554	-0.046	0.007
-441.807	-123.375	-0.274	-0.055
-440.792	-28.004	0.196	-0.143
-439.778	88.120	-0.118	0.165
-438.763	-32.693	-0.167	0.117
-437.749	-200.000	-0.002	-0.013
-436.734	-67.084	0.554	-0.275
-435.719	13.779	0.205	-0.201
-434.705	280.600	-0.133	-0.302
-433.690	800.000	-0.086	-0.309
-432.676	-40.586	0.209	-0.137
-431.661	15.473	-0.260	0.258
-430.646	-14.646	-0.084	0.068
-429.632	8.801	-0.439	0.418
-428.617	78.003	-0.161	0.217
-427.603	-42.498	0.306	0.196
-426.588	188.085	-0.087	-0.164
-425.573	-107.924	-0.242	-0.066
-424.559	-66.295	0.198	-0.099
-423.544	-114.980	-0.427	-0.102
-422.530	-130.675	-0.181	-0.031
-421.515	-109.620	-0.442	-0.117
-420.500	489.886	-0.091	0.263
-419.486	347.817	-0.160	0.399
-418.471	-62.608	-0.304	0.158
-417.457	-94.782	0.409	0.139
-416.442	-69.473	-0.440	0.212
-415.428	-142.024	0.280	-0.035
-414.413	-60.419	0.204	-0.109
-413.398	31.719	0.093	-0.101
-412.384	-46.058	0.373	0.231
-411.369	414.884	-0.192	0.518
-410.355	278.252	0.158	0.357
-409.340	-120.666	0.292	0.062
-408.325	-200.000	-0.023	0.345
-407.311	-3.292	-0.108	0.095
-406.296	228.535	0.217	0.447
-405.282	-56.876	0.218	0.121
-404.267	160.375	0.247	-0.436
-403.252	-148.435	-0.066	0.007
-402.238	-113.469	-0.123	0.030
-401.223	407.218	0.105	0.282
-400.209	-82.176	0.328	-0.134
-399.194	800.000	-0.022	0.103
-398.179	770.601	0.074	-0.255
-397.165	371.750	-0.067	0.171
-396.150	-131.933	0.390	-0.064
-395.136	800.000	-0.077	-0.414
-394.121	36.120	-0.143	-0.159
-393.106	-137.104	-0.205	-0.029
-392.092	598.392	-0.039	0.124
-391.077	297.358	-0.154	-0.357
-390.063	-200.000	0.011	-0.082
-389.048	114.724	-0.135	-0.208
-388.033	10.322	0.124	0.119
-387.019	-110.280	-0.305	0.079
-386.004	-51.543	0.139	0.082
-384.990	-30.117	0.523	-0.374
-383.975	-200.000	0.035	-0.374
-382.960	656.812	0.111	0.363
-381.946	464.240	-0.168	0.474
-380.931	-70.211	-0.566	0.270
-379.917	-55.898	-0.226	0.127
-378.902	-160.898	-0.124	-0.008
-377.888	-10.167	0.222	-0.185
-376.873	-1.793	-0.119	-0.106
-375.858	574.215	0.060	-0.185
-374.844	-200.000	-0.050	-0.419
-373.829	800.000	0.056	-0.210
-372.815	-19.167	-0.101	-0.079
-371.800	-200.000	0.011	-0.263
-370.785	-107.486	0.216	0.059
-369.771	-200.000	0.086	0.575
-368.756	-200.000	-0.024	0.221
-367.742	-200.000	-0.012	0.317
-366.727	773.550	0.113	-0.392
-365.712	11.506	0.483	0.466
-364.698	41.402	0.215	0.246
-363.683	115.542	0.397	0.612
-362.669	-200.000	-0.058	0.326
-361.654	-200.000	0.013	0.089
-360.639	800.000	-0.054	-0.271
-359.625	-18.278	0.235	-0.185
-358.610	-13.591	0.220	0.179
-357.596	4.051	0.332	0.306
-356.581	68.787	-0.157	-0.203
-355.566	462.699	-0.074	0.208
-354.552	-200.000	0.169	0.000
-353.537	198.231	-0.054	0.104
-352.523	-42.825	-0.520	0.332
-351.508	-57.305	-0.099	0.055
-350.493	-37.734	0.224	-0.150
-349.479	-200.000	0.003	-0.060
-348.464	800.000	0.036	-0.165
-347.450	-56.885	0.332	-0.184
-346.435	103.556	0.141	-0.209
-345.420	-200.000	-0.048	-0.616
-344.406	250.079	0.090	0.194
-343.391	-107.050	0.348	0.096
-342.377	800.000	-0.194	0.911
-341.362	9.485	-0.472	-0.450
-340.348	-94.108	-0.311	-0.107
-339.333	205.756	0.121	0.237
-338.318	-154.573	0.806	-0.067
-337.304	635.597	-0.040	-0.128
-336.289	-200.000	0.001	-0.052
-335.275	190.181	0.036	0.068
-334.260	-200.000	0.049	0.456
-333.245	-77.331	-0.439	0.191
-332.231	-200.000	-0.017	-0.188
-331.216	-200.000	0.043	-0.255
-330.202	-95.766	0.365	0.122
-329.187	-42.407	-0.507	-0.325
-328.172	547.553	-0.118	0.358
-327.158	800.000	0.026	0.123
-326.143	-117.191	-0.332	0.075
-325.129	800.000	0.025	-0.128
-324.114	257.433	-0.089	-0.194
-323.099	-29.845	-0.330	-0.236
-322.085	-77.136	0.098	-0.043
-321.070	800.000	0.065	0.343
-320.056	272.838	0.117	-0.261
-319.041	-27.697	-0.249	-0.182
-318.026	33.279	0.095	-0.104
-317.012	212.625	0.030	0.060
-315.997	-190.062	0.128	0.002
-314.983	448.894	-0.047	-0.132
-313.968	-200.000	-0.012	-0.540
-312.953	634.096	-0.084	-0.268
-311.939	-53.434	-0.156	0.089
-310.924	309.939	0.176	-0.415
-309.910	-150.707	-0.139	0.013
-308.895	437.624	-0.085	0.234
-307.880	-35.468	0.131	-0.089
-306.866	-72.669	0.098	-0.045
-305.851	233.434	0.346	0.718
-304.837	-136.479	-0.294	0.042
-303.822	106.284	-0.200	0.298
-302.807	-87.921	0.241	-0.090
-301.793	151.415	0.048	-0.083
-300.778	800.000	-0.031	0.112
-299.764	-54.247	0.183	-0.104
-298.749	551.497	-0.075	0.227
-297.735	15.244	-0.186	-0.183
-296.720	9.371	-0.204	0.194
-295.705	-130.624	-0.417	0.070
-294.691	-42.036	0.167	-0.107
-293.676	-65.567	0.096	0.048
-292.662	60.825	0.047	0.059
-291.647	-27.022	0.113	0.083
-290.632	3.696	-0.134	-0.123
-289.618	-153.609	-0.150	0.013
-288.603	151.105	0.021	-0.037
-287.589	261.789	0.175	-0.383
-286.574	-22.879	0.145	0.109
-285.559	800.000	0.110	0.598
-284.545	-116.209	0.214	0.049
-283.530	111.013	-0.405	-0.613
-282.516	580.647	0.095	0.293
-281.501	18.560	-0.132	0.133
-280.486	639.807	0.094	-0.302
-279.472	541.728	-0.108	0.323
-278.457	-154.660	0.119	-0.010
-277.443	-148.234	-0.025	0.003
-276.428	174.388	0.283	0.516
-275.413	96.844	-0.251	0.361
-274.399	-200.000	-0.012	0.120
-273.384	-200.000	-0.007	0.184
-272.370	107.735	-0.177	0.264
-271.355	282.940	-0.099	-0.223
-270.340	-175.715	0.220	-0.007
-269.326	92.061	-0.108	0.153
-268.311	-200.000	0.006	-0.150
-267.297	800.000	-0.124	-0.506
-266.282	-200.000	0.012	-0.241
-265.267	84.095	0.160	0.220
-264.253	54.308	-0.187	-0.226
-263.238	-200.000	0.022	-0.553
-262.224	192.033	0.179	-0.340
-261.209	323.238	-0.217	-0.522
-260.195	-123.195	-0.321	0.064
-259.180	58.491	0.244	0.301
-258.165	61.306	-0.355	0.443
-257.151	-124.741	-0.200	0.038
-256.136	502.558	-0.056	0.164
-255.122	-24.775	0.333	-0.247
-254.107	60.907	-0.250	-0.312
-253.092	800.000	-0.073	-0.313
-252.078	176.833	-0.154	0.282
-251.063	73.549	-0.032	-0.042
-250.049	-90.698	0.529	-0.190
-249.034	-155.088	-0.387	-0.031
-248.019	-26.401	0.321	0.236
-247.005	-27.421	0.225	-0.164
-245.990	-16.191	0.326	0.259
-244.976	-91.578	0.232	0.082
-243.961	6.651	0.037	-0.035
-242.946	800.000	-0.048	0.182
-241.932	-1.026	0.235	0.208
-240.917	136.597	0.165	0.270
-239.903	-200.000	-0.057	0.450
-238.888	213.137	0.307	0.610
-237.873	288.039	0.316	0.719
-236.859	43.418	0.212	-0.243
-235.844	-34.604	0.551	0.377
-234.830	-65.620	0.270	-0.135
-233.815	351.523	-0.194	0.483
-232.800	317.477	-0.129	0.308
-231.786	592.085	0.072	0.224
-230.771	-200.000	-0.039	0.354
-229.757	178.117	0.019	-0.035
-228.742	-30.958	0.205	0.144
-227.727	-200.000	0.015	-0.203
-226.713	-83.469	0.314	0.125
-225.698	213.163	0.074	0.146
-224.684	30.560	-0.386	0.414
-223.669	800.000	0.203	0.835
-222.655	-39.004	-0.293	0.192
-221.640	-25.711	-0.345	0.254
-220.625	-200.000	-0.072	0.544
-219.611	62.910	-0.325	-0.407
-218.596	-97.038	-0.255	0.083
-217.582	-73.890	0.194	-0.088
-216.567	669.335	-0.015	-0.050
-215.552	155.232	0.208	-0.359
-214.538	-68.065	0.572	-0.278
-213.523	37.951	0.062	0.069
-212.509	-8.043	0.269	0.226
-211.494	40.852	0.065	-0.074
-210.479	82.113	0.120	-0.163
-209.465	483.878	-0.058	0.166
-208.450	800.000	-0.065	-0.237
-207.436	-47.360	-0.095	0.058
-206.421	-200.000	0.043	-0.562
-205.406	199.907	0.187	-0.361
-204.392	495.625	0.124	0.357
-203.377	-75.770	0.377	-0.166
-202.363	-99.709	-0.084	0.026
-201.348	-63.498	0.139	0.071
-200.333	-39.081	0.327	0.215
-199.319	-163.174	0.406	-0.024
-198.304	-96.274	0.174	0.057
-197.290	93.797	-0.088	-0.125
-196.275	225.428	0.082	-0.167
-195.260	-25.479	0.369	0.273
-194.246	-69.949	-0.175	0.083
-193.231	240.665	0.180	-0.378
-192.217	-69.872	0.348	0.165
-191.202	-200.000	0.014	-0.338
-190.187	23.900	0.311	-0.320
-189.173	-32.792	-0.180	0.125
-188.158	-200.000	0.112	-0.633
-187.144	411.459	0.073	-0.195
-186.129	-82.339	-0.159	-0.064
-185.114	627.264	-0.063	0.200
-184.100	-172.894	0.364	-0.014
-183.085	-132.201	-0.249	0.040
-182.071	-55.637	0.443	0.247
-181.056	396.134	0.192	-0.503
-180.042	-12.433	0.111	0.091
-179.027	65.337	0.132	-0.167
-178.012	-109.724	0.384	-0.100
-176.998	-61.161	-0.379	-0.199
-175.983	-63.684	-0.189	0.096
-174.969	-97.505	0.415	0.134
-173.954	435.761	-0.187	-0.510
-172.939	-137.139	-0.429	-0.060
-171.925	57.882	-0.102	0.125
-170.910	800.000	0.039	0.154
-169.896	-190.808	0.272	-0.004
-168.881	-116.960	-0.025	0.006
-167.866	-71.169	0.251	0.117
-166.852	241.885	0.167	-0.350
-165.837	5.465	0.287	0.264
-164.823	-86.085	-0.476	0.183
-163.808	84.197	0.093	-0.127
-162.793	-200.000	0.030	0.398
-161.779	-76.713	0.185	0.081
-160.764	443.727	-0.119	-0.327
-159.750	39.329	-0.200	-0.224
-158.735	-16.865	0.329	0.260
-157.720	27.594	-0.292	0.307
-156.706	367.760	-0.232	0.589
-155.691	228.073	-0.034	-0.070
-154.677	800.000	-0.168	-0.654
-153.662	-65.263	0.436	0.219
-152.647	97.212	-0.110	0.157
-151.633	-135.666	-0.503	0.074
-150.618	-46.056	-0.295	-0.181
-149.604	800.000	-0.029	-0.152
-148.589	800.000	-0.061	-0.240
-147.574	-113.531	0.537	0.130
-146.560	-200.000	0.020	-0.299
-145.545	159.042	-0.155	-0.271
-144.531	-38.259	0.629	0.415
-143.516	68.095	-0.019	0.025
-142.502	217.300	-0.171	-0.341
-141.487	-13.112	-0.220	0.178
-140.472	19.128	0.370	-0.370
-139.458	23.618	0.044	-0.046
-138.443	-22.276	0.010	0.008
-137.429	416.644	-0.148	0.397
-136.414	245.507	-0.046	-0.096
-135.399	-58.674	-0.228	-0.123
-134.385	-61.474	-0.322	0.168
-133.370	800.000	0.101	-0.385
-132.356	-27.921	0.309	-0.223
-131.341	-200.000	-0.094	0.648
-130.326	-3.050	-0.070	0.061
-129.312	-115.799	-0.413	-0.096
-128.297	-17.959	-0.195	-0.152
-127.283	223.054	-0.305	0.616
-126.268	27.833	-0.288	0.303
-125.253	39.526	-0.258	0.289
-124.239	-6.538	-0.162	-0.138
-123.224	-88.829	0.180	-0.066
-122.210	640.909	0.091	-0.290
-121.195	-200.000	0.007	-0.303
