DTS Sentinel unit serial number:	SN409020Multiplexer serial number:	ORYXHardware model number:	OX4-SRSoftware version number:	ORYX F/W v3.00 Oryx Data Collector v3.7.2.0data status	okinstallation	HaddamTimeLapsedifferential loss correction	single-endedforward channel	channel 3reverse channel	N/Adate	2011/06/21time	22:36:17forward acquisition time	30.00reverse acquisition time	0.00gamma	498.7831k internal	0.1756k external	0.1756temperature offset calibration	1.0074default loss term (dB/km)	0.3790temperature slope calibration	1.3530multiplexer offset coefficient	1.0000multiplexer slope coefficient	1.0000fibre end	0.00T internal ref (°C)	23.97T ext. ref 1 (°C)	18.75T ext. ref 2 (°C)	0.04length (m)	temperature (°C)	Stokes	anti-Stokes-747.200	217.049	0.091	-0.192
-746.185	372.574	0.078	0.210
-745.171	-37.018	-0.360	0.255
-744.156	-122.133	-0.171	0.037
-743.142	-86.295	0.378	-0.153
-742.127	800.000	-0.142	0.591
-741.112	-40.520	0.280	0.192
-740.098	255.998	0.061	-0.140
-739.083	-200.000	-0.037	0.453
-738.069	19.566	0.564	0.601
-737.054	-49.393	-0.314	0.198
-736.039	-200.000	0.012	-0.384
-735.025	-200.000	-0.312	-0.001
-734.010	-111.663	-0.088	-0.024
-732.996	-200.000	-0.028	-0.505
-731.981	-200.000	-0.053	-0.429
-730.966	-135.590	-0.310	0.048
-729.952	-71.727	0.211	-0.104
-728.937	-64.424	-0.332	-0.178
-727.923	200.508	-0.137	-0.280
-726.908	-57.524	-0.063	0.036
-725.894	13.618	-0.290	-0.298
-724.879	-114.365	-0.173	0.044
-723.864	-104.025	-0.092	-0.028
-722.850	-104.359	0.666	0.203
-721.835	-70.847	0.412	0.205
-720.821	-48.165	0.335	0.213
-719.806	-24.918	0.521	0.408
-718.791	70.950	0.074	0.101
-717.777	-177.151	0.269	0.009
-716.762	77.908	-0.016	0.023
-715.748	-104.315	-0.378	0.115
-714.733	-152.356	-0.334	0.031
-713.718	800.000	0.102	-0.485
-712.704	-200.000	-0.041	-0.270
-711.689	641.779	0.163	-0.553
-710.675	-121.127	0.317	0.070
-709.660	96.775	0.178	0.270
-708.645	-65.723	0.444	-0.235
-707.631	-83.310	-0.271	0.115
-706.616	258.681	0.005	0.012
-705.602	-24.697	-0.275	-0.216
-704.587	262.757	0.050	-0.116
-703.572	-200.000	0.072	0.473
-702.558	193.183	0.118	-0.236
-701.543	25.632	-0.117	-0.129
-700.529	-100.836	0.371	0.120
-699.514	-7.312	-0.434	-0.389
-698.499	-66.178	-0.322	-0.169
-697.485	-98.695	-0.321	0.108
-696.470	-90.336	-0.262	0.100
-695.456	-18.521	-0.343	-0.283
-694.441	-73.421	0.033	0.016
-693.426	-75.424	-0.088	-0.041
-692.412	-200.000	0.078	0.481
-691.397	398.887	0.076	-0.211
-690.383	75.670	-0.118	-0.165
-689.368	-69.630	0.135	-0.068
-688.354	-116.375	-0.387	-0.094
-687.339	-200.000	0.030	-0.250
-686.324	322.200	0.236	0.597
-685.310	138.023	0.075	0.131
-684.295	800.000	-0.082	-0.341
-683.281	-81.642	-0.469	0.203
-682.266	-200.000	0.024	-0.243
-681.251	-45.190	-0.223	0.146
-680.237	95.009	-0.296	0.447
-679.222	-116.822	0.182	0.044
-678.208	-13.102	0.107	-0.091
-677.193	15.649	0.259	-0.269
-676.178	377.324	0.096	-0.260
-675.164	-200.000	0.043	0.282
-674.149	-94.072	0.446	0.161
-673.135	-103.740	0.452	-0.139
-672.120	230.437	0.114	-0.246
-671.105	-53.729	0.173	0.104
-670.091	443.893	-0.168	-0.488
-669.076	800.000	0.061	-0.248
-668.062	-200.000	-0.040	-0.404
-667.047	447.996	0.016	-0.046
-666.032	-200.000	-0.065	0.551
-665.018	1.078	0.201	-0.190
-664.003	280.396	-0.210	-0.498
-662.989	-100.111	-0.626	0.205
-661.974	-27.634	0.336	-0.257
-660.959	179.291	0.076	-0.147
-659.945	223.033	-0.090	-0.193
-658.930	238.505	-0.187	0.411
-657.916	-26.955	-0.215	0.166
-656.901	254.056	-0.132	0.300
-655.886	-200.000	-0.060	0.704
-654.872	42.403	-0.119	-0.142
-653.857	-168.838	-0.165	0.008
-652.843	-186.842	-0.283	0.005
-651.828	242.927	-0.307	-0.681
-650.814	-200.000	-0.014	0.139
-649.799	143.645	0.314	-0.553
-648.784	-200.000	-0.055	0.386
-647.770	-97.068	0.449	0.154
-646.755	177.220	0.218	0.420
-645.741	11.206	-0.226	0.228
-644.726	-31.038	-0.212	0.157
-643.711	-164.996	-0.898	-0.052
-642.697	-36.212	-0.187	0.133
-641.682	-146.559	-0.302	-0.034
-640.668	222.500	-0.104	0.223
-639.653	-160.024	-0.334	-0.024
-638.638	198.170	-0.157	0.317
-637.624	255.539	0.087	-0.198
-636.609	46.760	0.146	-0.179
-635.595	37.073	-0.299	-0.349
-634.580	155.659	0.160	-0.291
-633.565	745.013	-0.096	0.343
-632.551	-162.247	-0.101	0.007
-631.536	-66.230	-0.129	-0.068
-630.522	-100.098	0.255	-0.083
-629.507	800.000	0.058	-0.294
-628.492	-96.482	0.314	-0.109
-627.478	33.352	0.394	0.452
-626.463	-60.215	-0.109	0.061
-625.449	-74.261	0.458	-0.218
-624.434	72.484	0.086	-0.119
-623.419	-151.167	0.187	0.018
-622.405	-24.118	0.414	-0.325
-621.390	40.551	-0.112	-0.133
-620.376	657.518	-0.081	-0.278
-619.361	800.000	-0.085	0.373
-618.346	-166.107	-0.081	-0.004
-617.332	-200.000	0.047	0.452
-616.317	800.000	-0.047	0.221
-615.303	-200.000	0.037	-0.349
-614.288	-55.459	-0.182	0.107
-613.273	3.103	0.236	0.226
-612.259	-3.353	0.049	0.045
-611.244	-149.031	0.314	-0.033
-610.230	-200.000	0.015	0.197
-609.215	-200.000	-0.072	-0.456
-608.201	169.068	0.274	-0.516
-607.186	-64.694	0.153	-0.082
-606.171	-48.770	0.434	-0.274
-605.157	241.676	0.119	-0.262
-604.142	728.107	0.065	0.231
-603.128	800.000	-0.097	-0.397
-602.113	-159.206	-0.410	0.030
-601.098	-142.571	-0.304	-0.039
-600.084	-150.277	0.343	0.034
-599.069	-61.132	-0.243	0.135
-598.055	375.076	-0.044	-0.118
-597.040	-182.104	0.170	0.004
-596.025	458.360	-0.046	-0.135
-595.011	-200.000	0.001	-0.074
-593.996	132.427	0.332	0.565
-592.982	35.018	0.274	-0.316
-591.967	-128.447	-0.108	-0.020
-590.952	-12.461	0.278	0.239
-589.938	778.414	-0.117	0.422
-588.923	122.835	-0.103	0.170
-587.909	-27.319	-0.157	0.120
-586.894	-144.830	0.417	-0.050
-585.879	-200.000	0.003	0.079
-584.865	-110.010	-0.464	-0.127
-583.850	130.005	-0.241	-0.407
-582.836	800.000	0.066	-0.357
-581.821	147.412	-0.172	0.307
-580.806	-200.000	-0.003	0.132
-579.792	-87.380	0.091	0.036
-578.777	-75.702	0.203	0.094
-577.763	41.025	-0.056	-0.066
-576.748	408.915	-0.095	0.266
-575.733	-54.816	-0.186	0.110
-574.719	-2.746	0.319	-0.293
-573.704	-39.763	-0.035	0.024
-572.690	51.549	0.181	0.227
-571.675	-194.708	-0.752	0.008
-570.661	-12.827	-0.255	0.218
-569.646	-96.992	0.137	0.047
-568.631	98.387	0.329	-0.499
-567.617	800.000	0.040	-0.200
-566.602	-0.100	0.362	-0.338
-565.588	-65.264	-0.177	0.093
-564.573	-128.348	0.277	0.051
-563.558	79.062	0.149	0.210
-562.544	14.315	0.182	-0.186
-561.529	190.043	-0.054	0.107
-560.515	-51.017	0.176	0.109
-559.500	-200.000	-0.008	0.381
-558.485	-19.145	-0.279	-0.228
-557.471	-200.000	0.021	0.403
-556.456	-62.060	-0.366	0.200
-555.442	-71.271	-0.530	-0.261
-554.427	60.916	-0.310	0.405
-553.412	-143.928	-0.269	-0.033
-552.398	189.131	-0.197	0.390
-551.383	-69.072	0.356	-0.179
-550.369	-200.000	-0.351	0.001
-549.354	-52.250	0.593	0.361
-548.339	-200.000	-0.036	0.503
-547.325	-200.000	0.038	-0.409
-546.310	230.141	0.071	0.153
-545.296	269.865	0.129	-0.300
-544.281	58.317	-0.177	0.228
-543.266	-160.579	-0.395	-0.027
-542.252	-89.544	-0.286	-0.110
-541.237	-125.314	0.680	-0.135
-540.223	-56.305	0.108	0.063
-539.208	-168.506	0.303	-0.015
-538.193	-119.629	0.150	0.034
-537.179	-53.873	-0.234	0.140
-536.164	-57.094	0.132	-0.076
-535.150	-96.156	0.546	0.189
-534.135	114.174	0.183	-0.294
-533.121	-172.111	-0.446	-0.019
-532.106	-200.000	-0.019	0.321
-531.091	-82.061	0.118	-0.050
-530.077	100.623	0.181	-0.277
-529.062	-200.000	-0.005	-0.384
-528.048	45.113	0.072	-0.087
-527.033	-94.654	-0.268	0.095
-526.018	290.051	-0.172	-0.411
-525.004	-15.234	0.467	0.392
-523.989	-200.000	-0.019	0.142
-522.975	-96.304	0.181	0.063
-521.960	-200.000	0.034	0.271
-520.945	72.392	0.106	-0.146
-519.931	-171.337	0.408	0.018
-518.916	-102.942	-0.506	-0.157
-517.902	17.368	-0.128	0.133
-516.887	149.824	0.234	-0.417
-515.872	-56.244	-0.381	-0.222
-514.858	63.181	0.205	-0.270
-513.843	-148.035	0.048	0.005
-512.829	10.767	-0.419	-0.420
-511.814	76.983	-0.141	0.197
-510.799	-200.000	-0.004	0.176
-509.785	-61.831	0.231	0.126
-508.770	679.050	-0.060	-0.206
-507.756	31.518	0.182	0.206
-506.741	-126.089	0.309	-0.060
-505.726	-200.000	0.001	0.063
-504.712	-109.898	0.417	0.114
-503.697	800.000	0.033	-0.191
-502.683	-128.492	-0.249	-0.046
-501.668	-200.000	-0.024	0.273
-500.653	-95.104	0.146	0.052
-499.639	188.278	0.145	0.285
-498.624	-117.691	-0.386	0.090
-497.610	48.749	0.217	0.267
-496.595	-6.032	0.301	-0.270
-495.581	-200.000	-0.025	0.305
-494.566	84.156	-0.199	-0.286
-493.551	506.117	-0.042	0.128
-492.537	99.366	0.024	-0.036
-491.522	-0.522	0.194	-0.180
-490.508	800.000	0.034	-0.171
-489.493	-200.000	0.017	-0.336
-488.478	-71.629	-0.259	0.126
-487.464	201.713	0.043	-0.087
-486.449	-197.453	0.124	0.001
-485.435	800.000	-0.041	-0.179
-484.420	68.023	0.228	-0.307
-483.405	-58.907	-0.111	-0.063
-482.391	-107.545	0.066	-0.019
-481.376	-67.781	0.349	-0.178
-480.362	-31.633	0.293	-0.215
-479.347	800.000	0.040	0.212
-478.332	-95.777	0.545	-0.190
-477.318	-109.709	-0.388	-0.106
-476.303	460.002	0.142	-0.416
-475.289	76.004	0.119	-0.165
-474.274	6.613	0.241	0.235
-473.259	800.000	-0.031	0.126
-472.245	79.072	-0.105	-0.148
-471.230	-7.377	0.193	0.171
-470.216	-7.532	0.290	0.257
-469.201	-115.435	-0.360	-0.088
-468.186	10.624	0.111	0.111
-467.172	-3.669	0.294	0.267
-466.157	-82.584	-0.311	0.131
-465.143	-32.311	0.248	-0.181
-464.128	800.000	-0.041	0.180
-463.113	-197.181	0.830	0.007
-462.099	160.821	0.247	-0.453
-461.084	-71.398	0.037	-0.018
-460.070	58.585	0.176	-0.227
-459.055	81.610	-0.234	-0.332
-458.040	-143.524	0.631	-0.078
-457.026	-200.000	0.007	0.281
-456.011	-32.689	0.163	0.119
-454.997	203.286	-0.059	-0.120
-453.982	-69.376	-0.449	0.225
-452.968	-102.348	-0.233	0.073
-451.953	2.878	-0.427	0.406
-450.938	800.000	0.082	0.351
-449.924	160.120	0.084	0.154
-448.909	800.000	-0.132	-0.526
-447.895	-49.715	-0.281	-0.175
-446.880	63.422	0.243	-0.319
-445.865	-59.394	-0.405	-0.227
-444.851	-123.910	-0.464	-0.095
-443.836	-115.759	-0.425	-0.103
-442.822	-200.000	0.022	-0.252
-441.807	-26.823	-0.135	-0.103
-440.792	730.380	-0.074	0.262
-439.778	170.752	-0.144	0.272
-438.763	-6.935	0.484	-0.430
-437.749	800.000	-0.082	-0.330
-436.734	800.000	-0.088	-0.447
-435.719	-87.447	0.240	0.095
-434.705	-141.168	0.283	0.037
-433.690	-101.491	0.478	-0.151
-432.676	-27.579	0.168	0.127
-431.661	42.962	0.161	-0.192
-430.646	-73.983	-0.378	-0.179
-429.632	23.367	0.316	-0.340
-428.617	620.903	0.112	-0.370
-427.603	-16.135	-0.195	-0.162
-426.588	452.395	0.081	-0.237
-425.573	-74.669	0.361	-0.169
-424.559	-78.105	0.308	0.138
-423.544	800.000	-0.059	-0.308
-422.530	144.339	-0.191	-0.335
-421.515	-200.000	0.006	0.227
-420.500	18.132	-0.175	0.183
-419.486	250.460	0.122	0.272
-418.471	85.616	0.084	-0.121
-417.457	259.917	-0.191	-0.433
-416.442	137.706	-0.235	0.403
-415.428	-122.275	0.277	0.059
-414.413	12.445	-0.246	0.248
-413.398	-172.374	0.133	0.005
-412.384	-155.520	-0.469	0.039
-411.369	800.000	0.113	0.594
-410.355	598.220	-0.127	-0.415
-409.340	-200.000	-0.079	-0.635
-408.325	172.370	-0.201	-0.378
-407.311	-160.229	-0.364	0.025
-406.296	-200.000	0.021	0.435
-405.282	-60.178	0.400	-0.222
-404.267	-66.946	-0.216	-0.111
-403.252	-200.000	-0.005	0.406
-402.238	33.259	0.008	0.009
-401.223	-146.589	-0.518	0.058
-400.209	-159.911	-0.193	-0.014
-399.194	7.298	0.073	0.071
-398.179	-25.923	0.276	0.212
-397.165	-122.998	0.208	0.043
-396.150	504.036	0.113	0.344
-395.136	800.000	0.078	0.319
-394.121	-133.122	-0.315	0.052
-393.106	57.179	0.120	0.153
-392.092	800.000	0.025	-0.135
-391.077	-85.960	-0.230	0.092
-390.063	800.000	-0.118	0.433
-389.048	-145.756	-0.196	0.023
-388.033	42.942	-0.266	-0.317
-387.019	-60.409	0.174	-0.096
-386.004	-94.849	0.290	0.102
-384.990	496.439	-0.128	-0.388
-383.975	-200.000	0.085	-0.506
-382.960	-11.183	-0.201	-0.173
-381.946	151.500	-0.096	-0.172
-380.931	75.591	-0.053	0.073
-379.917	328.436	0.137	0.346
-378.902	312.881	-0.079	0.194
-377.888	-155.669	-0.181	-0.015
-376.873	-48.705	0.150	-0.094
-375.858	52.912	0.317	-0.396
-374.844	137.606	-0.181	-0.311
-373.829	-125.252	-0.190	-0.038
-372.815	36.454	0.079	0.091
-371.800	-0.660	0.233	-0.216
-370.785	800.000	-0.021	-0.099
-369.771	-200.000	0.008	-0.261
-368.756	-130.832	0.445	0.077
-367.742	131.017	0.112	0.189
-366.727	-81.753	0.129	-0.055
-365.712	-92.699	-0.137	-0.050
-364.698	-200.000	-0.007	0.052
-363.683	-18.804	-0.087	0.070
-362.669	4.068	-0.080	0.076
-361.654	-67.616	0.265	0.135
-360.639	8.925	-0.200	0.197
-359.625	238.387	-0.421	-0.916
-358.610	10.073	-0.266	-0.263
-357.596	-165.614	0.162	-0.009
-356.581	-76.444	0.194	0.089
-355.566	-200.000	-0.044	-0.501
-354.552	800.000	-0.062	-0.305
-353.537	-200.000	-0.012	0.347
-352.523	-124.618	0.160	0.032
-351.508	-33.150	-0.323	-0.233
-350.493	-15.691	-0.140	-0.117
-349.479	178.336	-0.047	-0.089
-348.464	528.255	0.094	-0.291
-347.450	-117.054	-0.514	0.121
-346.435	-114.975	-0.306	-0.075
-345.420	-68.282	0.199	0.100
-344.406	125.088	-0.057	0.094
-343.391	-143.062	-0.335	0.042
-342.377	-200.000	-0.010	-0.098
-341.362	-127.697	-0.217	-0.040
-340.348	89.242	0.074	-0.108
-339.333	117.256	0.201	0.323
-338.318	-200.000	0.094	0.927
-337.304	481.427	-0.266	-0.792
-336.289	609.995	-0.158	-0.517
-335.275	800.000	0.068	-0.374
-334.260	-200.000	-0.083	-0.561
-333.245	58.779	-0.236	-0.303
-332.231	192.599	0.113	0.223
-331.216	-200.000	0.024	0.211
-330.202	-123.791	0.202	-0.041
-329.187	71.161	0.219	0.296
-328.172	122.593	-0.106	0.173
-327.158	-200.000	-0.017	0.133
-326.143	692.925	0.011	-0.038
-325.129	-103.383	0.150	-0.046
-324.114	-20.678	-0.127	0.101
-323.099	-83.484	-0.223	0.093
-322.085	78.811	0.046	-0.065
-321.070	-175.210	0.452	0.016
-320.056	272.295	-0.269	-0.622
-319.041	685.067	-0.097	-0.333
-318.026	9.340	0.196	0.194
-317.012	-94.542	0.435	-0.153
-315.997	-105.218	-0.311	-0.092
-314.983	311.381	0.156	-0.382
-313.968	328.190	-0.048	-0.120
-312.953	800.000	-0.053	0.233
-311.939	269.594	-0.034	-0.077
-310.924	17.066	-0.167	-0.173
-309.910	800.000	0.059	-0.310
-308.895	-27.394	0.242	-0.183
-307.880	-92.668	-0.186	-0.068
-306.866	383.079	-0.090	0.242
-305.851	800.000	0.027	0.131
-304.837	-91.864	-0.292	-0.107
-303.822	-109.130	0.473	-0.130
-302.807	106.322	0.100	0.155
-301.793	-143.379	-0.143	0.018
-300.778	278.423	0.074	-0.171
-299.764	-47.741	0.473	-0.298
-298.749	23.575	-0.237	-0.254
-297.735	484.525	0.034	0.101
-296.720	-138.053	-0.492	-0.070
-295.705	-112.362	-0.481	0.124
-294.691	233.889	0.188	0.404
-293.676	-31.302	-0.161	0.118
-292.662	97.715	0.244	0.366
-291.647	-92.011	-0.249	0.091
-290.632	-52.838	-0.385	-0.230
-289.618	-31.664	0.046	-0.034
-288.603	-115.809	-0.277	-0.067
-287.589	-113.746	-0.265	0.067
-286.574	111.069	0.146	0.230
-285.559	-200.000	0.078	0.507
-284.545	356.774	0.138	0.359
-283.530	0.996	-0.178	0.166
-282.516	-93.112	0.169	0.061
-281.501	190.905	0.295	-0.579
-280.486	128.687	-0.132	0.219
-279.472	800.000	-0.147	0.816
-278.457	-200.000	-0.046	0.350
-277.443	800.000	-0.111	0.441
-276.428	235.290	-0.188	0.406
-275.413	-90.418	0.179	0.067
-274.399	365.663	0.077	-0.202
-273.384	405.763	-0.083	-0.229
-272.370	-19.999	-0.621	0.498
-271.355	278.168	-0.055	0.129
-270.340	408.107	-0.182	0.504
-269.326	-200.000	0.010	0.381
-268.311	213.739	0.214	-0.442
-267.297	-83.800	0.180	0.074
-266.282	-57.928	-0.517	0.293
-265.267	-101.623	0.539	-0.169
-264.253	-88.888	-0.327	0.126
-263.238	108.871	-0.273	-0.425
-262.224	90.239	-0.089	0.130
-261.209	148.526	-0.144	0.253
-260.195	-165.982	0.277	-0.015
-259.180	-200.000	-0.001	0.099
-258.165	596.443	0.120	-0.388
-257.151	800.000	0.034	-0.159
-256.136	128.359	0.107	0.177
-255.122	69.664	0.199	0.267
-254.107	231.353	0.195	-0.416
-253.092	28.410	-0.115	0.126
-252.078	-61.816	0.252	0.137
-251.063	89.951	0.074	0.108
-250.049	114.598	0.129	-0.204
-249.034	-58.822	-0.065	0.037
-248.019	-101.345	0.347	-0.109
-247.005	800.000	0.109	-0.435
-245.990	-74.200	-0.284	-0.133
-244.976	800.000	-0.040	0.199
-243.961	297.987	0.070	0.167
-242.946	-200.000	0.034	0.195
-241.932	36.810	-0.068	0.078
-240.917	115.612	-0.310	-0.494
-239.903	-103.764	0.393	0.119
-238.888	337.689	0.053	-0.136
-237.873	368.631	-0.134	0.354
-236.859	800.000	-0.096	0.414
-235.844	-2.550	-0.379	0.344
-234.830	-85.324	-0.390	0.157
-233.815	-44.412	-0.339	-0.220
-232.800	-37.820	-0.118	0.082
-231.786	-89.107	-0.258	0.099
-230.771	10.631	0.267	-0.265
-229.757	175.702	-0.304	-0.575
-228.742	-17.973	-0.207	0.168
-227.727	-89.054	0.376	0.144
-226.713	-149.435	-0.272	0.028
-225.698	-33.465	-0.279	-0.200
-224.684	-200.000	-0.025	0.240
-223.669	-170.335	-0.594	-0.027
-222.655	-83.019	0.236	-0.098
-221.640	-137.491	0.289	-0.042
-220.625	18.711	0.133	-0.138
-219.611	-74.320	-0.357	0.167
-218.596	62.534	-0.308	-0.400
-217.582	-162.741	0.090	0.006
-216.567	-200.000	0.029	0.237
-215.552	0.600	0.315	0.292
-214.538	-11.583	-0.256	0.218
-213.523	-174.493	-0.289	0.011
-212.509	153.372	0.227	-0.405
-211.494	190.452	0.066	-0.128
-210.479	-95.823	-0.089	0.031
-209.465	40.990	0.155	-0.182
-208.450	-19.752	-0.043	0.035
-207.436	294.864	0.152	0.363
-206.421	-125.541	-0.493	0.096
-205.406	-118.061	-0.236	0.054
-204.392	36.540	-0.042	-0.048
-203.377	-99.966	0.425	0.137
-202.363	725.704	-0.061	0.212
-201.348	800.000	-0.124	0.489
-200.333	200.502	0.283	0.566
-199.319	-67.291	0.467	0.238
-198.304	800.000	-0.059	-0.256
-197.290	-35.245	0.075	-0.053
-196.275	-147.183	0.329	0.036
-195.260	110.079	-0.182	-0.284
-194.246	-62.537	-0.413	-0.222
-193.231	-97.317	0.459	0.154
-192.217	-105.962	0.122	0.035
-191.202	-27.632	0.454	0.341
-190.187	178.053	-0.178	0.337
-189.173	-79.851	0.086	-0.037
-188.158	-161.834	0.061	-0.004
-187.144	-200.000	-0.025	0.265
-186.129	-50.217	0.257	-0.157
-185.114	-182.272	-0.202	0.005
-184.100	-28.654	0.312	0.232
-183.085	500.171	-0.048	0.146
-182.071	-116.751	-0.107	-0.025
-181.056	-200.000	-0.040	0.235
-180.042	-200.000	-0.023	0.476
-179.027	43.089	0.132	0.156
-178.012	-184.577	0.104	0.002
-176.998	-200.000	0.048	-0.363
-175.983	800.000	-0.093	0.412
-174.969	-200.000	-0.023	0.147
-173.954	63.285	-0.039	0.051
-172.939	-111.065	0.415	-0.110
-171.925	-126.343	-0.332	0.064
-170.910	-77.521	-0.426	-0.191
-169.896	-191.352	0.294	0.004
-168.881	-158.166	0.495	-0.037
-167.866	-10.355	-0.196	-0.168
-166.852	1.777	-0.204	0.190
-165.837	800.000	0.182	-0.772
-164.823	-98.784	0.322	0.105
-163.808	-18.692	-0.510	0.411
-162.793	146.042	-0.163	0.283
-161.779	234.440	0.159	0.341
-160.764	10.456	0.347	0.342
-159.750	-62.952	-0.194	0.104
-158.735	-21.320	0.253	0.199
-157.720	379.933	0.027	0.073
-156.706	-73.638	-0.299	0.140
-155.691	-200.000	0.013	-0.140
-154.677	53.919	0.123	-0.153
-153.662	356.763	0.123	-0.318
-152.647	-25.362	-0.285	-0.218
-151.633	800.000	-0.141	0.528
-150.618	41.644	-0.122	0.143
-149.604	-64.319	-0.184	-0.097
-148.589	-131.271	-0.340	-0.058
-147.574	-175.952	0.078	0.003
-146.560	-126.816	0.182	0.034
-145.545	89.032	-0.291	0.420
-144.531	-84.749	0.212	0.086
-143.516	800.000	0.043	-0.217
-142.502	-124.797	-0.382	0.076
-141.487	-68.248	0.324	-0.162
-140.472	-200.000	-0.016	-0.545
-139.458	-25.089	0.505	-0.387
-138.443	47.462	-0.139	-0.168
-137.429	-88.806	-0.493	0.188
-136.414	-126.743	-0.297	0.056
-135.399	-76.409	0.091	-0.041
-134.385	410.580	0.175	-0.482
-133.370	-5.678	-0.205	-0.182
-132.356	-149.824	0.244	0.024
-131.341	800.000	-0.040	0.217
-130.326	158.566	-0.211	0.380
-129.312	256.340	-0.173	0.385
-128.297	-26.267	-0.361	0.273
-127.283	-133.935	-0.332	0.053
-126.268	-200.000	0.042	-0.279
-125.253	-122.771	-0.335	0.069
-124.239	-182.417	-0.106	0.002
-123.224	-73.383	0.120	0.056
-122.210	-200.000	-0.020	0.238
-121.195	62.218	0.175	-0.226
