DTS Sentinel unit serial number:	SN409020Multiplexer serial number:	ORYXHardware model number:	OX4-SRSoftware version number:	ORYX F/W v3.00 Oryx Data Collector v3.7.2.0data status	okinstallation	HaddamTimeLapsedifferential loss correction	single-endedforward channel	channel 3reverse channel	N/Adate	2011/06/21time	21:21:16forward acquisition time	30.00reverse acquisition time	0.00gamma	498.7831k internal	0.1764k external	0.1764temperature offset calibration	1.0074default loss term (dB/km)	0.3790temperature slope calibration	1.3530multiplexer offset coefficient	1.0000multiplexer slope coefficient	1.0000fibre end	0.00T internal ref (°C)	26.69T ext. ref 1 (°C)	19.89T ext. ref 2 (°C)	0.03length (m)	temperature (°C)	Stokes	anti-Stokes-747.200	-126.548	-0.219	0.042
-746.185	800.000	-0.007	-0.034
-745.171	-38.427	-0.019	-0.013
-744.156	136.906	-0.166	0.287
-743.142	-112.658	-0.176	-0.046
-742.127	359.526	0.344	0.910
-741.112	-92.775	0.119	-0.044
-740.098	86.014	0.145	0.211
-739.083	501.825	0.085	0.261
-738.069	311.850	0.325	0.808
-737.054	65.667	0.220	-0.295
-736.039	126.871	0.282	0.471
-735.025	-139.397	-0.068	0.010
-734.010	43.463	0.175	0.211
-732.996	800.000	0.045	0.212
-731.981	-200.000	-0.381	0.001
-730.966	154.338	-0.037	-0.068
-729.952	-90.915	0.295	0.111
-728.937	-200.000	-0.006	0.077
-727.923	-99.492	0.082	-0.027
-726.908	126.605	0.242	-0.405
-725.894	283.433	0.052	0.123
-724.879	-178.516	0.452	-0.014
-723.864	-103.398	-0.223	0.069
-722.850	117.954	-0.173	0.281
-721.835	-110.698	0.413	-0.112
-720.821	-187.450	0.027	0.000
-719.806	-100.851	-0.380	0.122
-718.791	590.853	0.040	0.130
-717.777	-117.106	0.561	-0.134
-716.762	800.000	0.081	-0.439
-715.748	-15.119	0.275	0.232
-714.733	-35.046	-0.149	-0.106
-713.718	-161.207	-0.198	0.013
-712.704	-82.536	-0.244	-0.104
-711.689	800.000	0.069	-0.310
-710.675	71.225	-0.253	-0.346
-709.660	-118.473	-0.288	0.067
-708.645	-116.803	-0.380	-0.091
-707.631	-85.152	0.572	-0.235
-706.616	64.201	0.266	-0.352
-705.602	3.926	-0.379	-0.365
-704.587	800.000	0.043	0.247
-703.572	-200.000	0.013	0.266
-702.558	46.215	0.312	0.381
-701.543	-34.253	-0.506	0.365
-700.529	800.000	-0.064	-0.354
-699.514	-7.211	-0.230	-0.205
-698.499	64.741	0.222	0.295
-697.485	84.824	-0.144	-0.208
-696.470	-4.389	0.128	0.116
-695.456	186.148	-0.111	-0.219
-694.441	-60.350	-0.371	0.207
-693.426	-112.197	0.631	-0.166
-692.412	71.248	-0.259	-0.354
-691.397	-200.000	0.003	0.086
-690.383	-200.000	0.032	-0.335
-689.368	-122.979	0.648	0.136
-688.354	800.000	-0.087	-0.337
-687.339	18.928	-0.286	-0.301
-686.324	-28.269	0.379	-0.288
-685.310	-100.514	0.364	-0.118
-684.295	-59.405	-0.317	-0.179
-683.281	-55.106	-0.330	0.195
-682.266	77.467	-0.248	-0.347
-681.251	-99.708	0.655	-0.215
-680.237	-138.314	0.226	-0.032
-679.222	760.589	0.173	0.622
-678.208	-200.000	0.005	0.375
-677.193	800.000	0.098	0.398
-676.178	-174.787	0.252	0.009
-675.164	-200.000	-0.006	0.098
-674.149	-81.728	-0.520	0.223
-673.135	73.214	-0.181	0.250
-672.120	181.855	-0.015	-0.029
-671.105	-128.517	-0.591	0.109
-670.091	800.000	0.066	0.296
-669.076	-46.653	-0.067	-0.043
-668.062	476.329	-0.127	0.380
-667.047	3.068	-0.268	0.256
-666.032	114.894	0.051	0.083
-665.018	-51.088	0.140	0.086
-664.003	-38.883	0.506	-0.350
-662.989	261.274	0.137	-0.313
-661.974	-102.186	0.320	-0.100
-660.959	-200.000	0.063	-0.410
-659.945	81.085	-0.225	0.320
-658.930	800.000	-0.068	-0.332
-657.916	-106.244	0.341	-0.100
-656.901	800.000	-0.023	0.100
-655.886	-40.315	-0.066	0.045
-654.872	-88.493	0.585	0.228
-653.857	-121.119	-0.206	0.045
-652.843	-88.589	0.236	0.092
-651.828	323.758	-0.102	0.257
-650.814	-73.261	0.114	-0.055
-649.799	-200.000	-0.068	0.464
-648.784	508.179	0.067	0.205
-647.770	-68.711	-0.220	-0.112
-646.755	15.045	-0.271	-0.279
-645.741	-200.000	0.028	-0.262
-644.726	-44.392	0.408	-0.268
-643.711	800.000	-0.030	0.110
-642.697	-200.000	-0.022	0.277
-641.682	449.052	-0.142	-0.413
-640.668	800.000	0.054	0.202
-639.653	274.962	-0.070	0.164
-638.638	-46.002	-0.196	-0.126
-637.624	-49.280	0.260	0.163
-636.609	-200.000	-0.040	0.252
-635.595	-165.266	0.187	0.011
-634.580	800.000	-0.091	-0.504
-633.565	800.000	-0.036	-0.152
-632.551	-12.115	0.360	-0.309
-631.536	-51.174	0.483	-0.296
-630.522	-200.000	0.013	-0.116
-629.507	49.526	-0.368	0.455
-628.492	-82.342	0.304	0.129
-627.478	800.000	0.042	0.155
-626.463	327.558	0.104	0.264
-625.449	-101.879	0.429	0.135
-624.434	-79.858	0.309	0.136
-623.419	-157.517	0.261	0.020
-622.405	-126.960	-0.218	-0.042
-621.390	-95.025	0.072	0.025
-620.376	-91.141	0.251	0.094
-619.361	-84.982	0.334	-0.137
-618.346	153.611	0.176	-0.317
-617.332	-200.000	0.020	-0.307
-616.317	-200.000	-0.018	-0.148
-615.303	331.525	-0.066	0.168
-614.288	279.315	0.301	0.707
-613.273	3.050	0.092	0.088
-612.259	168.171	0.306	0.573
-611.244	-39.490	-0.161	0.111
-610.230	-112.426	-0.096	0.025
-609.215	-48.121	0.395	-0.249
-608.201	-58.876	-0.243	-0.137
-607.186	-53.014	0.146	0.088
-606.171	-200.000	0.050	-0.365
-605.157	522.317	0.113	0.348
-604.142	-28.248	-0.358	0.271
-603.128	-200.000	-0.013	-0.155
-602.113	-72.812	0.586	0.282
-601.098	-51.452	0.247	0.151
-600.084	-70.660	-0.276	0.136
-599.069	-15.142	0.107	-0.090
-598.055	800.000	-0.070	-0.390
-597.040	-128.719	0.089	0.016
-596.025	-76.336	-0.256	-0.118
-595.011	151.222	-0.227	-0.406
-593.996	-101.487	-0.250	0.079
-592.982	271.285	-0.210	0.486
-591.967	-109.960	0.389	-0.106
-590.952	-200.000	-0.001	-0.208
-589.938	-85.984	-0.283	-0.114
-588.923	-200.000	0.048	-0.485
-587.909	-72.030	0.289	-0.140
-586.894	-101.956	-0.596	0.187
-585.879	-200.000	-0.016	0.312
-584.865	-39.776	0.241	0.164
-583.850	3.625	0.210	-0.200
-582.836	21.124	0.374	-0.397
-581.821	-38.060	0.466	-0.323
-580.806	-112.109	-0.138	0.036
-579.792	-101.319	0.099	0.032
-578.777	-101.327	0.234	0.074
-577.763	-200.000	0.024	-0.466
-576.748	140.913	0.219	-0.381
-575.733	157.555	0.034	0.062
-574.719	-35.117	0.166	0.118
-573.704	-150.056	0.482	-0.049
-572.690	-25.913	0.375	-0.288
-571.675	391.486	0.080	-0.219
-570.661	552.232	0.046	-0.144
-569.646	115.942	-0.315	0.505
-568.631	-17.523	0.228	-0.188
-567.617	-110.503	0.672	-0.181
-566.602	-162.702	0.406	-0.026
-565.588	-30.365	-0.366	0.271
-564.573	-170.073	0.481	0.022
-563.558	-92.076	-0.567	0.209
-562.544	-53.369	0.649	0.388
-561.529	-137.672	0.194	-0.028
-560.515	207.278	0.187	-0.382
-559.500	110.305	0.246	0.388
-558.485	91.144	-0.245	-0.360
-557.471	-200.000	0.004	0.065
-556.456	800.000	0.029	0.131
-555.442	-62.217	0.261	-0.142
-554.427	-123.853	0.166	-0.034
-553.412	14.730	-0.143	0.146
-552.398	-36.268	0.573	-0.404
-551.383	-71.046	-0.235	0.115
-550.369	83.792	-0.202	-0.289
-549.354	110.631	-0.103	-0.163
-548.339	-142.787	-0.026	-0.003
-547.325	-173.948	-0.142	-0.005
-546.310	800.000	0.063	-0.279
-545.296	800.000	-0.031	0.156
-544.281	-70.143	-0.221	0.109
-543.266	-20.144	0.196	0.158
-542.252	800.000	-0.058	0.324
-541.237	51.454	0.223	0.277
-540.223	-56.109	0.414	0.241
-539.208	800.000	-0.123	-0.456
-538.193	-126.980	0.656	-0.125
-537.179	-66.361	0.138	0.071
-536.164	-63.686	-0.217	-0.116
-535.150	-200.000	-0.017	-0.186
-534.135	-114.867	0.489	-0.121
-533.121	-79.472	-0.409	-0.180
-532.106	103.635	0.054	-0.084
-531.091	-83.886	0.799	0.331
-530.077	113.139	0.051	-0.081
-529.062	350.804	-0.170	0.441
-528.048	1.944	0.275	0.259
-527.033	36.757	0.185	-0.214
-526.018	98.700	0.091	-0.138
-525.004	-140.412	0.169	0.023
-523.989	706.696	0.071	-0.246
-522.975	550.729	-0.074	-0.232
-521.960	-200.000	0.009	-0.112
-520.945	-200.000	0.012	0.093
-519.931	-133.503	-0.339	-0.055
-518.916	38.868	-0.193	0.225
-517.902	2.854	0.198	0.188
-516.887	109.475	-0.267	-0.418
-515.872	-138.324	-0.325	0.046
-514.858	30.845	-0.040	-0.045
-513.843	272.824	0.095	-0.221
-512.829	-59.134	0.295	0.165
-511.814	-200.000	-0.045	0.387
-510.799	38.885	-0.188	-0.219
-509.785	-153.883	-0.857	0.076
-508.770	-200.000	-0.021	0.396
-507.756	-20.581	0.164	0.131
-506.741	-200.000	0.020	0.143
-505.726	441.112	-0.017	0.049
-504.712	-200.000	0.009	-0.094
-503.697	-200.000	-0.002	0.228
-502.683	-160.681	-0.319	0.022
-501.668	-200.000	-0.009	-0.370
-500.653	514.698	0.119	0.365
-499.639	165.322	0.078	0.145
-498.624	418.950	-0.113	-0.318
-497.610	800.000	-0.077	-0.302
-496.595	671.727	0.230	-0.782
-495.581	-165.327	-0.437	-0.025
-494.566	92.179	0.218	-0.321
-493.551	-135.198	-0.409	-0.063
-492.537	-13.758	0.057	0.048
-491.522	90.105	0.398	0.582
-490.508	-130.994	0.240	0.041
-489.493	-81.284	0.151	0.065
-488.478	-63.251	0.225	0.121
-487.464	-56.739	-0.370	0.213
-486.449	52.625	-0.135	-0.169
-485.435	58.606	-0.133	0.170
-484.420	-77.738	0.161	-0.073
-483.405	-48.752	-0.176	-0.110
-482.391	-136.665	-0.383	0.057
-481.376	-37.503	-0.342	-0.238
-480.362	-168.390	-0.052	-0.003
-479.347	-200.000	0.033	-0.253
-478.332	-43.286	0.072	0.048
-477.318	-98.032	0.397	0.133
-476.303	-52.705	0.447	-0.269
-475.289	-200.000	0.016	-0.362
-474.274	-200.000	-0.033	-0.288
-473.259	3.730	-0.393	0.374
-472.245	-11.162	0.246	0.211
-471.230	-99.322	-0.151	0.049
-470.216	-200.000	0.055	-0.475
-469.201	28.949	-0.198	-0.219
-468.186	-110.958	-0.453	-0.121
-467.172	-14.721	-0.230	0.192
-466.157	-33.671	-0.168	-0.120
-465.143	-69.205	0.464	-0.232
-464.128	-35.861	-0.166	0.117
-463.113	-25.141	0.135	0.104
-462.099	-60.832	0.139	-0.077
-461.084	-44.258	-0.211	0.137
-460.070	-93.919	0.218	-0.078
-459.055	33.124	-0.231	-0.261
-458.040	89.318	0.225	-0.327
-457.026	-40.958	-0.525	0.353
-456.011	526.509	0.129	-0.398
-454.997	59.907	0.243	0.313
-453.982	800.000	0.095	0.398
-452.968	-104.892	-0.192	-0.057
-451.953	-63.650	-0.107	-0.057
-450.938	-103.667	0.222	0.067
-449.924	-200.000	0.047	-0.290
-448.909	-200.000	-0.010	0.354
-447.895	800.000	0.076	0.405
-446.880	52.618	0.335	0.417
-445.865	-90.016	0.173	0.065
-444.851	-113.965	0.174	-0.044
-443.836	-20.067	-0.225	0.180
-442.822	121.936	0.149	0.243
-441.807	-114.996	0.081	-0.020
-440.792	-31.436	-0.310	-0.227
-439.778	153.208	0.107	0.191
-438.763	18.992	-0.246	0.257
-437.749	800.000	-0.080	-0.363
-436.734	-73.700	0.484	0.228
-435.719	571.407	-0.097	-0.309
-434.705	-200.000	-0.057	0.516
-433.690	-125.475	-0.130	-0.025
-432.676	-200.000	-0.003	-0.380
-431.661	129.123	0.118	0.197
-430.646	-124.134	0.364	-0.074
-429.632	-52.534	0.392	-0.235
-428.617	-85.205	-0.258	-0.105
-427.603	-200.000	0.019	0.401
-426.588	284.157	0.083	0.195
-425.573	-173.684	-0.433	0.017
-424.559	-19.186	0.212	-0.171
-423.544	-136.590	-0.574	0.086
-422.530	-31.239	-0.320	-0.234
-421.515	-90.864	0.100	-0.037
-420.500	800.000	-0.083	-0.433
-419.486	-47.010	0.351	0.223
-418.471	-161.611	-0.390	0.026
-417.457	32.413	-0.241	0.271
-416.442	16.488	0.249	0.256
-415.428	-126.433	0.598	-0.115
-414.413	-106.474	-0.455	0.131
-413.398	800.000	-0.128	0.509
-412.384	-162.830	0.410	0.026
-411.369	-130.329	-0.848	0.148
-410.355	-8.243	0.346	-0.303
-409.340	-137.812	0.580	-0.084
-408.325	221.554	0.163	-0.341
-407.311	-135.109	-0.197	-0.031
-406.296	-160.903	0.984	0.067
-405.282	-15.920	0.621	-0.513
-404.267	-146.619	-0.441	-0.049
-403.252	211.867	-0.231	0.476
-402.238	-200.000	-0.063	0.443
-401.223	358.156	-0.177	0.463
-400.209	285.703	-0.258	0.607
-399.194	800.000	0.067	0.279
-398.179	209.011	-0.063	0.128
-397.165	800.000	0.021	-0.091
-396.150	71.190	-0.190	-0.256
-395.136	-34.225	-0.439	-0.313
-394.121	-200.000	0.036	-0.276
-393.106	12.911	-0.307	-0.309
-392.092	-54.772	0.019	-0.011
-391.077	800.000	0.041	0.186
-390.063	800.000	-0.120	0.467
-389.048	-200.000	0.014	-0.176
-388.033	146.172	-0.080	0.141
-387.019	-22.574	0.249	-0.196
-386.004	330.740	-0.178	-0.447
-384.990	13.364	-0.485	-0.489
-383.975	-164.217	0.478	-0.028
-382.960	16.235	-0.266	0.273
-381.946	-44.364	-0.207	0.134
-380.931	-113.965	-0.312	-0.078
-379.917	213.452	0.020	-0.041
-378.902	-19.283	0.169	-0.136
-377.888	273.090	-0.024	-0.056
-376.873	800.000	0.009	0.049
-375.858	-170.200	0.164	-0.007
-374.844	-4.834	-0.403	0.360
-373.829	213.858	-0.083	0.171
-372.815	37.019	0.077	-0.088
-371.800	-129.979	-0.459	0.081
-370.785	-38.237	-0.063	-0.043
-369.771	-133.271	0.248	-0.040
-368.756	-183.634	-0.487	-0.011
-367.742	666.601	0.052	-0.175
-366.727	-119.924	-0.154	-0.034
-365.712	-106.845	0.126	-0.036
-364.698	-93.594	-0.314	-0.112
-363.683	-114.012	-0.158	-0.039
-362.669	-200.000	0.025	0.166
-361.654	79.555	0.079	-0.110
-360.639	351.359	-0.046	-0.119
-359.625	-157.100	0.239	-0.019
-358.610	-82.810	-0.393	-0.164
-357.596	-76.520	0.320	0.145
-356.581	41.625	0.100	0.117
-355.566	-83.323	-0.257	-0.107
-354.552	-62.369	-0.238	-0.128
-353.537	-144.271	0.246	0.029
-352.523	-53.919	-0.509	0.300
-351.508	49.719	0.176	-0.215
-350.493	-45.589	0.544	-0.349
-349.479	0.193	0.261	-0.242
-348.464	-156.018	0.774	0.063
-347.450	86.667	-0.227	0.326
-346.435	119.970	0.342	0.552
-345.420	55.861	-0.261	0.328
-344.406	-52.759	0.432	-0.258
-343.391	-77.721	0.114	-0.051
-342.377	-98.791	0.277	0.091
-341.362	11.166	0.094	-0.094
-340.348	129.654	0.164	0.273
-339.333	-157.280	0.482	0.037
-338.318	214.195	-0.122	0.251
-337.304	-34.515	0.343	0.243
-336.289	216.172	0.115	-0.238
-335.275	-200.000	0.031	-0.211
-334.260	330.660	0.061	-0.152
-333.245	-89.584	-0.319	-0.121
-332.231	7.642	-0.152	-0.147
-331.216	-12.891	-0.166	0.140
-330.202	49.323	0.094	-0.115
-329.187	-76.553	0.325	-0.147
-328.172	694.904	0.083	0.284
-327.158	-4.951	0.156	-0.139
-326.143	116.079	0.099	-0.158
-325.129	800.000	-0.059	0.278
-324.114	-62.050	0.421	-0.227
-323.099	-131.435	0.075	-0.013
-322.085	-27.616	-0.246	0.185
-321.070	153.385	0.116	-0.206
-320.056	-56.304	-0.242	-0.139
-319.041	-33.032	-0.468	-0.336
-318.026	77.948	-0.229	-0.317
-317.012	-119.530	0.293	-0.065
-315.997	-112.797	-0.444	0.113
-314.983	413.668	0.079	0.219
-313.968	105.204	0.243	-0.372
-312.953	87.576	-0.299	-0.430
-311.939	5.245	0.305	-0.291
-310.924	-39.542	0.156	-0.106
-309.910	-104.928	-0.404	-0.119
-308.895	134.162	0.114	-0.192
-307.880	-25.357	0.222	0.170
-306.866	-115.923	-0.258	-0.062
-305.851	15.552	-0.128	-0.130
-304.837	-35.263	-0.361	0.254
-303.822	-154.306	0.599	0.052
-302.807	-99.027	-0.457	-0.149
-301.793	58.434	-0.228	0.290
-300.778	72.012	-0.152	-0.205
-299.764	-85.751	0.187	-0.075
-298.749	-200.000	-0.036	-0.350
-297.735	517.397	0.052	0.160
-296.720	-149.306	-0.250	0.026
-295.705	25.659	0.320	-0.345
-294.691	312.470	-0.050	0.123
-293.676	24.631	-0.036	0.039
-292.662	598.733	-0.139	-0.449
-291.647	-85.686	-0.239	-0.096
-290.632	-200.000	0.060	0.352
-289.618	-200.000	0.046	-0.376
-288.603	182.999	0.137	0.262
-287.589	12.186	0.514	0.512
-286.574	418.208	-0.048	-0.135
-285.559	-200.000	0.028	-0.319
-284.545	-148.929	-0.430	0.044
-283.530	-72.956	-0.455	-0.216
-282.516	100.707	-0.428	-0.645
-281.501	211.970	-0.019	0.038
-280.486	544.927	-0.140	0.434
-279.472	-59.688	0.374	-0.207
-278.457	141.930	-0.246	-0.424
-277.443	203.076	-0.323	-0.649
-276.428	-27.997	0.298	-0.223
-275.413	-85.742	0.274	0.109
-274.399	-121.620	-0.540	-0.115
-273.384	-8.140	0.178	-0.155
-272.370	-12.709	0.164	-0.138
-271.355	-26.452	-0.103	0.078
-270.340	-149.496	0.099	-0.010
-269.326	-200.000	0.008	0.311
-268.311	300.220	0.184	-0.441
-267.297	125.174	-0.214	-0.350
-266.282	800.000	0.076	-0.320
-265.267	52.098	-0.168	-0.207
-264.253	-46.644	0.517	-0.327
-263.238	162.971	0.257	0.467
-262.224	-76.738	-0.585	0.264
-261.209	81.563	-0.284	0.398
-260.195	392.626	0.217	0.586
-259.180	249.863	-0.112	0.247
-258.165	-92.107	0.009	-0.003
-257.151	68.146	-0.468	0.620
-256.136	-83.329	-0.389	0.161
-255.122	-14.300	-0.332	-0.277
-254.107	-81.763	-0.469	0.198
-253.092	-77.497	0.157	-0.070
-252.078	-8.439	-0.194	-0.168
-251.063	618.487	-0.113	-0.370
-250.049	-21.653	-0.303	0.239
-249.034	-142.357	-0.249	-0.031
-248.019	800.000	-0.085	-0.434
-247.005	-8.978	-0.166	0.144
-245.990	-150.261	0.542	0.054
-244.976	-84.218	0.228	0.093
-243.961	113.840	0.113	-0.179
-242.946	800.000	-0.045	0.231
-241.932	-157.645	0.112	0.009
-240.917	174.897	0.310	-0.582
-239.903	-143.458	-0.515	-0.063
-238.888	-200.000	0.027	-0.215
-237.873	5.761	0.317	0.303
-236.859	800.000	-0.083	0.316
-235.844	-200.000	0.004	0.195
-234.830	-151.676	0.249	0.023
-233.815	-71.769	0.146	0.070
-232.800	-200.000	0.007	-0.095
-231.786	-125.183	-0.770	-0.151
-230.771	-78.674	-0.580	-0.255
-229.757	-103.170	0.120	0.036
-228.742	-160.874	0.104	-0.007
-227.727	-49.041	-0.233	0.144
-226.713	-20.409	-0.379	-0.301
-225.698	-20.997	0.330	-0.260
-224.684	-161.423	0.034	-0.002
-223.669	-21.913	-0.680	0.533
-222.655	58.178	0.311	0.394
-221.640	-58.531	-0.441	0.246
-220.625	-69.387	-0.049	0.024
-219.611	442.983	-0.036	0.103
-218.596	-119.226	-0.243	-0.054
-217.582	-125.794	-0.298	0.058
-216.567	-200.000	0.021	0.290
-215.552	-154.631	-0.140	-0.012
-214.538	-11.148	0.242	0.205
-213.523	800.000	0.087	-0.459
-212.509	-160.466	-0.662	0.045
-211.494	88.028	0.246	0.353
-210.479	-144.963	-0.247	-0.029
-209.465	78.502	-0.381	0.526
-208.450	-49.416	-0.353	-0.217
-207.436	473.898	0.120	0.352
-206.421	-183.419	-0.588	-0.013
-205.406	-16.984	0.497	0.405
-204.392	800.000	-0.025	0.094
-203.377	-200.000	0.012	-0.410
-202.363	123.266	0.263	0.426
-201.348	104.097	-0.121	0.184
-200.333	800.000	0.096	0.406
-199.319	-200.000	0.016	0.233
-198.304	168.134	0.300	0.553
-197.290	-102.736	-0.473	0.144
-196.275	-99.778	-0.264	0.085
-195.260	60.265	-0.142	0.181
-194.246	-54.984	0.459	0.266
-193.231	45.425	0.176	0.209
-192.217	-66.958	0.219	0.111
-191.202	-27.513	0.106	-0.079
-190.187	-113.718	-0.178	-0.044
-189.173	309.424	0.228	0.554
-188.158	-166.160	-0.212	0.011
-187.144	560.161	0.071	-0.224
-186.129	-44.107	0.146	0.094
-185.114	49.293	-0.161	-0.196
-184.100	6.580	-0.092	0.088
-183.085	126.701	-0.178	0.292
-182.071	-27.900	0.246	-0.183
-181.056	310.515	0.230	0.559
-180.042	-124.277	0.159	0.032
-179.027	496.447	0.035	-0.104
-178.012	-200.000	0.059	0.419
-176.998	-130.243	-0.277	-0.048
-175.983	-81.189	-0.504	0.214
-174.969	-76.545	0.463	-0.209
-173.954	-59.197	-0.394	0.218
-172.939	556.456	-0.036	0.111
-171.925	-200.000	0.043	-0.474
-170.910	-87.144	-0.360	0.141
-169.896	133.093	0.205	0.343
-168.881	20.899	-0.189	-0.197
-167.866	19.654	-0.365	0.379
-166.852	106.683	-0.296	-0.454
-165.837	380.441	0.144	0.383
-164.823	39.378	-0.308	0.356
-163.808	-131.462	0.428	-0.072
-162.793	-200.000	0.026	-0.153
-161.779	18.108	-0.599	-0.615
-160.764	-200.000	0.011	-0.495
-159.750	50.658	0.225	0.274
-158.735	-24.602	-0.190	0.146
-157.720	-47.812	-0.188	-0.117
-156.706	192.006	-0.173	-0.336
-155.691	-75.895	0.599	-0.272
-154.677	119.658	0.140	-0.224
-153.662	234.885	-0.232	-0.496
-152.647	91.861	0.259	0.376
-151.633	-179.113	-0.421	0.012
-150.618	357.639	-0.051	-0.131
-149.604	75.006	-0.137	0.186
-148.589	734.793	-0.031	0.109
-147.574	-63.788	0.296	0.156
-146.560	-25.646	-0.481	0.365
-145.545	179.195	-0.173	0.328
-144.531	179.166	0.060	0.112
-143.516	-32.940	-0.289	-0.206
-142.502	-23.413	0.180	0.139
-141.487	-67.498	0.390	0.197
-140.472	-122.555	-0.288	-0.060
-139.458	-80.841	0.289	0.123
-138.443	42.251	0.219	0.256
-137.429	93.278	0.119	0.174
-136.414	800.000	-0.082	0.432
-135.399	-149.144	-0.269	0.027
-134.385	23.093	-0.160	0.169
-133.370	102.065	-0.511	-0.770
-132.356	27.203	-0.224	-0.242
-131.341	-155.499	0.192	0.016
-130.326	13.622	0.123	0.123
-129.312	-114.250	-0.294	0.072
-128.297	-68.041	0.355	-0.178
-127.283	-200.000	0.116	-0.728
-126.268	-96.074	0.096	-0.033
-125.253	583.201	-0.074	-0.236
-124.239	-74.067	-0.332	-0.154
-123.224	650.158	-0.064	0.212
-122.210	800.000	0.061	0.244
-121.195	-93.292	0.416	-0.148
