DTS Sentinel unit serial number:	SN409020Multiplexer serial number:	ORYXHardware model number:	OX4-SRSoftware version number:	ORYX F/W v3.00 Oryx Data Collector v3.7.2.0data status	okinstallation	HaddamTimeLapsedifferential loss correction	single-endedforward channel	channel 3reverse channel	N/Adate	2011/06/21time	22:11:17forward acquisition time	30.00reverse acquisition time	0.00gamma	498.7831k internal	0.1758k external	0.1758temperature offset calibration	1.0074default loss term (dB/km)	0.3790temperature slope calibration	1.3530multiplexer offset coefficient	1.0000multiplexer slope coefficient	1.0000fibre end	0.00T internal ref (°C)	24.62T ext. ref 1 (°C)	18.98T ext. ref 2 (°C)	0.04length (m)	temperature (°C)	Stokes	anti-Stokes-747.200	-97.602	-0.201	-0.068
-746.185	-200.000	-0.058	0.778
-745.171	-200.000	-0.027	0.527
-744.156	-148.412	0.107	-0.011
-743.142	-61.565	-0.239	-0.132
-742.127	-200.000	-0.077	0.515
-741.112	236.140	-0.163	0.357
-740.098	-200.000	0.034	0.390
-739.083	-142.112	-0.196	0.025
-738.069	-2.928	-0.258	0.238
-737.054	21.855	-0.444	-0.478
-736.039	-58.071	-0.235	0.135
-735.025	-200.000	-0.015	-0.481
-734.010	110.015	0.105	-0.166
-732.996	-114.675	0.435	-0.109
-731.981	531.980	-0.115	0.361
-730.966	16.144	-0.194	-0.202
-729.952	-100.692	0.397	0.129
-728.937	-106.947	-0.386	0.112
-727.923	-45.808	-0.329	-0.215
-726.908	-124.662	-0.323	0.066
-725.894	-74.256	-0.295	0.140
-724.879	-16.608	0.256	-0.214
-723.864	125.916	-0.193	0.323
-722.850	-61.304	0.103	-0.057
-721.835	-5.003	-0.092	0.084
-720.821	800.000	-0.063	0.252
-719.806	-30.715	0.392	0.293
-718.791	-78.433	0.171	0.077
-717.777	-200.000	-0.024	0.474
-716.762	75.934	0.621	-0.868
-715.748	-110.857	-0.296	0.080
-714.733	-30.211	0.181	0.135
-713.718	472.166	-0.100	0.300
-712.704	198.555	-0.036	0.073
-711.689	-49.744	0.152	0.095
-710.675	13.080	0.361	-0.369
-709.660	-64.817	0.345	-0.184
-708.645	-61.047	-0.243	-0.135
-707.631	-122.007	-0.710	-0.153
-706.616	-200.000	0.079	-0.507
-705.602	173.019	-0.030	0.058
-704.587	-80.308	0.364	0.160
-703.572	-112.428	0.093	0.024
-702.558	146.930	-0.060	-0.108
-701.543	800.000	-0.097	-0.379
-700.529	173.393	-0.190	0.364
-699.514	18.036	0.205	0.215
-698.499	800.000	0.101	-0.550
-697.485	-66.803	-0.199	-0.104
-696.470	-74.268	-0.550	0.262
-695.456	-128.185	-0.318	-0.059
-694.441	-138.873	-0.096	-0.014
-693.426	-200.000	0.042	-0.397
-692.412	20.739	0.242	0.259
-691.397	-200.000	-0.044	0.342
-690.383	18.892	-0.036	-0.038
-689.368	-4.113	-0.304	-0.278
-688.354	-174.853	-0.327	0.012
-687.339	106.703	0.227	0.356
-686.324	735.562	0.072	-0.257
-685.310	-60.818	0.160	-0.089
-684.295	102.613	-0.373	-0.577
-683.281	397.018	-0.119	0.330
-682.266	-169.826	-0.396	0.019
-681.251	200.648	-0.087	-0.177
-680.237	-36.949	-0.168	0.118
-679.222	131.040	-0.173	0.293
-678.208	571.447	0.035	0.114
-677.193	-101.209	-0.086	-0.027
-676.178	800.000	0.057	-0.269
-675.164	38.819	-0.203	0.239
-674.149	-81.791	0.235	0.101
-673.135	47.729	0.058	-0.071
-672.120	210.941	0.276	0.575
-671.105	9.974	-0.210	-0.211
-670.091	133.754	-0.072	0.124
-669.076	438.291	-0.072	-0.208
-668.062	-200.000	-0.025	-0.332
-667.047	-46.817	0.071	-0.046
-666.032	-110.785	0.167	-0.045
-665.018	-52.463	-0.515	-0.313
-664.003	657.882	0.084	-0.288
-662.989	-113.983	-0.329	-0.083
-661.974	378.542	0.029	-0.079
-660.959	-31.323	0.316	0.234
-659.945	492.162	-0.171	-0.518
-658.930	360.363	-0.056	0.148
-657.916	81.541	-0.180	0.257
-656.901	194.915	-0.117	0.235
-655.886	-200.000	-0.043	0.414
-654.872	-26.018	-0.043	0.033
-653.857	-200.000	-0.001	0.303
-652.843	-64.730	0.219	-0.116
-651.828	800.000	0.011	0.051
-650.814	305.201	0.257	0.633
-649.799	800.000	0.030	-0.115
-648.784	-82.716	-0.051	0.021
-647.770	-50.640	0.292	-0.181
-646.755	5.433	-0.358	0.348
-645.741	-77.503	-0.042	-0.019
-644.726	7.958	-0.165	-0.163
-643.711	-55.893	0.055	0.032
-642.697	-200.000	0.032	-0.282
-641.682	760.571	-0.133	-0.478
-640.668	-32.610	-0.222	-0.163
-639.653	-106.864	0.200	0.058
-638.638	-18.058	-0.020	-0.016
-637.624	-96.182	-0.365	-0.127
-636.609	-27.783	-0.183	-0.140
-635.595	-144.040	0.361	-0.044
-634.580	172.186	0.182	-0.347
-633.565	34.711	0.157	0.180
-632.551	-200.000	-0.027	-0.446
-631.536	-63.855	0.174	-0.093
-630.522	439.212	0.125	-0.361
-629.507	800.000	0.089	0.391
-628.492	-106.529	0.471	0.137
-627.478	238.797	0.278	-0.611
-626.463	-171.338	-0.276	-0.012
-625.449	-105.343	-0.434	-0.129
-624.434	-200.000	0.088	-0.581
-623.419	-31.593	-0.407	0.301
-622.405	-30.479	0.343	0.256
-621.390	-188.435	0.198	0.003
-620.376	-103.196	0.232	0.072
-619.361	173.260	-0.199	-0.379
-618.346	142.854	-0.087	-0.153
-617.332	-66.744	-0.261	0.135
-616.317	212.137	0.164	0.342
-615.303	-200.000	-0.037	0.332
-614.288	-85.133	-0.384	0.157
-613.273	-35.793	-0.253	0.180
-612.259	-0.640	-0.047	-0.044
-611.244	220.529	-0.158	0.335
-610.230	800.000	0.003	0.017
-609.215	-191.297	-0.560	-0.007
-608.201	581.633	0.074	-0.242
-607.186	-200.000	-0.004	-0.034
-606.171	162.816	-0.213	0.394
-605.157	177.733	0.128	0.247
-604.142	155.764	0.079	0.144
-603.128	135.846	-0.032	-0.055
-602.113	-145.409	0.410	-0.048
-601.098	68.634	0.291	0.393
-600.084	210.938	-0.193	-0.400
-599.069	-66.171	-0.197	-0.103
-598.055	-117.449	-0.271	-0.064
-597.040	188.639	-0.030	0.060
-596.025	250.165	-0.080	-0.179
-595.011	-8.252	-0.196	-0.173
-593.996	-74.599	0.243	0.115
-592.982	800.000	0.053	0.272
-591.967	22.882	-0.246	0.265
-590.952	800.000	0.014	-0.077
-589.938	54.555	0.249	-0.316
-588.923	800.000	-0.081	-0.345
-587.909	-200.000	-0.004	0.502
-586.894	-44.676	0.380	0.249
-585.879	64.388	-0.232	-0.307
-584.865	44.544	-0.061	0.074
-583.850	620.784	-0.072	0.239
-582.836	119.737	0.142	0.231
-581.821	228.369	-0.073	-0.156
-580.806	-152.325	-0.333	0.031
-579.792	-200.000	0.029	-0.328
-578.777	-200.000	0.054	0.372
-577.763	-134.233	0.072	-0.011
-576.748	800.000	0.009	0.038
-575.733	-200.000	-0.005	-0.430
-574.719	-200.000	-0.023	-0.269
-573.704	218.855	-0.256	-0.539
-572.690	340.865	-0.049	-0.125
-571.675	15.568	0.443	0.457
-570.661	70.748	-0.369	-0.502
-569.646	515.203	0.071	-0.220
-568.631	-82.380	0.384	-0.163
-567.617	-200.000	-0.037	-0.419
-566.602	-12.306	0.153	0.131
-565.588	800.000	0.104	0.443
-564.573	-92.908	-0.204	0.075
-563.558	-25.619	-0.110	-0.085
-562.544	-52.677	0.098	0.060
-561.529	357.070	-0.075	0.198
-560.515	-200.000	-0.033	-0.302
-559.500	126.523	0.260	-0.433
-558.485	195.926	-0.169	-0.338
-557.471	800.000	-0.102	-0.382
-556.456	687.585	0.073	-0.252
-555.442	11.839	0.104	0.105
-554.427	125.643	-0.167	-0.278
-553.412	30.203	-0.125	-0.140
-552.398	-62.110	0.110	-0.060
-551.383	-164.675	0.304	-0.018
-550.369	-84.710	0.240	0.099
-549.354	-114.630	0.274	-0.068
-548.339	-50.316	-0.191	0.118
-547.325	61.660	0.294	-0.385
-546.310	187.268	-0.085	0.168
-545.296	-200.000	-0.009	0.107
-544.281	-49.277	-0.156	-0.098
-543.266	-47.033	-0.030	0.019
-542.252	-200.000	-0.013	-0.391
-541.237	-200.000	0.159	-0.001
-540.223	-47.250	0.357	-0.228
-539.208	-151.627	-0.149	-0.014
-538.193	-136.109	-0.481	-0.073
-537.179	-38.489	-0.115	0.080
-536.164	-200.000	-0.009	0.060
-535.150	-30.560	0.186	0.138
-534.135	72.696	-0.096	-0.131
-533.121	-143.279	-0.158	-0.020
-532.106	-124.413	0.484	-0.098
-531.091	-169.840	-0.179	0.008
-530.077	-173.339	-0.372	0.015
-529.062	-45.133	-0.336	-0.219
-528.048	82.759	-0.283	0.404
-527.033	30.614	-0.203	-0.228
-526.018	-118.431	-0.217	0.050
-525.004	-65.161	-0.336	0.177
-523.989	-34.070	0.139	-0.100
-522.975	-170.833	-0.492	0.022
-521.960	-200.000	-0.009	0.345
-520.945	144.488	0.171	-0.300
-519.931	-72.180	-0.110	-0.053
-518.916	594.553	-0.063	-0.205
-517.902	363.943	0.039	-0.102
-516.887	562.740	0.100	0.320
-515.872	800.000	0.040	0.149
-514.858	214.769	0.133	-0.278
-513.843	-200.000	-0.032	0.341
-512.829	-200.000	-0.014	0.100
-511.814	-94.363	-0.401	0.143
-510.799	800.000	0.061	-0.341
-509.785	-171.318	0.600	0.026
-508.770	-64.190	0.252	-0.134
-507.756	-70.174	-0.084	-0.042
-506.741	37.944	-0.187	-0.218
-505.726	-70.261	-0.121	0.060
-504.712	163.103	-0.089	-0.165
-503.697	-139.448	-0.536	0.075
-502.683	-73.061	-0.314	-0.150
-501.668	-200.000	0.044	0.260
-500.653	-200.000	0.028	-0.177
-499.639	-177.845	0.258	0.008
-498.624	97.597	-0.234	-0.352
-497.610	501.557	0.110	-0.335
-496.595	-114.500	-0.021	-0.005
-495.581	12.282	0.220	-0.222
-494.566	34.890	-0.012	-0.014
-493.551	-42.204	-0.211	-0.141
-492.537	44.143	0.054	-0.065
-491.522	-185.607	0.419	0.008
-490.508	-18.739	0.181	-0.148
-489.493	-179.340	-0.054	0.002
-488.478	-74.537	-0.435	-0.205
-487.464	347.536	0.073	-0.190
-486.449	215.245	0.260	-0.543
-485.435	125.989	0.266	-0.441
-484.420	-107.390	-0.430	0.123
-483.405	-1.222	-0.409	0.378
-482.391	119.793	0.129	0.211
-481.376	-129.677	0.067	-0.012
-480.362	-19.724	-0.250	0.202
-479.347	-200.000	0.044	-0.439
-478.332	166.848	-0.040	-0.074
-477.318	155.290	0.260	-0.470
-476.303	44.967	-0.209	-0.252
-475.289	17.401	0.202	0.210
-474.274	-200.000	-0.017	-0.117
-473.259	556.453	-0.199	-0.630
-472.245	-110.356	0.173	-0.047
-471.230	-102.046	0.233	-0.073
-470.216	-164.791	-0.476	-0.028
-469.201	-93.192	-0.643	-0.233
-468.186	-106.824	0.117	-0.034
-467.172	-136.876	0.397	-0.059
-466.157	-127.551	0.154	-0.029
-465.143	-141.275	-0.178	0.023
-464.128	-200.000	0.040	0.628
-463.113	51.049	-0.122	0.152
-462.099	-200.000	-0.478	0.003
-461.084	-69.042	-0.238	-0.119
-460.070	-9.437	-0.325	-0.284
-459.055	-93.772	0.168	-0.060
-458.040	28.274	0.177	-0.195
-457.026	-80.701	0.471	0.204
-456.011	206.769	0.023	0.047
-454.997	-200.000	-0.019	-0.292
-453.982	273.126	0.041	0.096
-452.968	36.600	-0.171	-0.198
-451.953	58.286	-0.072	0.092
-450.938	-65.214	-0.155	-0.081
-449.924	102.022	0.155	0.238
-448.909	28.425	-0.350	0.387
-447.895	-110.639	0.254	0.068
-446.880	-98.961	-0.379	-0.125
-445.865	-108.262	0.152	0.043
-444.851	800.000	0.198	0.728
-443.836	-200.000	-0.005	0.477
-442.822	-67.577	0.084	0.043
-441.807	76.329	-0.070	0.097
-440.792	800.000	-0.043	-0.175
-439.778	-160.356	0.224	0.016
-438.763	-200.000	-0.001	0.417
-437.749	-108.690	-0.105	0.029
-436.734	187.058	0.196	0.384
-435.719	-200.000	0.018	-0.451
-434.705	44.825	-0.169	-0.203
-433.690	169.915	-0.082	0.153
-432.676	-128.974	0.380	-0.069
-431.661	800.000	-0.100	0.416
-430.646	-121.948	-0.275	-0.059
-429.632	165.916	-0.017	-0.032
-428.617	66.711	0.067	-0.089
-427.603	-21.425	0.108	-0.086
-426.588	-84.898	-0.257	0.105
-425.573	-134.360	-0.067	0.011
-424.559	224.646	-0.018	-0.039
-423.544	-125.026	-0.274	0.055
-422.530	-200.000	-0.004	-0.706
-421.515	-104.686	0.221	0.066
-420.500	-200.000	-0.043	0.275
-419.486	-0.941	-0.506	0.467
-418.471	800.000	-0.154	0.585
-417.457	-100.510	-0.220	0.071
-416.442	167.728	-0.124	0.231
-415.428	-1.043	0.216	0.199
-414.413	-77.976	-0.399	-0.179
-413.398	-97.062	0.076	0.026
-412.384	23.090	0.279	0.299
-411.369	-83.053	0.411	0.172
-410.355	-200.000	-0.014	-0.083
-409.340	-178.465	0.331	-0.010
-408.325	-200.000	0.002	-0.379
-407.311	-149.532	-0.359	-0.037
-406.296	122.187	-0.185	0.303
-405.282	800.000	0.091	0.381
-404.267	170.488	-0.119	0.223
-403.252	-71.802	-0.247	-0.120
-402.238	-85.548	-0.414	-0.167
-401.223	-45.403	-0.323	0.209
-400.209	-129.431	-0.317	0.057
-399.194	-86.161	0.164	-0.066
-398.179	-113.315	0.286	0.073
-397.165	-200.000	-0.113	0.738
-396.150	-200.000	-0.023	0.174
-395.136	-104.773	-0.408	0.122
-394.121	-91.934	0.148	-0.054
-393.106	-56.483	0.088	-0.051
-392.092	-200.000	-0.015	0.123
-391.077	-24.893	0.327	0.253
-390.063	-120.996	0.319	-0.069
-389.048	-86.519	-0.397	-0.158
-388.033	-1.328	0.154	-0.141
-387.019	50.552	0.164	0.203
-386.004	-111.801	0.184	-0.048
-384.990	-6.470	-0.125	0.111
-383.975	-152.773	0.404	0.037
-382.960	106.783	-0.154	-0.239
-381.946	71.671	-0.139	0.189
-380.931	136.718	0.241	-0.411
-379.917	174.069	0.106	-0.201
-378.902	338.198	0.031	-0.079
-377.888	32.659	0.322	-0.364
-376.873	123.011	0.276	-0.451
-375.858	-153.121	0.488	-0.044
-374.844	94.135	-0.162	0.241
-373.829	-49.699	-0.269	0.166
-372.815	-200.000	-0.058	-0.443
-371.800	800.000	0.023	-0.109
-370.785	-200.000	-0.041	0.405
-369.771	800.000	-0.166	-0.617
-368.756	-110.154	0.122	-0.033
-367.742	-123.288	0.571	0.118
-366.727	-68.500	-0.126	-0.064
-365.712	-59.969	0.317	-0.176
-364.698	-70.652	-0.330	-0.162
-363.683	119.707	-0.139	-0.225
-362.669	-18.788	-0.349	0.283
-361.654	32.728	0.152	-0.171
-360.639	-200.000	0.002	-0.167
-359.625	-80.411	0.221	-0.096
-358.610	33.552	0.244	-0.277
-357.596	-90.730	0.390	-0.146
-356.581	-17.006	0.392	-0.322
-355.566	82.603	-0.084	-0.118
-354.552	-146.639	0.290	-0.032
-353.537	-36.939	0.089	-0.062
-352.523	139.293	0.170	0.293
-351.508	187.960	0.028	-0.055
-350.493	296.385	0.198	0.474
-349.479	-43.548	-0.131	0.086
-348.464	759.853	0.119	0.423
-347.450	2.509	0.180	0.169
-346.435	683.718	-0.125	0.427
-345.420	255.085	0.112	0.251
-344.406	519.413	-0.082	-0.252
-343.391	-6.384	-0.311	-0.276
-342.377	510.407	-0.088	0.269
-341.362	300.718	-0.122	-0.294
-340.348	800.000	-0.070	0.303
-339.333	800.000	-0.059	-0.250
-338.318	-150.228	-0.388	0.039
-337.304	-200.000	0.012	0.441
-336.289	-200.000	0.018	-0.139
-335.275	-200.000	0.025	-0.491
-334.260	-157.852	-0.490	0.037
-333.245	-200.000	0.017	0.143
-332.231	-103.543	0.118	0.036
-331.216	-49.091	-0.339	0.211
-330.202	128.873	-0.166	0.277
-329.187	-4.796	-0.317	0.284
-328.172	110.483	0.025	-0.039
-327.158	-137.105	-0.296	-0.044
-326.143	131.896	-0.013	0.022
-325.129	16.705	0.054	0.055
-324.114	97.399	0.038	0.057
-323.099	-13.270	-0.210	0.177
-322.085	-93.654	0.492	0.176
-321.070	-67.372	0.406	-0.207
-320.056	-191.118	-0.254	0.003
-319.041	-200.000	0.044	-0.260
-318.026	-141.636	-0.218	-0.028
-317.012	348.807	-0.078	-0.202
-315.997	800.000	0.016	-0.086
-314.983	-37.596	-0.052	0.036
-313.968	161.672	0.365	0.667
-312.953	-99.818	-0.241	-0.078
-311.939	-72.593	-0.182	-0.087
-310.924	-135.004	0.314	0.049
-309.910	0.653	0.171	0.159
-308.895	18.011	0.193	-0.200
-307.880	-58.819	-0.462	-0.259
-306.866	-134.258	0.386	0.061
-305.851	-30.505	0.648	-0.477
-304.837	-67.397	-0.297	-0.151
-303.822	619.338	0.055	-0.181
-302.807	86.090	0.164	-0.236
-301.793	-198.826	-0.148	0.001
-300.778	-118.539	0.177	-0.040
-299.764	-93.201	0.244	0.088
-298.749	-120.566	0.368	0.080
-297.735	-200.000	0.007	0.066
-296.720	-200.000	-0.021	0.275
-295.705	171.434	0.187	0.350
-294.691	-139.931	-0.239	-0.033
-293.676	81.106	0.431	-0.606
-292.662	-62.250	-0.045	0.024
-291.647	-43.733	-0.292	-0.191
-290.632	-62.781	0.140	0.075
-289.618	42.599	0.230	0.272
-288.603	117.669	0.234	-0.375
-287.589	-200.000	0.002	0.174
-286.574	-29.763	-0.193	-0.143
-285.559	18.642	0.225	-0.234
-284.545	95.693	0.112	0.167
-283.530	101.983	0.232	-0.352
-282.516	-198.113	0.251	0.002
-281.501	-200.000	-0.045	-0.335
-280.486	-134.947	-0.551	0.086
-279.472	80.982	-0.612	0.859
-278.457	119.061	0.271	0.436
-277.443	-17.107	0.244	-0.200
-276.428	-156.202	-0.209	0.017
-275.413	74.471	0.208	-0.284
-274.399	-136.615	-0.225	-0.034
-273.384	75.689	-0.307	0.422
-272.370	-141.914	-0.427	-0.055
-271.355	792.634	0.124	-0.446
-270.340	-185.859	0.142	0.003
-269.326	-106.603	-0.406	-0.117
-268.311	29.130	-0.210	0.232
-267.297	-200.000	0.083	0.610
-266.282	-200.000	-0.051	0.593
-265.267	108.390	0.123	0.191
-264.253	-84.927	-0.417	0.169
-263.238	6.551	0.409	-0.395
-262.224	800.000	0.014	-0.058
-261.209	-64.530	-0.161	-0.085
-260.195	22.505	-0.476	0.505
-259.180	-137.123	0.650	0.095
-258.165	-32.204	-0.284	0.206
-257.151	67.556	0.104	0.139
-256.136	-155.118	0.433	-0.036
-255.122	205.560	0.180	-0.364
-254.107	-115.516	-0.443	0.107
-253.092	145.893	0.388	0.676
-252.078	304.390	0.090	0.219
-251.063	-117.293	0.043	-0.010
-250.049	-200.000	-0.101	-0.000
-249.034	12.472	-0.223	0.223
-248.019	304.075	-0.095	-0.230
-247.005	-118.074	0.217	0.050
-245.990	-57.627	-0.200	-0.113
-244.976	-143.948	0.335	-0.040
-243.961	462.335	-0.133	0.388
-242.946	132.213	0.150	0.251
-241.932	800.000	0.094	0.376
-240.917	-46.975	-0.022	0.014
-239.903	-200.000	-0.050	0.462
-238.888	245.143	-0.162	0.354
-237.873	-200.000	-0.051	0.567
-236.859	-166.900	0.350	0.018
-235.844	-42.464	0.385	0.254
-234.830	-200.000	-0.062	0.582
-233.815	37.766	0.256	-0.295
-232.800	25.858	0.266	-0.288
-231.786	-115.280	0.155	-0.038
-230.771	20.059	-0.251	-0.263
-229.757	-135.382	-0.521	0.080
-228.742	8.406	-0.267	-0.260
-227.727	-13.334	-0.225	0.189
-226.713	142.137	-0.105	0.182
-225.698	-200.000	-0.035	-0.235
-224.684	-147.843	-0.193	0.021
-223.669	263.277	-0.071	0.162
-222.655	800.000	-0.063	0.338
-221.640	-62.832	-0.433	-0.231
-220.625	-80.915	0.141	0.060
-219.611	-59.403	0.371	-0.206
-218.596	232.314	0.025	0.053
-217.582	-200.000	0.017	-0.332
-216.567	404.930	0.080	-0.220
-215.552	-58.989	0.173	-0.096
-214.538	-107.482	0.182	-0.051
-213.523	-200.000	0.012	0.084
-212.509	2.910	0.147	-0.138
-211.494	129.438	0.173	-0.288
-210.479	-19.220	0.141	0.113
-209.465	-77.007	0.249	0.112
-208.450	800.000	-0.093	0.393
-207.436	-77.222	0.438	-0.197
-206.421	35.768	0.341	-0.388
-205.406	166.398	0.149	0.275
-204.392	-115.759	0.266	-0.064
-203.377	150.936	0.193	0.341
-202.363	-175.860	0.052	-0.002
-201.348	800.000	0.167	0.869
-200.333	-73.059	-0.651	0.308
-199.319	-95.299	0.410	0.142
-198.304	-200.000	-0.005	0.344
-197.290	505.274	-0.076	0.229
-196.275	800.000	0.049	-0.183
-195.260	-132.847	0.350	0.057
-194.246	-32.744	0.156	0.112
-193.231	-91.114	0.152	-0.056
-192.217	6.869	0.289	0.279
-191.202	15.531	0.067	-0.068
-190.187	-85.071	0.447	-0.180
-189.173	800.000	0.069	0.331
-188.158	79.655	0.211	-0.294
-187.144	278.202	-0.114	-0.263
-186.129	-14.091	-0.200	-0.167
-185.114	364.388	-0.189	-0.493
-184.100	-1.846	0.200	0.182
-183.085	-57.690	0.016	-0.009
-182.071	-50.927	-0.142	0.086
-181.056	-95.412	-0.187	-0.065
-180.042	-3.476	-0.138	-0.124
-179.027	-123.637	-0.171	-0.035
-178.012	-128.215	-0.264	-0.048
-176.998	37.586	-0.061	0.070
-175.983	800.000	0.053	-0.287
-174.969	-78.169	0.212	0.094
-173.954	-152.410	-0.310	-0.028
-172.939	-81.435	0.863	-0.366
-171.925	-134.842	-0.302	-0.047
-170.910	800.000	0.089	-0.472
-169.896	-149.533	-0.206	0.021
-168.881	109.326	-0.049	-0.077
-167.866	800.000	-0.115	0.538
-166.852	-110.844	-0.216	-0.057
-165.837	-89.481	0.248	0.094
-164.823	800.000	-0.052	0.237
-163.808	-71.024	-0.274	0.133
-162.793	-97.264	-0.389	0.130
-161.779	-101.418	-0.301	0.094
-160.764	4.317	0.213	0.201
-159.750	59.524	-0.171	0.219
-158.735	-200.000	0.364	0.002
-157.720	-187.180	0.493	-0.009
-156.706	25.102	0.272	-0.292
-155.691	-188.811	0.189	-0.003
-154.677	423.748	-0.124	0.346
-153.662	-86.802	-0.334	-0.131
-152.647	72.597	-0.025	-0.033
-151.633	-173.550	0.322	-0.012
-150.618	8.726	0.500	-0.486
-149.604	-143.608	0.193	0.023
-148.589	45.395	-0.351	0.419
-147.574	150.894	-0.127	0.224
-146.560	-72.311	0.269	0.128
-145.545	-78.976	0.096	0.042
-144.531	-88.036	-0.221	0.085
-143.516	-151.051	0.256	0.025
-142.502	-39.892	0.354	-0.238
-141.487	189.979	-0.164	0.319
-140.472	-115.980	0.346	-0.083
-139.458	-200.000	0.006	-0.432
-138.443	-95.195	0.312	0.108
-137.429	-19.067	-0.157	-0.126
-136.414	149.574	0.083	0.145
-135.399	-133.344	-0.278	0.045
-134.385	127.328	-0.090	-0.148
-133.370	800.000	-0.090	0.478
-132.356	87.606	-0.140	0.200
-131.341	-154.569	-0.249	-0.021
-130.326	17.137	0.328	-0.336
-129.312	800.000	0.034	-0.166
-128.297	800.000	-0.104	-0.456
-127.283	-58.291	0.199	-0.112
-126.268	-100.835	0.489	0.154
-125.253	339.097	-0.176	-0.444
-124.239	-114.688	-0.325	0.080
-123.224	-57.836	0.092	-0.052
-122.210	-200.000	-0.042	0.370
