DTS Sentinel unit serial number:	SN409020Multiplexer serial number:	ORYXHardware model number:	OX4-SRSoftware version number:	ORYX F/W v3.00 Oryx Data Collector v3.7.2.0data status	okinstallation	HaddamTimeLapsedifferential loss correction	single-endedforward channel	channel 3reverse channel	N/Adate	2011/06/21time	20:51:16forward acquisition time	30.00reverse acquisition time	0.00gamma	498.7831k internal	0.1770k external	0.1770temperature offset calibration	1.0074default loss term (dB/km)	0.3790temperature slope calibration	1.3530multiplexer offset coefficient	1.0000multiplexer slope coefficient	1.0000fibre end	0.00T internal ref (°C)	28.50T ext. ref 1 (°C)	21.35T ext. ref 2 (°C)	0.03length (m)	temperature (°C)	Stokes	anti-Stokes-747.200	8.549	-0.372	0.368
-746.185	351.738	-0.028	-0.072
-745.171	-177.047	-0.517	-0.017
-744.156	800.000	0.056	0.310
-743.142	122.446	0.045	-0.075
-742.127	-29.163	0.320	0.240
-741.112	-7.460	-0.064	0.057
-740.098	800.000	-0.088	0.467
-739.083	-96.359	-0.328	0.113
-738.069	-200.000	0.008	-0.443
-737.054	37.345	0.176	0.205
-736.039	-200.000	-0.027	0.195
-735.025	-102.995	-0.576	-0.178
-734.010	-61.128	-0.155	0.085
-732.996	-200.000	0.009	-0.498
-731.981	-200.000	-0.021	-0.213
-730.966	-78.803	-0.215	-0.096
-729.952	7.656	-0.429	0.421
-728.937	358.660	-0.077	-0.204
-727.923	-134.803	0.141	-0.022
-726.908	-124.948	-0.172	0.034
-725.894	30.399	0.324	-0.364
-724.879	119.424	-0.077	-0.125
-723.864	-137.275	0.208	-0.031
-722.850	-200.000	0.001	-0.209
-721.835	297.821	0.242	-0.586
-720.821	-94.586	0.281	-0.100
-719.806	-100.716	-0.134	0.043
-718.791	-200.000	-0.020	-0.196
-717.777	408.009	-0.195	-0.544
-716.762	800.000	-0.121	0.664
-715.748	23.991	-0.269	-0.291
-714.733	-103.241	0.209	0.064
-713.718	-58.706	-0.323	-0.183
-712.704	-14.736	0.334	-0.282
-711.689	-80.841	-0.310	-0.135
-710.675	-103.430	0.413	-0.127
-709.660	-199.328	0.252	0.002
-708.645	-200.000	0.072	-0.493
-707.631	-79.778	0.085	0.037
-706.616	-200.000	-0.065	0.569
-705.602	800.000	-0.046	0.240
-704.587	89.212	0.239	0.350
-703.572	800.000	-0.080	0.304
-702.558	-2.076	-0.219	0.202
-701.543	163.148	0.126	-0.233
-700.529	-55.678	-0.172	-0.101
-699.514	16.874	0.161	0.167
-698.499	-83.403	-0.164	0.069
-697.485	-73.487	-0.273	0.130
-696.470	-108.685	0.256	0.071
-695.456	30.125	0.199	-0.222
-694.441	108.215	-0.219	-0.344
-693.426	-200.000	-0.084	0.615
-692.412	-152.414	0.441	0.041
-691.397	-167.869	0.148	-0.008
-690.383	-71.206	0.233	-0.114
-689.368	-23.262	0.273	-0.215
-688.354	99.867	0.085	-0.129
-687.339	373.317	0.056	0.151
-686.324	565.565	-0.059	0.189
-685.310	-200.000	-0.004	0.233
-684.295	-77.474	0.351	0.159
-683.281	-76.778	0.232	-0.106
-682.266	-84.677	-0.410	-0.168
-681.251	-136.407	0.141	0.021
-680.237	-24.661	-0.067	0.052
-679.222	-119.922	-0.452	-0.101
-678.208	-200.000	-0.020	-0.420
-677.193	-137.149	0.229	0.034
-676.178	419.926	-0.115	0.324
-675.164	-103.383	-0.355	-0.109
-674.149	568.638	-0.115	-0.367
-673.135	10.240	0.233	-0.233
-672.120	230.597	0.029	0.062
-671.105	-113.648	-0.448	0.114
-670.091	94.699	-0.214	-0.319
-669.076	-200.000	0.038	-0.604
-668.062	-112.992	-0.308	-0.079
-667.047	93.732	-0.171	-0.254
-666.032	-19.914	-0.432	0.349
-665.018	-13.347	-0.260	0.221
-664.003	252.030	-0.062	-0.138
-662.989	-195.108	0.351	-0.003
-661.974	-32.971	0.073	0.053
-660.959	-8.657	-0.049	0.043
-659.945	217.264	0.111	0.233
-658.930	800.000	0.019	-0.107
-657.916	-52.714	-0.181	-0.109
-656.901	65.765	0.196	-0.261
-655.886	186.947	-0.165	-0.324
-654.872	-107.221	-0.331	0.095
-653.857	74.303	0.194	0.267
-652.843	-97.617	-0.059	-0.020
-651.828	349.754	-0.203	-0.527
-650.814	243.842	-0.044	-0.097
-649.799	-22.160	-0.057	0.046
-648.784	-125.695	0.267	-0.052
-647.770	-80.830	0.125	-0.054
-646.755	270.122	0.058	0.135
-645.741	232.970	0.057	-0.124
-644.726	-34.673	0.223	-0.160
-643.711	143.109	0.263	-0.460
-642.697	-39.494	0.133	-0.091
-641.682	-60.325	-0.528	-0.293
-640.668	800.000	-0.139	-0.547
-639.653	-200.000	0.021	-0.601
-638.638	762.767	-0.029	-0.102
-637.624	164.581	0.197	-0.365
-636.609	89.472	-0.090	-0.132
-635.595	-127.183	0.591	-0.112
-634.580	-60.931	0.283	-0.156
-633.565	-97.867	-0.250	-0.084
-632.551	-4.619	0.166	-0.150
-631.536	-200.000	-0.009	-0.509
-630.522	82.805	0.117	-0.166
-629.507	-52.999	-0.515	-0.309
-628.492	-71.825	0.255	0.124
-627.478	461.086	-0.182	-0.533
-626.463	-35.393	-0.256	0.182
-625.449	-165.025	0.420	0.024
-624.434	-7.705	0.129	0.114
-623.419	-102.528	-0.122	0.038
-622.405	631.731	-0.129	-0.430
-621.390	-155.750	-0.446	-0.037
-620.376	-200.000	-0.027	0.192
-619.361	-85.435	-0.222	-0.090
-618.346	-200.000	0.025	0.167
-617.332	643.304	-0.034	0.112
-616.317	613.140	-0.034	0.114
-615.303	-83.063	0.421	-0.176
-614.288	-200.000	-0.003	-0.450
-613.273	12.715	-0.350	-0.354
-612.259	-49.499	-0.382	0.237
-611.244	800.000	0.011	0.044
-610.230	-65.992	-0.267	0.139
-609.215	800.000	-0.054	-0.257
-608.201	-200.000	0.011	-0.078
-607.186	-3.769	0.259	-0.234
-606.171	81.645	-0.028	0.040
-605.157	14.887	0.088	-0.090
-604.142	-127.594	-0.686	-0.129
-603.128	211.512	0.183	0.379
-602.113	197.997	0.086	0.173
-601.098	-38.708	-0.230	-0.158
-600.084	-4.855	-0.244	0.219
-599.069	201.681	-0.013	-0.027
-598.055	-200.000	-0.005	0.202
-597.040	51.940	-0.206	-0.257
-596.025	-200.000	-0.167	-0.967
-595.011	-32.943	0.277	0.201
-593.996	-200.000	-0.031	-0.407
-592.982	-108.093	-0.444	0.125
-591.967	62.466	-0.200	-0.262
-590.952	-64.694	-0.363	-0.191
-589.938	-96.931	0.383	-0.130
-588.923	8.943	-0.391	0.385
-587.909	78.152	0.206	0.288
-586.894	-105.458	0.213	0.063
-585.879	216.942	0.180	-0.376
-584.865	-143.726	-0.586	0.072
-583.850	-171.276	0.419	-0.018
-582.836	-77.088	0.462	-0.209
-581.821	-33.198	0.110	0.079
-580.806	-200.000	-0.026	-0.202
-579.792	-1.611	-0.431	-0.396
-578.777	-100.909	-0.656	-0.209
-577.763	-6.597	-0.331	-0.294
-576.748	217.133	-0.121	0.252
-575.733	-125.665	0.736	-0.144
-574.719	131.190	0.062	0.104
-573.704	-200.000	0.025	-0.413
-572.690	55.981	0.116	-0.147
-571.675	-54.021	0.092	0.054
-570.661	800.000	-0.094	0.341
-569.646	-78.175	0.592	-0.264
-568.631	41.316	0.243	-0.287
-567.617	-200.000	-0.070	-0.632
-566.602	-21.579	0.204	-0.162
-565.588	354.555	0.081	-0.211
-564.573	-108.237	-0.124	-0.035
-563.558	18.955	-0.371	0.388
-562.544	800.000	-0.036	-0.161
-561.529	-156.356	-0.362	0.029
-560.515	-38.503	0.347	-0.239
-559.500	800.000	0.015	0.076
-558.485	24.505	0.079	0.085
-557.471	-101.796	-0.150	-0.047
-556.456	-200.000	0.005	0.081
-555.442	70.596	0.218	0.294
-554.427	-33.025	0.191	-0.138
-553.412	116.318	-0.092	-0.148
-552.398	304.439	0.179	0.434
-551.383	-103.889	0.250	-0.076
-550.369	-102.665	-0.308	-0.095
-549.354	-153.826	0.264	0.023
-548.339	800.000	0.010	-0.039
-547.325	47.279	-0.145	0.176
-546.310	168.144	-0.171	0.317
-545.296	-11.905	-0.361	-0.308
-544.281	-131.276	-0.430	0.074
-543.266	-80.212	-0.334	0.145
-542.252	800.000	-0.068	0.286
-541.237	-98.454	0.600	0.199
-540.223	-45.800	-0.395	0.254
-539.208	-106.609	0.117	0.034
-538.193	-76.614	0.371	0.169
-537.179	95.178	-0.384	0.571
-536.164	625.384	-0.068	0.225
-535.150	-69.534	-0.147	0.073
-534.135	116.968	0.191	0.306
-533.121	-44.070	0.129	0.084
-532.106	-200.000	0.028	-0.214
-531.091	-200.000	-0.038	0.620
-530.077	362.680	0.062	0.163
-529.062	55.861	-0.089	-0.112
-528.048	-81.475	0.374	-0.160
-527.033	98.269	0.078	-0.117
-526.018	195.918	0.094	-0.187
-525.004	10.074	-0.242	0.239
-523.989	-91.800	-0.653	-0.240
-522.975	-121.333	-0.234	-0.050
-521.960	183.033	-0.230	-0.443
-520.945	737.288	-0.045	0.157
-519.931	-88.670	0.152	0.059
-518.916	-104.118	0.521	-0.157
-517.902	39.760	0.119	-0.139
-516.887	800.000	-0.033	-0.184
-515.872	790.721	-0.138	0.497
-514.858	420.808	0.152	0.427
-513.843	-165.915	0.394	-0.022
-512.829	800.000	-0.063	-0.248
-511.814	247.257	-0.159	-0.352
-510.799	-85.060	-0.232	-0.094
-509.785	-88.017	-0.428	-0.166
-508.770	-200.000	-0.007	-0.088
-507.756	-40.961	0.203	0.136
-506.741	367.936	-0.176	0.466
-505.726	-127.174	0.426	0.080
-504.712	178.276	-0.319	-0.609
-503.697	-73.357	-0.388	0.184
-502.683	-75.246	0.452	0.209
-501.668	33.952	0.117	0.132
-500.653	-47.371	0.253	-0.160
-499.639	240.799	0.236	0.514
-498.624	-200.000	0.016	0.185
-497.610	250.329	-0.037	-0.081
-496.595	800.000	-0.117	-0.468
-495.581	-37.668	-0.360	0.249
-494.566	260.592	-0.118	0.268
-493.551	60.621	0.130	0.167
-492.537	-52.255	-0.457	-0.275
-491.522	-200.000	0.025	0.596
-490.508	-200.000	0.037	0.340
-489.493	196.680	-0.220	-0.438
-488.478	-129.925	-0.203	0.036
-487.464	0.470	-0.402	0.373
-486.449	-6.930	0.247	0.218
-485.435	355.322	0.198	-0.514
-484.420	-145.741	0.335	0.038
-483.405	-11.996	-0.298	0.254
-482.391	800.000	-0.087	-0.378
-481.376	-95.832	0.336	-0.116
-480.362	-92.705	-0.266	0.096
-479.347	729.955	-0.119	-0.415
-478.332	-144.683	0.322	-0.038
-477.318	-173.767	0.275	-0.010
-476.303	-42.647	0.158	-0.104
-475.289	232.649	0.121	-0.259
-474.274	223.521	0.138	-0.291
-473.259	347.806	-0.235	-0.606
-472.245	8.892	0.129	0.126
-471.230	-147.191	-0.205	-0.022
-470.216	-160.837	0.273	0.019
-469.201	-46.476	0.493	-0.314
-468.186	-176.626	-0.223	0.007
-467.172	68.459	-0.365	0.487
-466.157	96.736	-0.276	0.412
-465.143	206.226	0.074	0.150
-464.128	-108.382	0.119	0.033
-463.113	-200.000	0.029	0.522
-462.099	-93.470	-0.228	-0.081
-461.084	-8.960	-0.466	0.405
-460.070	-75.137	-0.220	0.102
-459.055	-134.664	-0.641	0.100
-458.040	363.071	-0.141	0.369
-457.026	-200.000	-0.014	0.103
-456.011	146.210	-0.059	0.103
-454.997	104.734	-0.217	0.333
-453.982	162.990	0.150	-0.274
-452.968	558.106	0.160	-0.503
-451.953	38.632	0.213	0.247
-450.938	-146.998	0.336	0.037
-449.924	110.625	-0.213	-0.333
-448.909	14.724	-0.260	-0.264
-447.895	216.683	0.094	0.194
-446.880	800.000	0.008	0.030
-445.865	800.000	0.054	0.225
-444.851	-131.478	-0.122	-0.021
-443.836	-200.000	-0.037	0.388
-442.822	-200.000	0.008	0.088
-441.807	-200.000	-0.003	0.516
-440.792	-10.929	0.270	0.231
-439.778	-35.155	-0.401	0.283
-438.763	-31.445	0.197	0.144
-437.749	-24.283	0.154	-0.119
-436.734	39.886	-0.206	-0.240
-435.719	-200.000	0.076	-0.000
-434.705	-61.918	0.486	-0.263
-433.690	169.118	0.074	0.138
-432.676	28.439	0.150	-0.165
-431.661	-85.777	-0.268	-0.107
-430.646	-23.797	-0.357	-0.277
-429.632	-52.383	0.207	-0.124
-428.617	396.103	0.163	0.444
-427.603	-82.148	0.415	0.175
-426.588	62.923	-0.257	0.334
-425.573	93.493	0.097	0.143
-424.559	-200.000	-0.038	-0.239
-423.544	69.464	-0.280	0.374
-422.530	-123.466	0.165	-0.034
-421.515	-119.796	0.104	-0.023
-420.500	-147.049	-0.355	0.039
-419.486	800.000	-0.160	-0.590
-418.471	180.852	-0.085	-0.162
-417.457	-165.922	0.231	-0.013
-416.442	-33.115	0.525	-0.377
-415.428	129.317	0.209	0.346
-414.413	38.989	0.196	0.228
-413.398	-150.309	-0.401	-0.040
-412.384	15.243	-0.253	-0.258
-411.369	-129.686	-0.147	0.026
-410.355	-27.459	0.301	0.227
-409.340	262.819	-0.404	0.914
-408.325	-154.656	0.836	0.071
-407.311	-101.368	-0.612	-0.192
-406.296	39.397	0.080	-0.093
-405.282	-38.631	-0.281	-0.192
-404.267	57.093	-0.389	-0.492
-403.252	-32.175	0.438	-0.317
-402.238	-107.840	0.283	0.079
-401.223	78.163	-0.342	0.473
-400.209	672.827	-0.074	-0.249
-399.194	-34.004	-0.334	-0.238
-398.179	800.000	0.089	0.340
-397.165	149.688	-0.153	0.269
-396.150	114.906	-0.060	-0.095
-395.136	55.170	-0.047	-0.060
-394.121	-145.353	0.211	0.024
-393.106	322.187	0.224	0.554
-392.092	-200.000	0.066	0.401
-391.077	-99.541	0.206	-0.067
-390.063	38.939	0.114	-0.132
-389.048	520.602	0.169	0.518
-388.033	-200.000	-0.014	0.388
-387.019	-200.000	0.038	0.521
-386.004	13.441	0.063	0.064
-384.990	-132.788	-0.396	-0.065
-383.975	-28.793	0.099	0.074
-382.960	-93.736	0.401	-0.143
-381.946	-200.000	0.021	0.191
-380.931	657.852	0.081	-0.273
-379.917	-97.886	-0.357	-0.119
-378.902	41.125	0.306	0.358
-377.888	-101.507	-0.351	-0.110
-376.873	-0.504	-0.179	0.165
-375.858	-0.742	0.118	0.108
-374.844	153.144	-0.078	-0.139
-373.829	-189.702	0.357	0.005
-372.815	800.000	-0.050	-0.185
-371.800	2.950	0.201	0.189
-370.785	-70.761	-0.438	0.213
-369.771	-200.000	-0.002	0.629
-368.756	800.000	-0.096	-0.355
-367.742	-107.449	0.306	0.086
-366.727	-200.000	0.018	0.136
-365.712	34.581	-0.273	-0.309
-364.698	-142.199	-0.187	0.024
-363.683	214.467	-0.116	0.238
-362.669	223.663	0.033	-0.069
-361.654	-200.000	-0.007	0.183
-360.639	-200.000	0.815	0.004
-359.625	409.990	-0.132	0.363
-358.610	-86.932	0.225	0.089
-357.596	719.783	-0.092	-0.317
-356.581	3.971	-0.155	0.147
-355.566	708.995	-0.031	0.106
-354.552	-200.000	0.080	-0.804
-353.537	-26.812	-0.291	-0.219
-352.523	30.915	-0.236	-0.262
-351.508	22.433	-0.190	0.201
-350.493	-106.189	0.384	-0.111
-349.479	88.544	-0.189	0.272
-348.464	6.495	0.098	0.095
-347.450	12.148	0.299	0.298
-346.435	-181.099	0.238	-0.006
-345.420	800.000	-0.121	0.452
-344.406	-78.778	0.019	-0.009
-343.391	-85.936	-0.496	0.198
-342.377	-200.000	-0.020	0.124
-341.362	224.843	0.167	0.350
-340.348	-200.000	-0.030	0.298
-339.333	3.706	0.359	-0.339
-338.318	631.689	-0.049	-0.161
-337.304	-200.000	-0.032	-0.189
-336.289	800.000	0.042	-0.187
-335.275	-74.585	-0.237	0.110
-334.260	-114.593	-0.278	0.068
-333.245	-143.121	0.214	0.026
-332.231	-76.030	0.133	-0.060
-331.216	30.767	0.307	0.340
-330.202	-200.000	-0.067	0.382
-329.187	-200.000	-0.032	-0.205
-328.172	-80.396	0.211	0.091
-327.158	52.058	-0.430	0.530
-326.143	8.556	-0.149	-0.145
-325.129	-138.821	0.662	-0.092
-324.114	800.000	-0.107	-0.530
-323.099	94.551	0.088	-0.130
-322.085	-130.110	-0.124	-0.022
-321.070	-200.000	0.007	0.057
-320.056	-118.876	0.107	-0.024
-319.041	-9.751	-0.189	-0.163
-318.026	-176.828	-0.136	-0.004
-317.012	281.553	-0.168	-0.391
-315.997	41.490	-0.201	0.235
-314.983	-3.063	-0.491	0.442
-313.968	-104.477	-0.462	0.137
-312.953	-41.265	0.371	0.247
-311.939	-99.726	-0.231	-0.074
-310.924	-200.000	-0.039	0.455
-309.910	-163.296	-0.475	-0.029
-308.895	-156.221	0.291	-0.023
-307.880	333.382	0.138	-0.347
-306.866	31.819	0.316	-0.352
-305.851	88.539	0.219	-0.315
-304.837	-11.345	0.203	0.172
-303.822	-167.156	0.318	-0.016
-302.807	-112.141	-0.092	0.024
-301.793	-112.985	0.320	0.081
-300.778	7.542	0.330	-0.319
-299.764	-200.000	-0.099	0.001
-298.749	800.000	-0.047	0.196
-297.735	96.825	-0.300	-0.444
-296.720	-170.155	-0.364	-0.016
-295.705	146.610	-0.178	-0.310
-294.691	7.540	-0.542	-0.523
-293.676	-115.232	-0.245	-0.059
-292.662	6.093	0.413	0.395
-291.647	800.000	-0.070	0.283
-290.632	62.882	0.289	-0.374
-289.618	1.520	0.212	0.197
-288.603	222.955	0.263	0.550
-287.589	560.101	-0.216	0.678
-286.574	1.572	0.242	0.225
-285.559	-172.995	-0.314	-0.012
-284.545	57.619	0.150	0.190
-283.530	-200.000	-0.018	-0.320
-282.516	-8.964	0.264	0.228
-281.501	-200.000	0.000	-0.338
-280.486	-88.111	-0.379	0.146
-279.472	-57.906	0.301	-0.169
-278.457	800.000	-0.011	0.050
-277.443	-127.570	-0.190	-0.035
-276.428	-115.270	-0.410	-0.099
-275.413	65.384	0.227	-0.297
-274.399	-26.633	0.145	0.110
-273.384	-107.913	0.567	-0.158
-272.370	179.960	0.160	0.304
-271.355	-66.022	-0.573	0.294
-270.340	319.110	-0.111	-0.274
-269.326	256.461	0.191	-0.424
-268.311	133.023	-0.163	-0.273
-267.297	-58.763	0.393	0.219
-266.282	-145.849	0.294	-0.033
-265.267	153.548	-0.285	0.504
-264.253	-108.923	-0.202	-0.055
-263.238	220.776	-0.103	-0.214
-262.224	243.839	-0.209	0.454
-261.209	-22.627	-0.306	0.238
-260.195	-200.000	0.055	0.632
-259.180	25.125	0.075	-0.080
-258.165	371.069	0.018	0.048
-257.151	-200.000	-0.166	-0.000
-256.136	-109.120	-0.349	-0.095
-255.122	-93.863	-0.492	0.174
-254.107	632.192	0.206	0.677
-253.092	21.642	0.307	-0.323
-252.078	-102.751	0.200	-0.061
-251.063	-200.000	-0.010	0.150
-250.049	-18.326	-0.087	0.070
-249.034	-0.363	-0.103	0.094
-248.019	87.338	0.142	0.202
-247.005	-200.000	0.040	-0.777
-245.990	320.999	-0.234	-0.575
-244.976	479.859	0.028	0.081
-243.961	81.033	0.213	-0.297
-242.946	-110.311	-0.589	-0.157
-241.932	-36.338	-0.518	-0.359
-240.917	-101.527	0.142	0.044
-239.903	230.618	-0.190	-0.402
-238.888	-134.428	-0.295	-0.046
-237.873	-175.298	0.088	-0.003
-236.859	-200.000	0.029	0.180
-235.844	53.294	0.228	0.282
-234.830	-200.000	0.040	-0.395
-233.815	-136.604	0.372	-0.055
-232.800	176.724	0.177	0.332
-231.786	260.765	0.209	-0.467
-230.771	-47.805	-0.328	-0.204
-229.757	-16.087	-0.253	-0.207
-228.742	307.504	-0.084	-0.203
-227.727	5.476	-0.079	-0.075
-226.713	800.000	-0.148	-0.548
-225.698	-152.431	-0.217	-0.020
-224.684	301.874	-0.015	-0.035
-223.669	36.948	-0.135	0.153
-222.655	-200.000	-0.004	-0.034
-221.640	-152.801	0.406	0.037
-220.625	-55.927	-0.220	-0.126
-219.611	7.689	-0.040	-0.039
-218.596	-200.000	-0.097	0.617
-217.582	-119.019	0.340	0.076
-216.567	85.903	0.202	-0.287
-215.552	-17.861	0.332	-0.268
-214.538	-197.608	0.079	-0.001
-213.523	-44.795	-0.197	-0.126
-212.509	-111.310	0.245	-0.064
-211.494	800.000	0.057	-0.312
-210.479	-103.880	0.255	0.076
-209.465	-200.000	-0.015	0.694
-208.450	-200.000	-0.022	0.147
-207.436	134.194	0.088	-0.146
-206.421	-78.606	0.163	0.072
-205.406	-60.032	0.324	-0.178
-204.392	-138.655	0.231	-0.032
-203.377	-77.151	0.161	0.072
-202.363	588.270	0.121	0.386
-201.348	-200.000	0.039	0.256
-200.333	-170.250	0.462	0.021
-199.319	80.287	-0.309	-0.428
-198.304	38.786	0.249	0.286
-197.290	-200.000	-0.011	-0.188
-196.275	454.120	-0.110	-0.316
-195.260	440.766	0.089	-0.250
-194.246	405.576	-0.194	0.530
-193.231	467.500	-0.153	-0.443
-192.217	147.510	0.408	0.708
-191.202	800.000	-0.104	0.556
-190.187	-200.000	0.082	-0.475
-189.173	-141.791	0.587	0.075
-188.158	629.284	-0.117	0.381
-187.144	-89.172	-0.648	-0.245
-186.129	-81.131	0.055	0.023
-185.114	-99.661	0.599	-0.192
-184.100	40.385	0.404	-0.468
-183.085	-137.396	0.134	0.019
-182.071	-61.534	0.168	-0.090
-181.056	-67.912	0.288	0.144
-180.042	-102.571	0.489	0.149
-179.027	-113.509	-0.409	-0.102
-178.012	-159.965	-0.317	0.022
-176.998	-47.694	0.306	-0.190
-175.983	-72.253	-0.340	0.161
-174.969	33.347	-0.229	-0.255
-173.954	-200.000	-0.005	0.303
-172.939	-37.138	-0.097	-0.067
-171.925	-174.904	0.356	-0.013
-170.910	206.141	-0.226	0.453
-169.896	-37.030	0.365	0.251
-168.881	191.160	-0.086	0.167
-167.866	-157.626	0.249	-0.019
-166.852	142.648	-0.283	-0.484
-165.837	800.000	0.061	-0.254
-164.823	-104.111	0.246	-0.073
-163.808	234.038	-0.203	-0.432
-162.793	-45.617	-0.242	0.154
-161.779	-85.010	-0.031	-0.012
-160.764	492.395	0.069	-0.204
-159.750	-15.422	-0.160	-0.132
-158.735	-200.000	0.018	-0.357
-157.720	109.602	0.150	0.231
-156.706	-200.000	-0.011	0.367
-155.691	-105.233	0.092	0.027
-154.677	-200.000	-0.036	0.324
-153.662	180.456	0.109	0.207
-152.647	-111.227	0.568	0.148
-151.633	12.717	0.484	0.479
-150.618	67.444	-0.380	0.498
-149.604	-87.678	-0.357	0.138
-148.589	194.910	0.240	-0.469
-147.574	-61.261	-0.295	-0.159
-146.560	-82.945	-0.192	-0.079
-145.545	146.351	-0.122	0.211
-144.531	31.805	-0.208	0.230
-143.516	529.472	0.153	0.468
-142.502	-116.796	0.316	-0.074
-141.487	-45.519	-0.192	0.122
-140.472	-118.386	-0.599	-0.135
-139.458	-121.129	-0.165	0.035
-138.443	-13.491	0.092	-0.076
-137.429	-41.211	0.116	-0.077
-136.414	800.000	-0.069	-0.339
-135.399	-33.099	-0.077	0.055
-134.385	-54.101	0.339	-0.197
-133.370	607.558	0.058	-0.186
-132.356	-60.720	-0.372	0.202
-131.341	-200.000	-0.062	-0.470
-130.326	404.307	0.081	0.219
-129.312	580.506	-0.176	0.556
-128.297	-34.905	-0.136	-0.095
-127.283	-77.688	-0.469	0.207
-126.268	-197.642	0.331	0.003
-125.253	-200.000	0.000	-0.470
-124.239	-132.542	-0.178	0.029
-123.224	-56.797	-0.265	-0.150
-122.210	-50.915	0.443	0.266
