DTS Sentinel unit serial number:	SN409020Multiplexer serial number:	ORYXHardware model number:	OX4-SRSoftware version number:	ORYX F/W v3.00 Oryx Data Collector v3.7.2.0data status	okinstallation	HaddamTimeLapsedifferential loss correction	single-endedforward channel	channel 3reverse channel	N/Adate	2011/06/21time	19:51:17forward acquisition time	30.00reverse acquisition time	0.00gamma	498.7831k internal	0.1791k external	0.1791temperature offset calibration	1.0074default loss term (dB/km)	0.3790temperature slope calibration	1.3530multiplexer offset coefficient	1.0000multiplexer slope coefficient	1.0000fibre end	0.00T internal ref (°C)	33.03T ext. ref 1 (°C)	24.48T ext. ref 2 (°C)	0.24length (m)	temperature (°C)	Stokes	anti-Stokes-747.200	-14.792	-0.166	-0.138
-746.185	18.236	0.271	0.281
-745.171	-102.853	0.117	0.036
-744.156	-43.815	0.157	-0.103
-743.142	9.227	0.295	-0.289
-742.127	-143.700	-0.042	-0.005
-741.112	-115.089	-0.239	-0.058
-740.098	-164.911	-0.295	-0.017
-739.083	-105.202	-0.173	0.051
-738.069	95.297	0.308	0.457
-737.054	-200.000	0.030	0.174
-736.039	-200.000	0.037	0.446
-735.025	2.930	-0.414	0.390
-734.010	-197.672	0.355	0.003
-732.996	-200.000	0.039	-0.250
-731.981	-200.000	-0.034	-0.382
-730.966	5.371	-0.297	0.284
-729.952	-200.000	-0.034	-0.229
-728.937	-52.059	-0.090	0.054
-727.923	-52.229	-0.188	0.113
-726.908	13.412	-0.068	0.068
-725.894	-130.936	-0.612	0.105
-724.879	800.000	0.056	0.265
-723.864	187.937	-0.076	0.148
-722.850	-145.283	0.285	-0.033
-721.835	75.942	0.135	0.185
-720.821	18.624	0.512	0.532
-719.806	-8.127	0.140	0.123
-718.791	-65.258	-0.190	-0.099
-717.777	-6.199	0.303	-0.268
-716.762	74.450	-0.344	-0.470
-715.748	-112.204	-0.405	-0.105
-714.733	-6.879	-0.331	-0.292
-713.718	-200.000	0.048	-0.669
-712.704	800.000	0.170	-0.763
-711.689	92.844	0.244	0.357
-710.675	800.000	0.025	0.140
-709.660	-114.493	0.044	0.011
-708.645	-32.729	0.092	-0.066
-707.631	-26.452	-0.531	-0.403
-706.616	-200.000	-0.005	-0.147
-705.602	-111.792	0.298	0.078
-704.587	-200.000	-0.013	-0.139
-703.572	235.321	0.074	-0.159
-702.558	800.000	-0.034	0.132
-701.543	158.295	0.073	-0.132
-700.529	229.420	0.089	-0.189
-699.514	-200.000	-0.009	-0.406
-698.499	-112.439	-0.443	-0.114
-697.485	135.263	0.254	-0.429
-696.470	440.093	0.023	-0.066
-695.456	-200.000	0.025	-0.406
-694.441	-128.418	-0.262	-0.048
-693.426	800.000	-0.018	-0.090
-692.412	-95.043	0.305	-0.106
-691.397	264.072	0.086	-0.195
-690.383	450.183	-0.189	-0.544
-689.368	-120.035	-0.226	0.050
-688.354	107.588	0.059	-0.091
-687.339	74.857	-0.306	-0.419
-686.324	40.407	-0.265	-0.309
-685.310	243.078	-0.206	0.449
-684.295	8.280	0.402	0.391
-683.281	322.536	0.070	-0.175
-682.266	202.573	0.190	-0.381
-681.251	-28.112	-0.182	-0.136
-680.237	-200.000	-0.061	-0.515
-679.222	-70.059	-0.240	0.118
-678.208	48.819	-0.078	0.095
-677.193	-25.566	0.267	-0.204
-676.178	-36.941	-0.332	-0.230
-675.164	-79.618	-0.453	0.197
-674.149	261.751	0.098	-0.220
-673.135	-200.000	0.024	-0.236
-672.120	34.332	0.325	-0.368
-671.105	-200.000	-0.054	-0.353
-670.091	-33.919	0.047	0.033
-669.076	-62.088	-0.279	0.150
-668.062	-112.906	0.446	0.114
-667.047	-102.789	-0.098	0.030
-666.032	-104.233	0.425	0.127
-665.018	43.720	0.128	-0.152
-664.003	-112.056	0.464	0.120
-662.989	-82.911	-0.327	0.136
-661.974	-150.296	-0.621	0.061
-660.959	14.764	0.327	-0.331
-659.945	12.733	-0.450	-0.450
-658.930	-200.000	0.011	-0.450
-657.916	-131.755	-0.213	0.036
-656.901	12.655	-0.277	-0.277
-655.886	8.141	-0.112	-0.108
-654.872	-86.704	-0.304	-0.120
-653.857	195.458	0.202	-0.398
-652.843	-163.224	-0.066	0.004
-651.828	-80.662	0.237	0.101
-650.814	107.251	0.130	-0.201
-649.799	-38.132	0.356	-0.244
-648.784	-80.708	-0.294	-0.126
-647.770	3.914	-0.139	-0.132
-646.755	53.878	-0.133	-0.165
-645.741	-200.000	0.051	-0.404
-644.726	-73.838	-0.185	-0.087
-643.711	-93.389	0.258	-0.092
-642.697	238.868	0.108	0.234
-641.682	-191.999	-0.309	-0.004
-640.668	-51.946	0.149	-0.089
-639.653	-19.294	-0.049	-0.040
-638.638	-87.394	0.173	-0.067
-637.624	520.655	-0.132	0.403
-636.609	90.192	0.124	0.180
-635.595	-20.500	-0.316	-0.251
-634.580	-93.806	-0.323	-0.115
-633.565	-109.345	0.277	-0.075
-632.551	-83.953	0.063	0.026
-631.536	152.694	-0.092	0.163
-630.522	-51.343	-0.243	0.147
-629.507	-148.700	-0.313	0.032
-628.492	800.000	0.029	-0.156
-627.478	689.126	0.049	0.166
-626.463	-200.000	0.009	0.085
-625.449	45.779	-0.205	0.245
-624.434	267.298	-0.061	-0.140
-623.419	-200.000	-0.043	-0.288
-622.405	60.458	-0.326	0.417
-621.390	-141.414	0.247	0.032
-620.376	269.419	-0.120	0.273
-619.361	800.000	0.081	-0.357
-618.346	17.341	-0.224	-0.229
-617.332	407.209	0.054	-0.149
-616.317	-200.000	-0.055	0.360
-615.303	-156.717	-0.299	-0.024
-614.288	-140.903	-0.519	-0.068
-613.273	-200.000	-0.015	-0.131
-612.259	-73.495	0.101	0.048
-611.244	-99.536	0.384	-0.124
-610.230	-200.000	-0.055	0.357
-609.215	31.957	0.265	0.295
-608.201	-158.151	0.579	-0.043
-607.186	150.741	-0.071	-0.126
-606.171	-121.980	0.629	-0.132
-605.157	-122.036	-0.331	0.070
-604.142	-71.692	-0.173	0.083
-603.128	177.217	-0.013	-0.024
-602.113	10.418	-0.087	-0.085
-601.098	-111.810	-0.399	-0.103
-600.084	134.621	0.097	-0.163
-599.069	-50.650	-0.293	-0.178
-598.055	-96.258	-0.504	0.171
-597.040	-4.447	-0.138	0.123
-596.025	-111.872	-0.200	0.052
-595.011	-124.941	0.526	0.104
-593.996	-151.826	-0.225	0.021
-592.982	244.678	-0.155	-0.337
-591.967	-51.533	0.370	-0.222
-590.952	120.491	-0.095	-0.153
-589.938	-200.000	-0.381	-0.000
-588.923	545.615	0.097	0.301
-587.909	25.215	0.157	0.169
-586.894	-131.478	-0.150	-0.025
-585.879	-47.332	0.235	-0.147
-584.865	-52.943	0.384	0.228
-583.850	-108.516	-0.316	0.087
-582.836	-70.024	-0.216	-0.106
-581.821	-200.000	0.039	-0.247
-580.806	-115.474	-0.435	0.105
-579.792	-173.906	0.340	-0.013
-578.777	-116.585	0.708	0.167
-577.763	-180.820	0.335	-0.009
-576.748	800.000	0.085	0.391
-575.733	30.440	-0.101	-0.111
-574.719	7.583	0.091	0.088
-573.704	24.029	0.334	-0.355
-572.690	15.201	0.350	-0.354
-571.675	296.032	0.028	-0.067
-570.661	159.603	-0.061	0.110
-569.646	589.058	0.029	0.092
-568.631	-44.509	-0.146	0.094
-567.617	15.264	0.258	-0.261
-566.602	-143.028	-0.529	0.065
-565.588	-26.531	0.101	0.076
-564.573	-102.187	-0.278	-0.086
-563.558	242.451	0.132	0.286
-562.544	-200.000	-0.019	-0.265
-561.529	350.106	-0.120	-0.307
-560.515	-200.000	0.047	0.316
-559.500	-12.313	0.277	-0.233
-558.485	-35.906	-0.339	-0.236
-557.471	-150.702	0.436	0.042
-556.456	-128.650	0.367	0.066
-555.442	-109.965	0.247	-0.066
-554.427	22.509	0.376	-0.397
-553.412	103.710	-0.223	-0.338
-552.398	-200.000	0.008	-0.183
-551.383	-80.712	0.053	0.023
-550.369	298.512	-0.158	-0.375
-549.354	-54.024	0.206	0.121
-548.339	-28.778	0.384	0.284
-547.325	-200.000	0.002	-0.108
-546.310	800.000	-0.010	-0.045
-545.296	800.000	-0.065	-0.289
-544.281	-158.146	-0.248	0.018
-543.266	61.748	-0.228	0.293
-542.252	53.891	-0.042	0.053
-541.237	161.719	-0.228	-0.413
-540.223	-12.197	0.214	-0.181
-539.208	-200.000	0.059	-0.453
-538.193	192.722	0.339	-0.661
-537.179	800.000	0.060	0.304
-536.164	444.350	0.075	0.214
-535.150	517.687	-0.082	0.249
-534.135	-55.193	0.211	-0.122
-533.121	-200.000	-0.022	0.489
-532.106	-200.000	0.025	-0.313
-531.091	-32.839	-0.108	-0.077
-530.077	-200.000	0.001	-0.508
-529.062	-73.365	0.151	-0.071
-528.048	-115.120	-0.603	-0.146
-527.033	-40.425	0.236	-0.158
-526.018	334.972	-0.227	0.569
-525.004	414.187	0.049	0.136
-523.989	800.000	0.060	0.227
-522.975	-59.994	0.094	-0.051
-521.960	-94.309	0.267	-0.093
-520.945	-108.616	-0.276	-0.076
-519.931	-81.224	-0.478	0.202
-518.916	556.853	-0.040	0.124
-517.902	800.000	-0.089	-0.419
-516.887	-200.000	-0.538	0.003
-515.872	-9.127	-0.222	0.191
-514.858	-160.262	-0.275	-0.019
-513.843	69.107	0.089	0.117
-512.829	125.348	0.149	-0.243
-511.814	3.526	-0.215	-0.202
-510.799	111.544	0.248	0.386
-509.785	-200.000	-0.005	0.376
-508.770	-200.000	-0.002	0.185
-507.756	31.964	-0.090	0.100
-506.741	26.118	0.092	-0.099
-505.726	-116.178	0.515	-0.122
-504.712	-200.000	0.022	0.152
-503.697	-88.143	0.323	-0.124
-502.683	-157.748	0.378	-0.029
-501.668	127.061	-0.113	0.185
-500.653	800.000	0.077	-0.399
-499.639	-74.301	-0.320	-0.148
-498.624	-160.400	-0.125	0.009
-497.610	-41.624	-0.112	-0.074
-496.595	800.000	-0.123	-0.488
-495.581	-200.000	0.049	0.464
-494.566	-121.270	0.379	-0.081
-493.551	-129.973	-0.140	0.024
-492.537	-200.000	-0.002	0.059
-491.522	800.000	-0.081	0.436
-490.508	-132.317	0.319	-0.053
-489.493	114.262	-0.185	-0.290
-488.478	-42.414	0.330	0.216
-487.464	-200.000	-0.026	-0.180
-486.449	307.316	-0.176	-0.424
-485.435	601.635	0.073	0.235
-484.420	-200.000	-0.023	-0.384
-483.405	745.826	0.037	-0.129
-482.391	130.786	-0.091	0.150
-481.376	-102.433	0.475	-0.145
-480.362	-183.137	0.375	0.008
-479.347	-140.304	-0.365	0.049
-478.332	373.211	-0.174	-0.458
-477.318	-105.554	0.124	-0.036
-476.303	36.382	0.212	-0.241
-475.289	-84.615	-0.578	-0.233
-474.274	-191.289	-0.248	-0.003
-473.259	-200.000	0.045	-0.271
-472.245	-115.732	0.388	-0.093
-471.230	54.193	0.113	0.140
-470.216	-150.422	0.081	0.008
-469.201	217.449	-0.055	0.113
-468.186	-200.000	-0.078	0.551
-467.172	75.203	0.408	0.553
-466.157	9.686	-0.198	-0.193
-465.143	125.749	0.035	-0.057
-464.128	11.875	-0.319	-0.315
-463.113	-200.000	0.008	-0.284
-462.099	-178.844	0.527	0.015
-461.084	-71.814	-0.104	0.049
-460.070	-89.958	0.236	0.088
-459.055	-120.588	-0.202	-0.044
-458.040	-5.952	-0.129	-0.113
-457.026	157.636	-0.087	-0.154
-456.011	800.000	-0.065	0.305
-454.997	-36.493	0.221	-0.153
-453.982	-2.299	-0.224	-0.201
-452.968	222.666	0.265	-0.549
-451.953	-200.000	0.050	-0.298
-450.938	-200.000	0.021	0.359
-449.924	-185.794	0.082	-0.002
-448.909	-102.523	0.375	0.114
-447.895	-200.000	-0.016	0.410
-446.880	-6.388	-0.057	0.050
-445.865	22.006	0.066	0.069
-444.851	800.000	0.062	-0.284
-443.836	-89.513	0.318	-0.119
-442.822	258.041	0.048	0.105
-441.807	800.000	0.108	-0.435
-440.792	3.790	0.113	-0.106
-439.778	-53.005	-0.178	-0.105
-438.763	-200.000	0.038	-0.367
-437.749	165.677	-0.252	0.459
-436.734	73.341	-0.211	0.283
-435.719	-200.000	-0.154	0.000
-434.705	92.704	-0.054	0.078
-433.690	-143.262	-0.223	0.027
-432.676	-100.827	0.257	-0.081
-431.661	215.238	-0.152	-0.311
-430.646	-200.000	0.048	0.585
-429.632	-75.675	0.487	0.221
-428.617	-101.180	-0.491	0.153
-427.603	203.711	-0.125	-0.250
-426.588	-91.271	0.306	-0.112
-425.573	-200.000	-0.027	-0.349
-424.559	260.406	-0.087	0.193
-423.544	-101.186	-0.217	-0.068
-422.530	-77.854	0.275	-0.121
-421.515	-61.370	0.313	0.168
-420.500	198.817	0.077	-0.152
-419.486	-13.130	-0.316	-0.263
-418.471	-77.488	-0.423	0.187
-417.457	-96.085	-0.168	0.057
-416.442	-95.250	0.381	-0.131
-415.428	-137.927	-0.122	-0.017
-414.413	-40.476	-0.445	0.296
-413.398	-116.720	-0.392	-0.092
-412.384	-200.000	-0.020	-0.116
-411.369	43.192	0.400	0.468
-410.355	-200.000	0.014	0.128
-409.340	46.359	-0.168	0.199
-408.325	-159.319	0.195	-0.014
-407.311	-51.072	0.305	0.183
-406.296	-56.939	0.120	0.068
-405.282	-15.640	0.426	0.348
-404.267	-136.220	-0.316	-0.047
-403.252	54.415	-0.387	-0.478
-402.238	621.697	0.188	-0.608
-401.223	-101.073	-0.186	-0.058
-400.209	435.495	-0.099	-0.278
-399.194	339.380	-0.141	-0.354
-398.179	-28.862	-0.375	-0.276
-397.165	445.194	-0.045	0.127
-396.150	678.691	-0.122	0.409
-395.136	573.476	0.127	0.400
-394.121	-13.897	0.118	-0.097
-393.106	800.000	0.154	-0.658
-392.092	466.759	-0.035	-0.101
-391.077	133.950	-0.181	0.301
-390.063	-200.000	-0.002	-0.057
-389.048	-167.837	-0.475	-0.024
-388.033	800.000	0.136	0.569
-387.019	-97.294	0.576	0.191
-386.004	-41.313	-0.006	0.004
-384.990	-11.105	0.264	-0.223
-383.975	-136.257	-0.362	0.054
-382.960	-118.661	0.322	0.072
-381.946	-74.707	0.086	0.039
-380.931	-200.000	-0.007	-0.419
-379.917	-28.371	-0.054	0.040
-378.902	-200.000	-0.055	0.408
-377.888	-71.644	0.157	-0.075
-376.873	-146.301	-0.679	-0.075
-375.858	-74.265	-0.238	0.110
-374.844	154.467	0.452	0.797
-373.829	-149.600	0.770	0.077
-372.815	276.567	0.268	0.611
-371.800	623.117	0.116	0.377
-370.785	-126.086	-0.451	0.086
-369.771	240.695	-0.050	-0.106
-368.756	-0.332	0.100	-0.091
-367.742	-72.409	0.197	0.093
-366.727	800.000	-0.037	-0.165
-365.712	32.038	-0.181	0.200
-364.698	209.933	-0.104	-0.210
-363.683	-33.359	0.327	-0.231
-362.669	182.154	0.055	-0.103
-361.654	-123.487	-0.083	0.017
-360.639	-100.404	0.165	-0.052
-359.625	-119.219	0.255	0.056
-358.610	-200.000	0.043	-0.297
-357.596	-24.429	0.028	0.021
-356.581	98.868	-0.139	-0.206
-355.566	-4.483	-0.056	0.049
-354.552	800.000	0.094	-0.380
-353.537	800.000	-0.135	-0.539
-352.523	-144.584	0.236	-0.028
-351.508	36.855	0.180	-0.204
-350.493	-125.511	0.264	-0.051
-349.479	18.268	0.315	-0.321
-348.464	-200.000	-0.052	-0.445
-347.450	204.271	-0.152	-0.302
-346.435	-109.036	-0.350	0.095
-345.420	-200.000	-0.019	0.280
-344.406	96.204	-0.185	-0.271
-343.391	-20.300	0.188	-0.148
-342.377	644.732	-0.098	-0.322
-341.362	54.202	0.140	-0.172
-340.348	-200.000	-0.012	-0.148
-339.333	109.077	0.178	0.272
-338.318	9.333	-0.103	-0.099
-337.304	-52.440	0.182	-0.108
-336.289	800.000	0.056	-0.285
-335.275	-64.442	-0.310	0.161
-334.260	-17.785	-0.326	-0.261
-333.245	556.306	0.047	-0.146
-332.231	-81.364	0.320	0.134
-331.216	-59.871	0.356	-0.194
-330.202	-84.621	-0.170	0.068
-329.187	-80.124	0.294	0.125
-328.172	-10.414	-0.143	0.121
-327.158	-181.805	-0.281	-0.007
-326.143	-95.889	-0.398	-0.135
-325.129	-200.000	0.040	-0.274
-324.114	-200.000	0.011	0.397
-323.099	-83.529	0.373	0.152
-322.085	19.395	-0.141	0.144
-321.070	-200.000	0.016	0.152
-320.056	-48.407	-0.250	0.153
-319.041	-34.939	0.350	0.243
-318.026	-200.000	-0.030	0.437
-317.012	-200.000	-0.028	0.187
-315.997	-139.569	-0.475	0.064
-314.983	-111.004	0.263	0.069
-313.968	800.000	-0.090	0.386
-312.953	-17.073	0.143	-0.115
-311.939	800.000	-0.067	0.246
-310.924	-140.009	-0.611	0.081
-309.910	18.181	-0.324	0.330
-308.895	-200.000	0.054	0.332
-307.880	280.148	0.060	-0.137
-306.866	-200.000	0.031	-0.271
-305.851	-200.000	-0.031	-0.368
-304.837	-12.786	0.515	-0.428
-303.822	-121.551	0.330	0.069
-302.807	320.263	-0.146	0.355
-301.793	140.302	0.185	-0.313
-300.778	-200.000	0.042	0.337
-299.764	200.953	0.133	-0.261
-298.749	21.585	-0.187	0.194
-297.735	118.693	-0.193	-0.304
-296.720	76.346	-0.082	0.111
-295.705	94.703	0.111	-0.161
-294.691	205.709	0.120	-0.239
-293.676	-186.060	0.356	0.007
-292.662	-42.419	0.243	-0.158
-291.647	-65.225	0.480	-0.246
-290.632	232.622	0.118	0.248
-289.618	101.786	-0.066	0.099
-288.603	-105.391	-0.243	0.070
-287.589	91.767	0.342	-0.492
-286.574	800.000	-0.032	0.151
-285.559	-171.837	-0.509	0.021
-284.545	-121.668	-0.312	0.065
-283.530	27.603	0.138	-0.148
-282.516	-73.223	0.318	0.148
-281.501	-188.056	0.613	0.010
-280.486	153.095	0.190	-0.333
-279.472	-180.354	-0.122	-0.003
-278.457	-200.000	0.002	-0.189
-277.443	-103.529	-0.212	-0.063
-276.428	800.000	-0.102	0.401
-275.413	-200.000	0.071	0.513
-274.399	-115.241	0.484	0.116
-273.384	-200.000	0.001	-0.334
-272.370	314.336	0.114	0.275
-271.355	-6.853	-0.272	0.235
-270.340	1.570	-0.294	0.270
-269.326	-171.136	-0.339	-0.014
-268.311	-79.643	0.540	0.231
-267.297	-60.715	0.359	0.193
-266.282	63.363	0.141	0.181
-265.267	-62.962	0.171	-0.090
-264.253	-200.000	0.003	-0.170
-263.238	-77.968	0.355	0.155
-262.224	-100.448	-0.427	0.134
-261.209	94.698	-0.086	0.124
-260.195	-145.129	-0.809	0.093
-259.180	-200.000	0.021	0.557
-258.165	-157.260	0.156	-0.012
-257.151	800.000	0.102	-0.402
-256.136	-31.820	0.232	-0.165
-255.122	467.039	-0.148	-0.425
-254.107	-118.711	0.233	-0.052
-253.092	-96.160	0.551	0.185
-252.078	-50.834	-0.309	-0.184
-251.063	-38.066	-0.148	-0.100
-250.049	137.668	0.127	-0.212
-249.034	258.851	-0.122	0.268
-248.019	375.674	-0.044	0.115
-247.005	-103.156	0.207	-0.062
-245.990	-135.632	-0.334	-0.050
-244.976	-70.620	-0.282	0.135
-243.961	-158.386	-0.307	-0.022
-242.946	-87.154	-0.072	0.028
-241.932	-153.248	0.171	-0.015
-240.917	-108.163	-0.223	-0.061
-239.903	-184.765	-0.363	-0.007
-238.888	34.286	0.124	0.138
-237.873	-60.753	-0.210	0.113
-236.859	-89.761	0.537	-0.199
-235.844	-21.115	-0.404	-0.314
-234.830	-14.068	-0.197	-0.162
-233.815	562.673	0.127	-0.393
-232.800	315.769	0.063	0.152
-231.786	173.741	0.206	0.380
-230.771	242.815	-0.103	0.220
-229.757	172.383	-0.177	-0.325
-228.742	-106.412	-0.155	-0.044
-227.727	-200.000	0.018	0.182
-226.713	90.072	-0.163	0.233
-225.698	-60.928	0.139	-0.075
-224.684	-82.008	-0.232	-0.096
-223.669	800.000	0.028	-0.146
-222.655	-90.133	0.170	-0.063
-221.640	-200.000	0.015	0.084
-220.625	-1.520	0.299	0.268
-219.611	-58.972	0.035	-0.019
-218.596	150.106	-0.100	-0.174
-217.582	-111.698	0.271	0.069
-216.567	-94.331	0.467	-0.161
-215.552	800.000	0.035	-0.130
-214.538	800.000	0.034	0.160
-213.523	-182.980	-0.584	-0.013
-212.509	-181.843	-0.527	-0.013
-211.494	29.908	0.234	-0.253
-210.479	-200.000	-0.026	0.183
-209.465	26.465	0.128	-0.136
-208.450	-55.680	0.348	-0.197
-207.436	-45.279	-0.403	0.254
-206.421	201.314	0.101	0.198
-205.406	97.058	-0.043	-0.063
-204.392	-200.000	0.035	0.226
-203.377	146.292	0.098	0.168
-202.363	9.627	-0.172	0.166
-201.348	800.000	-0.062	-0.261
-200.333	-52.509	-0.229	0.134
-199.319	145.676	-0.085	0.145
-198.304	665.274	-0.018	-0.061
-197.290	-44.388	-0.345	0.219
-196.275	800.000	-0.051	-0.264
-195.260	-200.000	-0.001	0.061
-194.246	-100.127	-0.394	-0.124
-193.231	-52.731	0.135	0.079
-192.217	-61.550	0.199	-0.106
-191.202	-132.985	0.412	0.066
-190.187	800.000	-0.089	0.464
-189.173	281.825	0.183	0.419
-188.158	-200.000	0.055	0.571
-187.144	-200.000	0.001	-0.401
-186.129	499.828	-0.152	0.447
-185.114	215.162	0.149	0.301
-184.100	-90.835	-0.488	0.178
-183.085	800.000	-0.111	0.431
-182.071	-125.234	-0.072	0.014
-181.056	-91.555	-0.212	0.076
-180.042	-36.544	0.309	0.211
-179.027	-23.949	-0.079	0.060
-178.012	4.232	-0.437	0.406
-176.998	-35.729	-0.351	0.241
-175.983	-200.000	-0.025	0.299
-174.969	77.638	0.277	0.376
-173.954	485.530	-0.042	0.121
-172.939	-64.126	0.220	-0.113
-171.925	-104.892	-0.401	-0.116
-170.910	435.930	-0.226	-0.628
-169.896	-200.000	-0.007	-0.271
-168.881	-200.000	-0.008	0.274
-167.866	8.480	0.040	0.039
-166.852	170.623	-0.173	-0.315
-165.837	-128.566	-0.243	0.043
-164.823	-130.361	0.088	0.015
-163.808	568.261	-0.221	-0.686
-162.793	246.516	0.138	-0.297
-161.779	-72.593	0.275	0.128
-160.764	-151.671	-0.317	-0.029
-159.750	77.987	0.239	0.323
-158.735	-44.838	-0.430	0.272
-157.720	-200.000	-0.043	0.667
-156.706	-40.873	-0.138	-0.091
-155.691	-200.000	-0.039	0.269
-154.677	49.182	0.335	0.400
-153.662	-154.111	0.307	-0.026
-152.647	-26.622	-0.311	0.230
-151.633	-10.627	0.412	0.346
-150.618	-9.172	-0.221	-0.187
-149.604	800.000	-0.109	-0.530
-148.589	-200.000	0.058	-0.584
-147.574	43.190	-0.065	0.075
-146.560	-8.606	0.206	0.175
-145.545	114.864	0.211	0.327
-144.531	85.207	-0.125	0.175
-143.516	196.840	-0.183	0.356
-142.502	-88.257	-0.162	0.061
-141.487	800.000	-0.076	-0.354
-140.472	81.959	0.073	-0.100
-139.458	79.414	-0.292	-0.397
-138.443	-200.000	0.051	-0.306
-137.429	536.751	-0.041	0.125
-136.414	-200.000	-0.001	0.110
-135.399	-200.000	-0.014	0.664
-134.385	48.914	0.360	0.429
-133.370	-111.634	-0.296	0.076
-132.356	800.000	-0.038	0.138
-131.341	-109.092	-0.099	-0.026
-130.326	173.296	0.195	-0.357
-129.312	-140.005	0.228	-0.030
-128.297	-200.000	0.075	0.573
-127.283	-200.000	0.044	0.310
-126.268	-37.907	-0.196	0.132
-125.253	68.296	-0.289	0.376
-124.239	-200.000	-0.040	-0.302
-123.224	-200.000	0.063	0.387
