DTS Sentinel unit serial number:	SN409020Multiplexer serial number:	ORYXHardware model number:	OX4-SRSoftware version number:	ORYX F/W v3.00 Oryx Data Collector v3.7.2.0data status	okinstallation	HaddamTimeLapsedifferential loss correction	single-endedforward channel	channel 3reverse channel	N/Adate	2011/06/21time	17:11:17forward acquisition time	30.00reverse acquisition time	0.00gamma	498.7831k internal	0.1794k external	0.1794temperature offset calibration	1.0074default loss term (dB/km)	0.3790temperature slope calibration	1.3530multiplexer offset coefficient	1.0000multiplexer slope coefficient	1.0000fibre end	0.00T internal ref (°C)	32.69T ext. ref 1 (°C)	29.50T ext. ref 2 (°C)	0.23length (m)	temperature (°C)	Stokes	anti-Stokes-747.200	260.416	-0.111	-0.249
-746.185	-5.850	-0.404	0.359
-745.171	-124.641	-0.371	-0.074
-744.156	578.593	0.098	0.313
-743.142	35.064	-0.139	0.158
-742.127	-179.028	0.367	-0.010
-741.112	-149.315	-0.327	0.033
-740.098	-200.000	0.040	0.322
-739.083	-161.198	0.339	0.023
-738.069	209.954	-0.215	-0.439
-737.054	413.889	0.217	-0.602
-736.039	800.000	0.040	0.166
-735.025	-38.384	0.231	0.158
-734.010	14.412	0.227	-0.229
-732.996	-200.000	0.013	0.208
-731.981	-200.000	0.024	-0.151
-730.966	149.228	0.122	0.214
-729.952	-70.909	-0.287	-0.140
-728.937	247.228	0.129	-0.283
-727.923	34.124	0.177	-0.199
-726.908	-178.192	0.455	0.014
-725.894	-200.000	-0.002	-0.229
-724.879	-162.926	-0.440	0.027
-723.864	-200.000	0.039	0.804
-722.850	-73.821	0.359	0.168
-721.835	800.000	0.095	-0.416
-720.821	261.227	-0.157	-0.353
-719.806	337.504	0.095	0.240
-718.791	800.000	0.043	0.212
-717.777	-23.718	-0.108	-0.084
-716.762	128.096	0.098	0.163
-715.748	245.931	0.189	0.414
-714.733	-126.111	-0.495	-0.095
-713.718	-66.881	-0.367	-0.187
-712.704	219.965	-0.174	-0.363
-711.689	-114.684	-0.224	-0.055
-710.675	-31.046	-0.607	-0.443
-709.660	-20.669	-0.302	-0.239
-708.645	10.110	0.332	-0.326
-707.631	-23.628	-0.389	-0.301
-706.616	-4.701	-0.215	0.192
-705.602	-53.079	0.055	-0.033
-704.587	201.783	0.114	-0.227
-703.572	-103.273	-0.495	-0.150
-702.558	800.000	-0.073	-0.306
-701.543	-200.000	-0.044	-0.290
-700.529	-39.642	-0.533	-0.360
-699.514	-133.164	0.259	-0.042
-698.499	-42.807	-0.184	-0.121
-697.485	-54.305	-0.169	-0.099
-696.470	-131.977	-0.392	0.066
-695.456	-107.682	-0.202	-0.057
-694.441	-200.000	-0.022	0.352
-693.426	111.139	0.089	-0.139
-692.412	-68.320	0.517	-0.259
-691.397	800.000	-0.174	-0.670
-690.383	38.026	0.032	0.037
-689.368	-3.369	0.218	-0.196
-688.354	-36.568	0.688	-0.478
-687.339	-121.457	0.265	-0.057
-686.324	451.029	-0.043	0.124
-685.310	37.051	0.122	0.140
-684.295	-122.755	-0.295	-0.061
-683.281	92.129	-0.162	0.237
-682.266	-140.975	0.652	-0.086
-681.251	-91.882	0.364	-0.133
-680.237	-133.444	0.351	-0.057
-679.222	-105.245	0.434	-0.127
-678.208	155.137	-0.081	0.145
-677.193	-137.916	-0.052	-0.007
-676.178	47.685	-0.173	0.209
-675.164	-28.707	-0.433	0.322
-674.149	-117.328	-0.143	0.033
-673.135	-20.548	-0.351	-0.278
-672.120	-121.232	-0.392	-0.084
-671.105	800.000	-0.088	-0.347
-670.091	-92.025	-0.648	-0.236
-669.076	-44.868	-0.372	-0.239
-668.062	-182.640	0.351	-0.008
-667.047	289.706	0.255	0.601
-666.032	127.347	0.212	0.349
-665.018	-85.255	-0.296	-0.119
-664.003	-134.031	0.401	-0.063
-662.989	-37.679	-0.251	-0.172
-661.974	235.968	-0.125	0.268
-660.959	5.894	-0.133	0.127
-659.945	558.246	0.105	-0.328
-658.930	-2.365	-0.048	0.043
-657.916	-200.000	-0.052	0.467
-656.901	245.935	0.119	0.260
-655.886	-95.407	0.103	-0.036
-654.872	205.130	-0.040	-0.080
-653.857	606.311	0.137	-0.442
-652.843	-101.128	-0.534	-0.168
-651.828	-82.411	0.305	0.127
-650.814	-200.000	-0.037	0.233
-649.799	-16.058	0.439	0.360
-648.784	39.379	0.227	-0.263
-647.770	110.086	-0.228	-0.353
-646.755	800.000	0.029	-0.143
-645.741	427.671	0.045	-0.127
-644.726	-200.000	0.022	-0.346
-643.711	0.122	0.253	-0.233
-642.697	-184.434	0.285	-0.006
-641.682	9.202	-0.114	-0.111
-640.668	-19.100	0.236	-0.189
-639.653	38.777	0.116	-0.133
-638.638	136.810	-0.188	-0.317
-637.624	-110.128	-0.582	-0.156
-636.609	-182.858	-0.838	-0.019
-635.595	52.162	-0.181	0.222
-634.580	-155.984	-0.225	0.018
-633.565	80.256	-0.281	0.390
-632.551	-8.428	-0.218	-0.189
-631.536	-157.890	0.253	0.019
-630.522	177.704	0.109	0.205
-629.507	-55.512	-0.276	-0.159
-628.492	-103.292	-0.242	-0.073
-627.478	63.376	-0.098	-0.126
-626.463	243.566	-0.256	0.557
-625.449	270.948	0.146	0.332
-624.434	-69.504	-0.177	0.087
-623.419	-112.319	0.217	0.056
-622.405	-117.097	-0.423	0.099
-621.390	-123.601	-0.503	-0.102
-620.376	-84.159	-0.982	-0.400
-619.361	-200.000	0.013	0.458
-618.346	-135.703	0.325	-0.049
-617.332	-190.192	-0.203	-0.003
-616.317	82.152	-0.239	0.334
-615.303	800.000	-0.028	0.138
-614.288	113.449	0.324	-0.508
-613.273	-48.946	-0.215	-0.132
-612.259	3.726	0.074	0.070
-611.244	115.254	-0.106	-0.168
-610.230	-47.691	-0.216	0.135
-609.215	25.224	-0.227	-0.243
-608.201	153.679	-0.269	0.476
-607.186	-131.518	-0.535	0.090
-606.171	-105.564	0.586	-0.170
-605.157	84.794	0.032	0.046
-604.142	29.527	0.360	-0.394
-603.128	-89.839	0.657	0.246
-602.113	-178.046	-0.163	-0.005
-601.098	800.000	0.078	-0.392
-600.084	-70.135	0.381	-0.186
-599.069	298.093	0.170	0.405
-598.055	270.434	-0.271	-0.616
-597.040	-200.000	0.041	-0.354
-596.025	-71.394	-0.348	-0.167
-595.011	207.571	0.242	0.488
-593.996	-109.911	-0.285	0.076
-592.982	-79.169	0.180	-0.078
-591.967	159.301	0.237	-0.427
-590.952	-170.517	0.596	0.026
-589.938	-83.574	-0.433	0.178
-588.923	-133.396	-0.803	-0.129
-587.909	-142.238	0.051	-0.006
-586.894	-200.000	-0.039	0.275
-585.879	280.851	-0.205	-0.474
-584.865	-63.275	-0.095	-0.050
-583.850	275.037	-0.183	-0.419
-582.836	-200.000	0.042	0.356
-581.821	800.000	0.052	0.273
-580.806	800.000	-0.052	-0.245
-579.792	102.175	0.109	0.165
-578.777	800.000	0.040	-0.195
-577.763	-145.169	-0.260	0.030
-576.748	21.672	0.172	-0.181
-575.733	-145.414	-0.427	0.049
-574.719	23.878	0.227	-0.241
-573.704	-80.466	0.229	0.098
-572.690	800.000	-0.048	-0.220
-571.675	-200.000	-0.025	-0.255
-570.661	195.062	-0.244	0.478
-569.646	290.977	-0.063	0.149
-568.631	-132.648	0.376	-0.061
-567.617	-150.953	0.829	0.080
-566.602	350.499	0.284	-0.726
-565.588	390.031	0.094	-0.252
-564.573	-200.000	-0.012	-0.395
-563.558	-200.000	-0.013	-0.127
-562.544	-78.973	0.457	-0.199
-561.529	385.379	0.099	-0.263
-560.515	-50.134	0.368	-0.224
-559.500	-156.393	-0.538	0.043
-558.485	-37.918	-0.418	0.285
-557.471	-111.917	0.335	-0.086
-556.456	-200.000	0.127	-0.779
-555.442	-200.000	0.006	0.123
-554.427	683.183	-0.067	0.226
-553.412	246.826	0.136	-0.296
-552.398	-33.165	0.277	-0.197
-551.383	149.362	-0.392	0.685
-550.369	-200.000	0.038	-0.402
-549.354	-82.386	0.103	0.043
-548.339	186.512	-0.166	0.319
-547.325	-95.584	-0.138	-0.047
-546.310	800.000	-0.112	0.402
-545.296	-200.000	-0.029	-0.336
-544.281	621.418	0.104	0.338
-543.266	-184.788	-0.633	0.013
-542.252	217.283	0.159	-0.328
-541.237	-81.395	-0.145	0.061
-540.223	56.318	-0.256	0.320
-539.208	-79.195	0.281	0.122
-538.193	217.787	0.087	0.179
-537.179	-130.779	-0.282	0.048
-536.164	-15.102	0.108	0.088
-535.150	-143.571	-0.205	0.025
-534.135	728.292	-0.060	-0.209
-533.121	-134.299	-0.232	0.036
-532.106	34.901	-0.182	0.205
-531.091	36.799	0.061	-0.069
-530.077	-139.030	0.374	-0.052
-529.062	231.068	0.253	0.535
-528.048	-97.543	-0.163	-0.054
-527.033	142.510	0.160	-0.273
-526.018	-141.377	0.312	-0.040
-525.004	-88.414	-0.280	0.107
-523.989	184.460	-0.067	0.128
-522.975	142.526	0.046	-0.078
-521.960	-63.137	0.265	0.140
-520.945	800.000	-0.127	-0.531
-519.931	38.940	-0.100	-0.115
-518.916	-93.601	-0.305	-0.108
-517.902	39.967	-0.218	-0.252
-516.887	-142.975	-0.093	0.011
-515.872	-5.742	0.273	0.240
-514.858	-200.000	-0.020	-0.242
-513.843	-22.849	0.406	0.314
-512.829	-7.138	-0.332	0.289
-511.814	554.141	-0.124	0.384
-510.799	218.430	0.125	0.258
-509.785	131.013	0.119	-0.196
-508.770	-200.000	0.004	0.257
-507.756	-200.000	0.015	0.236
-506.741	-159.617	0.196	0.014
-505.726	-103.204	0.154	0.047
-504.712	-110.660	-0.058	0.015
-503.697	-125.198	0.386	-0.075
-502.683	142.326	-0.175	-0.298
-501.668	-97.588	-0.709	-0.235
-500.653	51.656	0.240	-0.294
-499.639	611.796	0.119	-0.383
-498.624	524.649	0.192	-0.583
-497.610	-81.796	0.312	0.131
-496.595	-200.000	0.024	-0.338
-495.581	171.416	-0.125	-0.230
-494.566	-70.896	0.449	-0.216
-493.551	-115.932	-0.224	0.053
-492.537	148.026	0.074	-0.128
-491.522	47.993	-0.265	-0.318
-490.508	-114.864	-0.358	0.087
-489.493	-72.796	-0.357	-0.168
-488.478	15.186	0.486	-0.489
-487.464	-200.000	-0.011	-0.073
-486.449	-63.034	0.086	-0.045
-485.435	247.722	0.155	-0.337
-484.420	488.037	-0.143	-0.422
-483.405	-89.434	0.147	0.055
-482.391	-94.473	0.483	0.168
-481.376	679.506	0.118	0.397
-480.362	-81.582	-0.523	0.219
-479.347	800.000	0.121	0.487
-478.332	-12.437	-0.232	0.194
-477.318	-16.534	-0.411	0.333
-476.303	-113.045	-0.170	0.043
-475.289	295.500	-0.070	-0.166
-474.274	-41.225	0.229	0.151
-473.259	-167.922	-0.172	0.009
-472.245	-39.686	-0.135	-0.090
-471.230	1.244	-0.158	0.146
-470.216	411.496	-0.059	0.161
-469.201	-170.299	-0.226	0.010
-468.186	-9.989	-0.036	0.031
-467.172	29.034	-0.228	0.248
-466.157	800.000	-0.097	-0.477
-465.143	-59.893	-0.385	-0.210
-464.128	800.000	-0.047	0.244
-463.113	120.798	0.070	-0.113
-462.099	-105.434	0.129	-0.037
-461.084	101.228	0.124	0.186
-460.070	800.000	-0.089	0.438
-459.055	-147.745	-0.225	-0.024
-458.040	-36.547	-0.141	0.097
-457.026	346.141	-0.136	0.344
-456.011	-42.702	-0.078	0.050
-454.997	-16.375	-0.214	0.174
-453.982	-75.097	-0.232	-0.106
-452.968	-62.196	0.269	-0.143
-451.953	-125.926	-0.612	0.117
-450.938	-16.676	-0.144	0.117
-449.924	-178.166	0.384	0.011
-448.909	-6.318	-0.076	0.067
-447.895	-200.000	0.018	-0.402
-446.880	410.265	-0.181	0.493
-445.865	-15.008	-0.373	-0.306
-444.851	-87.361	-0.103	-0.040
-443.836	-168.161	0.504	-0.025
-442.822	-200.000	-0.005	0.053
-441.807	278.246	-0.147	0.336
-440.792	-200.000	-0.026	0.485
-439.778	172.697	0.277	0.511
-438.763	9.029	-0.094	-0.091
-437.749	-200.000	-0.012	-0.182
-436.734	-200.000	0.036	-0.388
-435.719	-200.000	0.033	0.288
-434.705	452.864	-0.058	0.166
-433.690	800.000	0.049	-0.272
-432.676	-40.115	0.346	-0.230
-431.661	800.000	0.080	0.339
-430.646	-121.553	0.101	0.021
-429.632	307.673	-0.111	-0.266
-428.617	800.000	0.073	0.326
-427.603	-200.000	0.002	0.040
-426.588	-18.606	-0.141	0.112
-425.573	-114.022	0.232	-0.057
-424.559	21.298	-0.236	-0.245
-423.544	279.235	-0.175	0.401
-422.530	-34.891	0.138	-0.097
-421.515	-22.995	-0.360	-0.277
-420.500	299.657	-0.088	-0.208
-419.486	-120.718	0.239	0.051
-418.471	-31.013	-0.268	0.193
-417.457	171.915	0.141	0.261
-416.442	-200.000	0.083	-0.547
-415.428	-68.577	-0.501	-0.248
-414.413	-200.000	-0.004	0.205
-413.398	800.000	-0.032	0.124
-412.384	800.000	0.085	-0.315
-411.369	-60.330	0.458	0.249
-410.355	98.837	0.102	0.151
-409.340	-66.919	0.576	0.290
-408.325	19.492	0.073	-0.075
-407.311	39.598	0.205	-0.235
-406.296	-89.381	0.504	0.189
-405.282	-145.422	-0.564	-0.064
-404.267	64.767	-0.109	-0.141
-403.252	107.506	-0.272	0.415
-402.238	141.026	-0.023	-0.040
-401.223	800.000	0.068	-0.370
-400.209	-200.000	-0.047	-0.280
-399.194	-167.902	0.444	0.022
-398.179	800.000	-0.103	0.500
-397.165	521.016	0.099	-0.298
-396.150	171.099	0.440	0.809
-395.136	-86.787	-0.303	0.118
-394.121	152.827	0.189	0.330
-393.106	75.127	0.208	0.280
-392.092	-131.899	-0.250	0.041
-391.077	-151.602	-0.251	0.023
-390.063	-21.236	-0.047	0.037
-389.048	-117.841	0.109	-0.025
-388.033	171.828	-0.220	0.406
-387.019	800.000	0.034	0.140
-386.004	-70.155	-0.323	0.156
-384.990	1.199	-0.292	-0.268
-383.975	-77.068	-0.180	0.080
-382.960	515.642	0.136	0.409
-381.946	-130.854	0.283	0.048
-380.931	-149.776	-0.068	-0.007
-379.917	280.404	-0.120	-0.275
-378.902	-143.008	-0.691	-0.084
-377.888	-200.000	0.033	-0.285
-376.873	-200.000	-0.002	-0.056
-375.858	-36.496	-0.486	-0.334
-374.844	-26.188	-0.222	-0.166
-373.829	411.872	-0.082	-0.222
-372.815	-154.864	-0.613	-0.051
-371.800	-169.796	0.197	-0.009
-370.785	-200.000	-0.036	0.405
-369.771	-200.000	-0.008	-0.119
-368.756	-65.979	0.274	0.139
-367.742	48.352	-0.230	0.275
-366.727	-200.000	0.051	0.303
-365.712	-29.455	0.188	0.137
-364.698	-95.752	0.183	0.062
-363.683	-98.981	0.364	-0.117
-362.669	-164.421	0.637	0.037
-361.654	-200.000	-0.010	-0.201
-360.639	701.588	0.171	0.579
-359.625	-132.023	-0.530	0.087
-358.610	121.970	0.064	-0.102
-357.596	-179.788	0.471	-0.013
-356.581	-22.868	-0.048	0.037
-355.566	-158.303	-0.474	-0.035
-354.552	15.547	0.012	0.012
-353.537	800.000	-0.092	-0.470
-352.523	-40.266	0.283	-0.187
-351.508	-47.662	-0.247	-0.153
-350.493	-112.781	0.214	0.054
-349.479	-87.124	-0.645	0.249
-348.464	92.339	-0.144	0.207
-347.450	-159.355	-0.295	-0.021
-346.435	585.428	0.078	0.245
-345.420	-44.439	0.262	-0.167
-344.406	-89.992	0.160	-0.059
-343.391	-8.330	-0.153	0.131
-342.377	184.844	-0.119	0.225
-341.362	-172.875	0.145	-0.006
-340.348	132.162	-0.143	0.236
-339.333	800.000	-0.043	0.170
-338.318	-140.093	0.327	-0.043
-337.304	-68.692	0.150	0.074
-336.289	-200.000	0.033	0.274
-335.275	-13.879	0.232	0.191
-334.260	13.904	0.129	-0.128
-333.245	-12.341	0.195	-0.163
-332.231	-14.292	0.357	-0.293
-331.216	-200.000	-0.008	0.388
-330.202	800.000	0.068	0.293
-329.187	30.369	0.379	-0.413
-328.172	-149.005	0.048	-0.005
-327.158	-44.288	0.154	-0.098
-326.143	-127.578	-0.319	0.058
-325.129	-5.688	0.149	-0.130
-324.114	-8.796	-0.219	0.187
-323.099	178.375	-0.211	-0.394
-322.085	-32.760	-0.128	-0.091
-321.070	-60.834	0.427	-0.229
-320.056	-27.525	0.338	0.250
-319.041	-142.295	0.140	-0.017
-318.026	756.969	0.050	-0.173
-317.012	-200.000	0.019	0.161
-315.997	-99.826	-0.301	-0.095
-314.983	-200.000	0.014	0.337
-313.968	-86.247	0.256	0.100
-312.953	-112.936	-0.371	0.093
-311.939	-200.000	0.065	0.633
-310.924	33.816	-0.145	-0.160
-309.910	-200.000	0.072	-0.423
-308.895	30.530	-0.163	-0.178
-307.880	-20.163	-0.302	0.237
-306.866	800.000	0.150	-0.635
-305.851	779.981	-0.084	-0.296
-304.837	-200.000	0.006	-0.105
-303.822	-32.559	0.316	0.224
-302.807	108.649	0.128	-0.195
-301.793	-4.040	0.103	-0.091
-300.778	-142.931	0.248	-0.030
-299.764	-187.650	0.522	0.009
-298.749	393.799	-0.088	-0.235
-297.735	-88.851	-0.254	0.095
-296.720	150.887	-0.231	-0.400
-295.705	-155.707	-0.496	-0.040
-294.691	675.769	0.085	0.282
-293.676	800.000	-0.131	0.642
-292.662	-171.613	-0.100	-0.004
-291.647	-65.487	0.209	-0.106
-290.632	800.000	0.100	-0.428
-289.618	-117.326	0.453	0.104
-288.603	-200.000	0.131	0.777
-287.589	-119.483	0.232	-0.051
-286.574	-14.921	-0.167	0.137
-285.559	-179.172	0.220	0.006
-284.545	-69.846	0.262	0.127
-283.530	-18.882	-0.399	0.316
-282.516	-194.895	0.364	-0.003
-281.501	125.235	-0.211	-0.340
-280.486	-134.093	0.157	-0.024
-279.472	3.660	0.237	-0.220
-278.457	4.596	-0.460	-0.430
-277.443	-200.000	-0.024	-0.180
-276.428	-200.000	-0.049	-0.399
-275.413	-200.000	0.003	0.243
-274.399	-200.000	-0.052	0.486
-273.384	800.000	0.072	0.258
-272.370	220.967	0.073	-0.149
-271.355	-27.104	0.107	0.079
-270.340	89.163	-0.226	0.321
-269.326	225.716	-0.106	0.219
-268.311	391.248	-0.082	-0.218
-267.297	610.066	0.176	0.562
-266.282	-83.843	0.262	0.106
-265.267	-108.712	0.345	0.093
-264.253	-42.963	0.384	0.248
-263.238	-196.169	0.319	-0.003
-262.224	42.487	-0.166	0.192
-261.209	-61.360	0.201	-0.107
-260.195	-105.734	0.225	0.064
-259.180	-58.786	0.241	-0.132
-258.165	64.210	-0.083	-0.106
-257.151	800.000	-0.054	-0.254
-256.136	179.438	-0.049	0.092
-255.122	137.646	0.108	0.180
-254.107	-53.652	-0.312	-0.181
-253.092	76.809	-0.019	0.026
-252.078	-200.000	0.002	0.132
-251.063	-10.038	-0.174	0.147
-250.049	-86.018	0.531	-0.208
-249.034	562.145	-0.064	-0.198
-248.019	25.557	0.340	-0.360
-247.005	7.721	-0.524	0.499
-245.990	-134.252	0.044	0.007
-244.976	431.333	-0.136	-0.376
-243.961	13.556	-0.295	0.291
-242.946	-62.111	-0.114	-0.060
-241.932	-131.291	-0.111	-0.018
-240.917	-200.000	0.001	-0.044
-239.903	800.000	0.063	-0.278
-238.888	-140.232	-0.275	0.036
-237.873	64.646	0.165	0.211
-236.859	140.992	0.234	0.393
-235.844	-200.000	-0.011	0.119
-234.830	-63.652	0.301	0.156
-233.815	711.454	-0.062	-0.210
-232.800	-57.518	-0.211	-0.117
-231.786	413.609	-0.053	0.145
-230.771	-200.000	0.040	0.289
-229.757	-158.629	-0.210	0.015
-228.742	-94.025	-0.279	0.097
-227.727	-70.824	0.188	-0.090
-226.713	-147.984	-0.344	-0.036
-225.698	-60.557	0.061	-0.033
-224.684	-55.337	0.282	0.160
-223.669	-107.332	0.463	0.128
-222.655	60.211	-0.083	0.105
-221.640	348.554	0.091	-0.229
-220.625	47.188	0.223	-0.264
-219.611	10.542	-0.368	-0.356
-218.596	800.000	0.146	-0.618
-217.582	-200.000	0.018	0.173
-216.567	121.293	-0.021	0.034
-215.552	-200.000	-0.021	-0.242
-214.538	-74.534	0.419	0.191
-213.523	73.977	-0.042	0.056
-212.509	-50.796	-0.381	-0.227
-211.494	-106.094	0.089	0.025
-210.479	-200.000	-0.025	0.542
-209.465	-80.400	-0.417	0.176
-208.450	-30.837	0.185	0.132
-207.436	391.956	0.142	-0.375
-206.421	24.737	0.479	0.503
-205.406	-26.044	-0.094	-0.070
-204.392	-9.681	-0.584	-0.493
-203.377	-200.000	0.013	0.263
-202.363	46.257	0.134	0.158
-201.348	-154.535	0.199	-0.017
-200.333	-182.763	0.371	-0.008
-199.319	-96.218	-0.237	-0.079
-198.304	-104.309	0.289	0.085
-197.290	-33.809	-0.390	0.272
-196.275	-22.608	-0.528	-0.404
-195.260	-137.562	-0.073	0.010
-194.246	150.930	0.294	-0.509
-193.231	793.175	0.156	0.546
-192.217	-200.000	0.059	0.516
-191.202	36.407	0.275	0.308
-190.187	-71.892	0.251	0.118
-189.173	-200.000	0.010	-0.252
-188.158	125.994	-0.191	0.306
-187.144	-94.217	-0.374	-0.129
-186.129	-113.335	-0.222	0.055
-185.114	-57.483	-0.084	-0.047
-184.100	-4.584	0.189	-0.165
-183.085	-200.000	0.296	-0.002
-182.071	19.661	0.216	-0.221
-181.056	-67.849	-0.114	-0.056
-180.042	-200.000	0.000	-0.086
-179.027	381.840	-0.098	0.255
-178.012	-113.973	-0.508	0.124
-176.998	28.726	0.084	-0.090
-175.983	-126.803	0.185	0.034
-174.969	-10.244	-0.255	-0.214
-173.954	495.640	-0.108	-0.316
-172.939	-69.658	0.655	0.316
-171.925	122.049	0.030	-0.048
-170.910	-200.000	0.029	0.213
-169.896	-63.161	0.439	-0.229
-168.881	-120.189	0.398	0.085
-167.866	-112.630	0.154	-0.038
-166.852	641.883	-0.204	0.662
-165.837	20.768	0.161	-0.165
-164.823	800.000	0.132	-0.577
-163.808	-104.715	0.257	-0.075
-162.793	800.000	-0.042	-0.206
-161.779	-13.531	0.289	-0.237
-160.764	-12.102	-0.099	-0.082
-159.750	61.715	0.156	-0.197
-158.735	-200.000	0.017	0.104
-157.720	-175.055	-0.322	-0.011
-156.706	-51.310	0.044	-0.026
-155.691	277.849	0.050	-0.112
-154.677	-116.891	0.304	0.070
-153.662	-171.465	0.547	-0.023
-152.647	-43.965	0.040	0.025
-151.633	-64.708	0.335	-0.171
-150.618	-94.497	0.330	-0.113
-149.604	104.206	-0.090	0.134
-148.589	800.000	0.030	-0.110
-147.574	293.191	0.127	-0.293
-146.560	800.000	0.164	-0.638
-145.545	-102.384	0.121	0.037
-144.531	17.286	-0.103	-0.104
-143.516	-155.768	0.224	-0.018
-142.502	-78.061	-0.403	-0.175
-141.487	-200.000	-0.013	0.200
-140.472	46.996	-0.141	0.166
-139.458	82.546	0.194	0.267
-138.443	-143.339	0.249	-0.030
-137.429	656.739	0.139	0.456
-136.414	259.148	-0.163	-0.357
-135.399	-87.468	0.253	-0.096
-134.385	-171.041	-0.309	-0.013
-133.370	-75.360	-0.606	-0.272
-132.356	-170.791	0.363	-0.016
-131.341	-101.935	-0.344	-0.105
-130.326	-73.377	0.278	0.128
-129.312	-122.016	0.279	-0.057
-128.297	-121.540	-0.323	-0.067
-127.283	741.592	-0.233	0.798
-126.268	-105.363	0.182	0.052
-125.253	72.554	0.252	-0.333
-124.239	-28.537	-0.140	0.102
-123.224	-39.474	-0.312	-0.207
