DTS Sentinel unit serial number:	SN409020Multiplexer serial number:	ORYXHardware model number:	OX4-SRSoftware version number:	ORYX F/W v3.00 Oryx Data Collector v3.7.2.0data status	okinstallation	HaddamTimeLapsedifferential loss correction	single-endedforward channel	channel 3reverse channel	N/Adate	2011/06/22time	02:36:16forward acquisition time	30.00reverse acquisition time	0.00gamma	498.7831k internal	0.1751k external	0.1751temperature offset calibration	1.0074default loss term (dB/km)	0.3790temperature slope calibration	1.3530multiplexer offset coefficient	1.0000multiplexer slope coefficient	1.0000fibre end	0.00T internal ref (°C)	22.34T ext. ref 1 (°C)	17.58T ext. ref 2 (°C)	0.02length (m)	temperature (°C)	Stokes	anti-Stokes-747.200	-41.380	0.060	0.041
-746.185	185.722	0.030	-0.059
-745.171	-83.647	0.074	-0.031
-744.156	41.296	0.173	-0.208
-743.142	-54.146	-0.277	0.167
-742.127	-57.242	0.565	-0.329
-741.112	-61.556	-0.079	-0.044
-740.098	101.542	0.194	0.301
-739.083	-59.583	0.153	0.087
-738.069	-128.429	0.204	0.038
-737.054	-200.000	-0.020	0.256
-736.039	-36.731	-0.121	-0.086
-735.025	160.741	-0.288	-0.535
-734.010	205.748	0.160	0.332
-732.996	-86.364	-0.318	0.129
-731.981	170.652	-0.131	-0.250
-730.966	-162.800	0.493	0.032
-729.952	-63.051	-0.241	-0.132
-728.937	-3.180	0.364	-0.337
-727.923	698.860	-0.047	-0.164
-726.908	-72.181	-0.401	-0.197
-725.894	-61.297	-0.419	-0.233
-724.879	800.000	0.013	-0.065
-723.864	-114.639	-0.509	0.128
-722.850	454.316	-0.112	-0.330
-721.835	286.913	0.294	-0.707
-720.821	63.393	-0.078	0.104
-719.806	19.033	0.286	-0.304
-718.791	323.561	0.048	-0.122
-717.777	150.561	0.067	0.121
-716.762	-94.217	0.172	-0.062
-715.748	-200.000	-0.049	-0.375
-714.733	-93.205	0.093	0.034
-713.718	52.757	-0.192	-0.244
-712.704	-93.346	0.300	-0.110
-711.689	-63.890	-0.272	-0.147
-710.675	-79.684	-0.498	-0.222
-709.660	572.180	-0.096	0.313
-708.645	-91.494	0.327	0.123
-707.631	-0.705	-0.609	0.572
-706.616	94.946	-0.356	-0.539
-705.602	19.105	-0.123	0.131
-704.587	-45.766	-0.208	0.136
-703.572	-99.467	0.417	0.139
-702.558	-141.067	0.180	-0.024
-701.543	-146.159	-0.253	-0.029
-700.529	-55.157	-0.545	-0.324
-699.514	-45.852	0.249	0.163
-698.499	146.336	-0.111	-0.199
-697.485	-200.000	0.068	0.501
-696.470	38.515	-0.600	0.709
-695.456	-118.622	-0.255	0.059
-694.441	35.792	0.208	0.243
-693.426	800.000	-0.114	-0.450
-692.412	-48.422	0.300	-0.191
-691.397	268.728	-0.149	-0.347
-690.383	800.000	0.084	0.324
-689.368	-200.000	-0.064	0.451
-688.354	-135.203	0.239	-0.038
-687.339	-200.000	-0.006	-0.158
-686.324	89.092	0.127	-0.187
-685.310	-200.000	0.046	0.471
-684.295	9.061	-0.394	-0.394
-683.281	-153.091	0.434	0.040
-682.266	-30.415	0.365	-0.274
-681.251	-82.296	-0.415	-0.178
-680.237	-77.416	-0.308	0.141
-679.222	230.806	0.173	0.376
-678.208	-147.654	-0.092	-0.010
-677.193	-92.727	-0.024	-0.009
-676.178	22.007	-0.200	0.216
-675.164	67.405	-0.355	-0.481
-674.149	-130.979	-0.350	-0.061
-673.135	-107.855	-0.243	0.070
-672.120	-174.687	-0.270	-0.010
-671.105	-127.042	0.244	-0.047
-670.091	60.706	-0.417	0.548
-669.076	-200.000	-0.005	-0.313
-668.062	324.755	-0.067	-0.171
-667.047	800.000	-0.061	0.330
-666.032	-28.322	0.289	-0.220
-665.018	-48.658	-0.606	-0.384
-664.003	-200.000	-0.016	0.103
-662.989	70.485	0.250	0.342
-661.974	-87.221	-0.278	0.111
-660.959	124.595	0.228	0.381
-659.945	800.000	0.092	-0.380
-658.930	-37.262	0.382	-0.270
-657.916	77.916	0.100	0.142
-656.901	75.873	-0.022	-0.030
-655.886	176.336	0.224	0.432
-654.872	-41.683	0.309	-0.210
-653.857	27.213	0.258	-0.287
-652.843	28.882	-0.433	-0.486
-651.828	215.708	-0.131	-0.275
-650.814	166.577	-0.197	-0.371
-649.799	227.690	0.016	0.034
-648.784	-124.865	-0.155	-0.031
-647.770	2.572	-0.355	-0.341
-646.755	-44.235	0.229	-0.152
-645.741	628.825	-0.117	0.393
-644.726	-140.113	0.413	-0.057
-643.711	800.000	0.063	-0.269
-642.697	223.423	-0.212	0.453
-641.682	-152.230	-0.642	-0.061
-640.668	363.014	-0.216	0.578
-639.653	-169.886	-0.150	0.007
-638.638	395.140	0.025	0.071
-637.624	52.784	0.100	0.127
-636.609	-14.773	0.164	0.139
-635.595	127.117	-0.247	0.415
-634.580	800.000	-0.012	-0.060
-633.565	-200.000	-0.414	-0.000
-632.551	-72.452	0.050	-0.024
-631.536	-194.659	0.139	-0.001
-630.522	-200.000	-0.007	-0.302
-629.507	-167.370	0.209	-0.011
-628.492	3.941	0.208	0.201
-627.478	-200.000	0.007	0.161
-626.463	-10.596	-0.037	-0.032
-625.449	17.465	0.252	-0.264
-624.434	-200.000	-0.056	-0.447
-623.419	-20.555	-0.263	-0.213
-622.405	-24.668	-0.104	0.081
-621.390	-126.788	0.336	0.065
-620.376	-200.000	-0.021	-0.246
-619.361	577.474	-0.025	0.081
-618.346	-47.379	-0.346	-0.222
-617.332	13.496	0.200	0.205
-616.317	-115.804	0.302	0.074
-615.303	-118.689	0.244	0.056
-614.288	2.541	0.407	0.390
-613.273	-89.920	0.385	0.148
-612.259	33.186	-0.260	0.299
-611.244	-25.999	-0.128	0.100
-610.230	-200.000	0.007	0.270
-609.215	263.159	-0.128	-0.295
-608.201	141.306	0.130	0.229
-607.186	-200.000	0.010	-0.202
-606.171	-12.021	-0.335	-0.290
-605.157	-68.429	-0.202	-0.103
-604.142	-88.996	-0.034	0.013
-603.128	22.808	-0.056	0.060
-602.113	-19.179	-0.070	0.058
-601.098	-32.630	-0.113	0.083
-600.084	-62.076	0.704	0.387
-599.069	87.057	-0.233	-0.340
-598.055	-82.476	-0.438	-0.187
-597.040	-13.998	-0.222	-0.190
-596.025	-200.000	0.002	0.036
-595.011	-9.097	-0.256	0.226
-593.996	156.325	0.091	-0.167
-592.982	-82.343	-0.343	0.146
-591.967	-108.334	0.113	-0.032
-590.952	-103.819	0.330	0.101
-589.938	-66.403	-0.456	-0.238
-588.923	-113.572	-0.241	-0.062
-587.909	-25.290	0.187	0.146
-586.894	-96.661	0.090	-0.031
-585.879	-75.775	-0.376	-0.175
-584.865	24.981	-0.192	-0.210
-583.850	416.082	-0.015	0.043
-582.836	-140.425	-0.897	-0.122
-581.821	-12.872	-0.393	-0.337
-580.806	-19.602	0.091	-0.074
-579.792	-28.802	0.295	0.224
-578.777	-4.638	-0.587	0.534
-577.763	-148.773	0.171	-0.018
-576.748	420.013	0.216	0.614
-575.733	398.717	-0.114	0.317
-574.719	440.834	0.157	-0.456
-573.704	40.177	0.176	0.209
-572.690	-6.464	-0.215	-0.193
-571.675	34.871	-0.150	0.173
-570.661	-52.036	0.460	0.281
-569.646	302.681	-0.094	0.231
-568.631	603.396	0.106	0.350
-567.617	-72.814	0.109	0.053
-566.602	57.996	0.189	-0.245
-565.588	-72.511	0.405	-0.197
-564.573	44.456	-0.022	-0.027
-563.558	128.490	0.243	0.410
-562.544	-68.412	0.215	0.110
-561.529	-54.636	-0.522	-0.310
-560.515	-106.287	0.062	-0.018
-559.500	4.799	-0.526	-0.510
-558.485	-38.328	-0.388	-0.271
-557.471	592.908	0.119	-0.389
-556.456	-123.112	-0.246	-0.052
-555.442	90.956	-0.175	-0.259
-554.427	392.593	0.122	0.336
-553.412	-61.567	0.317	-0.175
-552.398	-29.169	0.164	-0.123
-551.383	99.350	-0.210	-0.321
-550.369	-75.913	0.256	0.119
-549.354	-200.000	-0.005	0.304
-548.339	-126.268	0.221	-0.043
-547.325	-30.383	0.225	0.168
-546.310	-200.000	0.026	0.372
-545.296	47.423	-0.226	-0.278
-544.281	800.000	0.030	-0.139
-543.266	-63.035	-0.494	0.268
-542.252	73.454	0.269	-0.371
-541.237	-200.000	-0.097	-0.666
-540.223	663.979	0.052	0.179
-539.208	800.000	0.074	-0.397
-538.193	800.000	0.095	0.549
-537.179	46.109	0.308	-0.376
-536.164	-5.736	0.398	-0.359
-535.150	-1.577	0.405	0.376
-534.135	-200.000	-0.078	0.580
-533.121	273.427	-0.290	0.677
-532.106	248.933	0.119	-0.267
-531.091	177.656	-0.130	0.250
-530.077	-73.139	-0.067	-0.032
-529.062	-64.056	-0.616	0.330
-528.048	-42.904	0.264	-0.176
-527.033	-52.090	0.309	0.189
-526.018	-22.453	0.223	-0.177
-525.004	146.891	-0.111	-0.197
-523.989	567.743	-0.102	-0.327
-522.975	-1.412	0.207	-0.193
-521.960	-200.000	-0.006	-0.278
-520.945	800.000	0.064	-0.234
-519.931	-114.155	0.251	0.063
-518.916	190.846	0.226	0.449
-517.902	-169.876	0.597	0.028
-516.887	66.951	-0.246	0.330
-515.872	192.462	-0.201	0.401
-514.858	-86.320	0.587	0.237
-513.843	800.000	-0.069	0.358
-512.829	301.478	-0.146	-0.356
-511.814	-144.140	0.376	0.046
-510.799	800.000	0.090	-0.341
-509.785	-126.306	-0.079	0.015
-508.770	723.910	-0.021	-0.075
-507.756	-78.277	0.299	0.134
-506.741	562.133	-0.172	-0.552
-505.726	-99.704	-0.366	-0.120
-504.712	-56.035	0.343	-0.201
-503.697	-121.716	0.136	0.029
-502.683	-200.000	0.043	-0.379
-501.668	-12.487	-0.243	-0.208
-500.653	-131.682	0.177	-0.030
-499.639	-55.384	-0.256	-0.151
-498.624	-44.141	0.376	0.248
-497.610	474.318	-0.113	-0.338
-496.595	252.126	-0.145	0.325
-495.581	207.276	-0.224	0.461
-494.566	-119.947	-0.391	0.088
-493.551	800.000	0.069	-0.294
-492.537	91.152	-0.146	0.216
-491.522	-5.453	-0.271	-0.245
-490.508	-100.396	0.233	0.076
-489.493	55.079	-0.214	-0.273
-488.478	800.000	-0.101	-0.379
-487.464	-100.531	-0.059	-0.019
-486.449	-148.150	-0.404	-0.043
-485.435	-38.155	0.168	-0.117
-484.420	505.183	0.039	-0.119
-483.405	-66.269	0.185	0.097
-482.391	-200.000	-0.016	0.297
-481.376	87.463	-0.170	0.248
-480.362	76.751	-0.184	0.257
-479.347	106.243	0.085	-0.133
-478.332	-200.000	0.058	0.454
-477.318	-54.871	-0.125	-0.074
-476.303	-200.000	0.046	-0.379
-475.289	164.117	0.151	-0.281
-474.274	135.890	-0.212	-0.363
-473.259	-200.000	0.003	-0.345
-472.245	-200.000	0.014	-0.166
-471.230	-149.758	-0.154	0.016
-470.216	-28.480	0.049	-0.037
-469.201	-56.133	-0.118	0.069
-468.186	-80.702	-0.154	-0.067
-467.172	241.499	-0.123	0.271
-466.157	-200.000	-0.023	-0.179
-465.143	-128.131	0.472	-0.088
-464.128	-200.000	-0.045	-0.399
-463.113	-173.653	0.143	0.006
-462.099	-39.541	-0.166	-0.114
-461.084	159.288	0.310	-0.568
-460.070	462.449	-0.059	-0.174
-459.055	-200.000	0.010	-0.611
-458.040	-68.454	0.330	-0.168
-457.026	-32.035	-0.146	0.107
-456.011	-94.974	-0.203	0.072
-454.997	-88.910	-0.141	-0.055
-453.982	-200.000	0.477	-0.001
-452.968	800.000	0.037	-0.178
-451.953	800.000	-0.126	0.563
-450.938	-168.770	-0.325	0.016
-449.924	187.082	0.253	0.496
-448.909	21.379	0.389	0.415
-447.895	-31.800	0.358	-0.263
-446.880	800.000	-0.028	0.115
-445.865	-33.207	0.122	0.088
-444.851	-200.000	-0.002	-0.024
-443.836	252.259	0.130	-0.291
-442.822	800.000	0.010	-0.035
-441.807	800.000	-0.132	0.678
-440.792	115.627	0.167	0.269
-439.778	77.146	-0.174	0.243
-438.763	-23.460	0.363	-0.286
-437.749	24.202	0.412	0.446
-436.734	-71.009	0.180	0.089
-435.719	-146.676	-0.412	0.046
-434.705	40.898	0.132	0.156
-433.690	-109.851	-0.565	-0.154
-432.676	-120.123	-0.474	-0.106
-431.661	-200.000	-0.023	0.311
-430.646	-200.000	-0.020	-0.256
-429.632	-18.673	0.334	-0.273
-428.617	-160.069	-0.291	-0.021
-427.603	434.525	-0.149	-0.426
-426.588	-200.000	-0.006	-0.239
-425.573	-44.128	-0.256	0.168
-424.559	-52.101	0.058	0.035
-423.544	90.524	0.127	0.186
-422.530	-17.553	0.097	-0.080
-421.515	596.008	0.094	0.307
-420.500	-200.000	0.039	0.712
-419.486	-91.628	0.070	0.026
-418.471	-119.411	-0.593	0.134
-417.457	108.379	0.246	-0.386
-416.442	472.982	0.038	-0.114
-415.428	-108.692	0.426	-0.119
-414.413	-97.937	0.453	-0.152
-413.398	-41.594	-0.023	-0.015
-412.384	-112.928	-0.433	0.112
-411.369	169.403	-0.082	-0.153
-410.355	-152.315	0.211	0.020
-409.340	-108.423	0.132	-0.037
-408.325	314.338	0.072	-0.179
-407.311	144.245	-0.290	0.508
-406.296	-200.000	0.008	-0.090
-405.282	-81.487	0.151	0.065
-404.267	233.736	-0.067	-0.145
-403.252	-38.165	-0.463	0.321
-402.238	136.120	0.335	0.574
-401.223	-50.139	0.277	-0.171
-400.209	442.754	-0.190	-0.548
-399.194	800.000	-0.042	-0.187
-398.179	-116.037	-0.160	-0.039
-397.165	59.703	-0.151	0.195
-396.150	157.142	-0.097	0.176
-395.136	-200.000	-0.021	-0.221
-394.121	83.497	0.318	-0.456
-393.106	800.000	-0.045	-0.235
-392.092	74.915	-0.177	-0.245
-391.077	-146.342	0.064	-0.007
-390.063	215.918	-0.090	-0.188
-389.048	42.270	-0.285	0.339
-388.033	14.055	-0.332	0.339
-387.019	-136.448	0.302	0.045
-386.004	-63.005	0.481	-0.259
-384.990	237.159	-0.153	-0.332
-383.975	800.000	-0.059	-0.341
-382.960	-71.883	-0.658	-0.320
-381.946	122.565	0.186	-0.305
-380.931	112.159	0.037	-0.058
-379.917	-140.724	0.280	-0.037
-378.902	39.142	-0.126	0.148
-377.888	-200.000	-0.025	0.153
-376.873	399.772	0.188	-0.519
-375.858	-136.556	-0.367	-0.055
-374.844	-67.997	0.113	-0.057
-373.829	367.343	0.065	0.173
-372.815	304.520	0.168	0.411
-371.800	273.449	-0.082	0.190
-370.785	-96.725	0.380	-0.130
-369.771	-92.941	-0.396	0.144
-368.756	800.000	-0.081	0.399
-367.742	-70.555	-0.145	0.072
-366.727	2.398	-0.226	0.214
-365.712	-68.932	0.307	0.154
-364.698	-0.841	-0.184	0.171
-363.683	-140.346	0.485	0.066
-362.669	307.892	0.042	-0.104
-361.654	75.196	0.060	0.082
-360.639	534.195	-0.071	-0.222
-359.625	-78.995	0.421	0.187
-358.610	-65.039	-0.242	0.128
-357.596	612.997	0.085	0.279
-356.581	692.028	0.048	-0.165
-355.566	-200.000	0.028	0.343
-354.552	-140.210	-0.223	-0.030
-353.537	518.895	0.100	0.309
-352.523	-96.597	0.052	-0.018
-351.508	300.745	0.052	0.126
-350.493	-127.720	-0.177	0.033
-349.479	-112.193	-0.104	0.027
-348.464	235.890	0.130	-0.282
-347.450	28.390	-0.371	-0.410
-346.435	95.260	-0.298	0.445
-345.420	680.467	-0.170	0.583
-344.406	-4.218	0.328	0.297
-343.391	-136.979	-0.347	0.051
-342.377	113.816	-0.219	0.348
-341.362	-200.000	-0.099	-0.000
-340.348	138.848	0.105	0.180
-339.333	-200.000	-0.049	-0.292
-338.318	531.899	-0.050	-0.154
-337.304	-156.273	0.327	-0.026
-336.289	670.777	-0.077	0.261
-335.275	90.219	0.356	0.521
-334.260	-68.304	-0.208	-0.105
-333.245	-169.916	0.703	-0.032
-332.231	195.723	-0.330	-0.657
-331.216	-200.000	0.050	-0.318
-330.202	-81.129	-0.537	0.231
-329.187	800.000	0.021	-0.103
-328.172	98.878	-0.221	-0.334
-327.158	17.795	-0.090	-0.094
-326.143	97.398	0.280	-0.421
-325.129	-192.696	-0.849	0.010
-324.114	-36.019	0.429	0.302
-323.099	41.237	-0.231	-0.273
-322.085	23.070	-0.416	-0.446
-321.070	-59.492	0.174	0.097
-320.056	-33.302	0.316	-0.228
-319.041	115.278	0.134	-0.214
-318.026	-111.352	-0.432	0.114
-317.012	-57.023	-0.452	0.259
-315.997	117.731	0.290	0.467
-314.983	-97.741	0.180	-0.061
-313.968	-111.587	0.268	0.071
-312.953	53.663	-0.024	0.031
-311.939	-124.173	0.139	0.028
-310.924	-27.246	-0.246	-0.187
-309.910	-80.104	-0.073	0.032
-308.895	-103.014	0.614	0.189
-307.880	-32.120	0.090	-0.066
-306.866	96.542	-0.052	-0.078
-305.851	138.825	-0.163	0.280
-304.837	86.362	0.188	-0.272
-303.822	-200.000	-0.018	-0.208
-302.807	-105.108	-0.692	-0.205
-301.793	-125.503	0.542	-0.107
-300.778	194.179	0.188	-0.372
-299.764	-142.252	-0.165	0.021
-298.749	592.696	-0.115	-0.373
-297.735	71.064	0.235	0.319
-296.720	-42.703	-0.071	-0.047
-295.705	-114.166	0.215	-0.054
-294.691	164.652	-0.222	-0.409
-293.676	-109.721	-0.484	0.132
-292.662	-77.333	0.360	-0.163
-291.647	-74.818	-0.185	-0.086
-290.632	-77.073	0.411	0.186
-289.618	-145.602	0.487	-0.056
-288.603	-43.402	0.070	-0.046
-287.589	143.957	0.107	0.186
-286.574	198.383	0.343	0.686
-285.559	800.000	-0.069	0.256
-284.545	244.050	-0.203	0.446
-283.530	-34.244	0.252	0.180
-282.516	228.508	-0.057	0.122
-281.501	-177.897	-0.296	0.009
-280.486	-192.534	0.062	0.001
-279.472	-103.554	-0.441	-0.134
-278.457	755.227	-0.094	0.334
-277.443	106.218	0.409	-0.633
-276.428	71.965	0.358	-0.486
-275.413	48.012	-0.380	-0.463
-274.399	-107.187	-0.211	0.060
-273.384	-38.564	-0.331	0.228
-272.370	-89.277	0.290	-0.111
-271.355	-46.712	0.136	-0.087
-270.340	291.736	0.102	-0.243
-269.326	-99.951	-0.232	0.075
-268.311	-62.528	-0.140	-0.076
-267.297	32.593	0.233	-0.262
-266.282	800.000	0.014	-0.059
-265.267	-75.038	0.217	0.101
-264.253	-24.846	-0.187	0.145
-263.238	417.858	-0.083	-0.232
-262.224	50.919	-0.198	-0.245
-261.209	729.716	0.077	0.270
-260.195	6.157	-0.326	0.314
-259.180	-41.049	-0.071	0.048
-258.165	349.507	-0.073	0.188
-257.151	101.566	-0.095	0.144
-256.136	-70.128	-0.431	0.213
-255.122	230.919	-0.274	0.587
-254.107	-52.420	0.245	-0.148
-253.092	389.628	-0.087	0.237
-252.078	-200.000	-0.004	-0.268
-251.063	-105.119	0.330	0.098
-250.049	58.057	0.166	0.212
-249.034	115.517	0.032	0.050
-248.019	-160.844	0.234	-0.016
-247.005	103.122	-0.136	0.209
-245.990	113.943	0.068	-0.107
-244.976	-152.351	0.007	-0.001
-243.961	-66.615	-0.256	0.132
-242.946	-50.103	-0.199	0.123
-241.932	-88.299	-0.080	0.031
-240.917	46.084	-0.233	0.281
-239.903	-9.863	0.343	0.297
-238.888	212.760	0.173	0.356
-237.873	65.080	-0.122	-0.161
-236.859	-180.662	-0.251	-0.007
-235.844	-200.000	-0.010	0.155
-234.830	94.759	-0.215	0.319
-233.815	17.804	-0.225	-0.234
-232.800	-95.950	-0.147	0.051
-231.786	-200.000	-0.010	0.118
-230.771	800.000	-0.042	0.152
-229.757	-145.581	-0.499	0.058
-228.742	-128.133	0.288	0.053
-227.727	-17.396	0.218	0.178
-226.713	109.363	0.087	0.137
-225.698	-109.037	0.325	-0.090
-224.684	-200.000	-0.006	-0.323
-223.669	-87.443	0.205	0.080
-222.655	-68.704	-0.086	-0.043
-221.640	101.631	-0.067	-0.102
-220.625	-126.774	-0.029	-0.006
-219.611	541.621	0.123	0.385
-218.596	479.985	0.075	-0.222
-217.582	-200.000	0.014	-0.129
-216.567	559.720	0.135	-0.428
-215.552	-30.713	-0.187	0.137
-214.538	10.173	-0.350	-0.346
-213.523	143.514	0.142	-0.246
-212.509	3.981	0.264	-0.251
-211.494	72.805	0.140	0.191
-210.479	800.000	0.033	-0.139
-209.465	-200.000	-0.064	-0.445
-208.450	-39.956	-0.128	0.086
-207.436	-105.815	0.273	-0.080
-206.421	-96.244	-0.119	-0.041
-205.406	3.828	0.268	-0.254
-204.392	42.794	0.160	0.190
-203.377	-50.528	-0.363	-0.222
-202.363	-93.931	-0.138	-0.049
-201.348	-5.597	-0.239	-0.213
-200.333	524.981	0.042	0.130
-199.319	-71.472	-0.389	-0.188
-198.304	-200.000	0.017	-0.290
-197.290	-27.155	0.256	0.194
-196.275	65.534	0.152	0.201
-195.260	-152.839	0.260	0.024
-194.246	-57.247	0.588	0.336
-193.231	-75.207	-0.504	0.233
-192.217	729.256	0.122	0.427
-191.202	120.972	-0.073	-0.119
-190.187	800.000	-0.109	-0.479
-189.173	158.580	-0.161	0.291
-188.158	-97.348	-0.214	0.072
-187.144	790.137	-0.104	0.374
-186.129	21.031	-0.479	0.505
-185.114	-200.000	0.037	-0.343
-184.100	484.589	-0.101	-0.300
-183.085	252.207	0.224	0.497
-182.071	-94.380	0.300	0.106
-181.056	-72.957	0.371	-0.176
-180.042	800.000	0.143	-0.585
-179.027	-1.416	0.185	-0.169
-178.012	-100.066	0.396	-0.127
-176.998	-132.839	-0.363	0.060
-175.983	-112.499	0.182	-0.047
-174.969	567.270	0.155	-0.492
-173.954	-63.319	0.427	-0.228
-172.939	46.259	-0.067	-0.080
-171.925	-200.000	0.042	-0.573
-170.910	-118.094	0.178	0.041
-169.896	-200.000	0.000	0.315
-168.881	160.727	0.049	-0.090
-167.866	94.681	0.309	-0.457
-166.852	-200.000	-0.037	0.403
-165.837	200.287	0.139	-0.279
-164.823	-115.239	-0.714	-0.174
-163.808	-52.190	-0.237	-0.142
-162.793	-200.000	0.070	0.402
-161.779	-58.323	0.283	0.159
-160.764	-67.159	0.097	0.050
-159.750	324.174	0.121	0.301
-158.735	319.587	0.171	0.424
-157.720	-164.057	0.502	-0.030
-156.706	-39.215	-0.680	0.463
-155.691	800.000	0.041	-0.195
-154.677	-81.505	0.424	0.180
-153.662	196.421	0.125	-0.248
-152.647	-139.443	0.678	0.093
-151.633	-60.315	0.096	0.053
-150.618	-97.570	0.545	0.182
-149.604	-159.727	-0.254	-0.018
-148.589	27.647	0.094	0.103
-147.574	-19.636	0.234	0.187
-146.560	-197.940	-0.492	-0.004
-145.545	150.050	0.457	-0.807
-144.531	-14.351	0.444	0.370
-143.516	-149.242	-0.420	-0.043
-142.502	185.017	0.091	-0.176
-141.487	-164.574	-0.707	-0.041
-140.472	-123.050	-0.110	-0.023
-139.458	449.234	0.060	0.171
-138.443	126.872	-0.107	0.177
-137.429	49.341	0.466	0.569
-136.414	363.452	0.274	-0.718
-135.399	222.594	-0.122	0.256
-134.385	800.000	-0.113	-0.429
-133.370	-81.393	0.281	-0.120
-132.356	16.417	-0.151	-0.155
-131.341	-155.838	0.293	0.024
-130.326	800.000	0.074	0.300
-129.312	80.874	0.377	0.528
-128.297	-93.889	0.148	0.053
-127.283	91.251	-0.086	0.126
-126.268	1.306	0.079	0.074
-125.253	137.112	-0.077	-0.131
-124.239	-200.000	0.042	-0.573
-123.224	144.190	0.027	0.047
-122.210	-105.078	-0.102	-0.030
-121.195	122.369	0.129	-0.209
