DTS Sentinel unit serial number:	SN409020Multiplexer serial number:	ORYXHardware model number:	OX4-SRSoftware version number:	ORYX F/W v3.00 Oryx Data Collector v3.7.2.0data status	okinstallation	HaddamTimeLapsedifferential loss correction	single-endedforward channel	channel 3reverse channel	N/Adate	2011/06/22time	05:46:17forward acquisition time	30.00reverse acquisition time	0.00gamma	498.7831k internal	0.1751k external	0.1751temperature offset calibration	1.0074default loss term (dB/km)	0.3790temperature slope calibration	1.3530multiplexer offset coefficient	1.0000multiplexer slope coefficient	1.0000fibre end	0.00T internal ref (°C)	22.56T ext. ref 1 (°C)	17.91T ext. ref 2 (°C)	0.17length (m)	temperature (°C)	Stokes	anti-Stokes-747.200	800.000	-0.086	-0.412
-746.185	192.423	0.197	0.396
-745.171	57.056	-0.120	0.155
-744.156	-200.000	-0.005	0.196
-743.142	-2.345	0.563	0.524
-742.127	343.740	0.219	0.572
-741.112	-131.013	-0.518	0.091
-740.098	145.769	-0.228	0.408
-739.083	-141.994	-0.418	-0.055
-738.069	-16.547	-0.356	0.299
-737.054	-79.428	-0.402	-0.180
-736.039	-2.838	-0.260	0.241
-735.025	155.246	0.137	0.251
-734.010	-82.174	0.748	-0.322
-732.996	-175.384	-0.050	-0.002
-731.981	396.196	-0.237	0.661
-730.966	-72.569	-0.101	0.049
-729.952	-123.865	-0.477	0.099
-728.937	-4.358	-0.565	-0.518
-727.923	28.838	0.143	-0.161
-726.908	-85.565	0.524	0.215
-725.894	-97.764	-0.289	0.099
-724.879	-200.000	-0.078	-0.462
-723.864	106.447	0.266	-0.419
-722.850	800.000	-0.016	-0.068
-721.835	-69.727	0.204	-0.103
-720.821	800.000	0.053	-0.206
-719.806	85.939	-0.244	-0.357
-718.791	-156.654	0.157	0.013
-717.777	-54.442	-0.338	0.203
-716.762	-26.203	0.083	-0.065
-715.748	-200.000	0.010	0.339
-714.733	-33.565	0.029	-0.022
-713.718	391.866	0.044	0.123
-712.704	-25.482	0.422	-0.331
-711.689	-49.660	-0.288	-0.181
-710.675	-78.109	0.100	-0.045
-709.660	800.000	-0.041	-0.153
-708.645	-117.318	0.440	-0.105
-707.631	-169.936	0.560	0.026
-706.616	-70.505	0.155	0.078
-705.602	158.244	-0.270	-0.499
-704.587	-47.231	0.051	0.033
-703.572	-4.676	-0.031	0.029
-702.558	-128.641	0.443	0.082
-701.543	183.260	0.119	-0.234
-700.529	-173.747	-0.552	-0.021
-699.514	-69.117	-0.399	0.203
-698.499	-19.563	-0.390	-0.320
-697.485	-19.851	0.143	0.117
-696.470	275.843	-0.089	0.210
-695.456	474.091	-0.082	0.246
-694.441	-165.815	-0.434	-0.024
-693.426	-64.188	-0.100	0.054
-692.412	101.518	0.197	0.305
-691.397	22.601	0.051	-0.056
-690.383	-91.413	0.102	0.038
-689.368	-1.486	-0.346	-0.323
-688.354	800.000	0.121	-0.467
-687.339	51.069	-0.031	-0.040
-686.324	-34.552	0.381	-0.276
-685.310	113.781	0.288	-0.465
-684.295	-58.682	0.341	0.195
-683.281	176.652	-0.140	-0.270
-682.266	460.723	-0.069	0.205
-681.251	-43.688	-0.119	-0.079
-680.237	-200.000	-0.002	0.070
-679.222	-47.093	0.232	0.150
-678.208	120.717	0.288	0.475
-677.193	181.446	-0.256	0.500
-676.178	32.037	-0.128	-0.146
-675.164	76.391	-0.388	-0.546
-674.149	800.000	-0.036	-0.191
-673.135	-16.069	-0.360	-0.303
-672.120	4.133	-0.073	-0.071
-671.105	-200.000	-0.033	0.327
-670.091	201.887	-0.158	-0.324
-669.076	-200.000	-0.032	0.295
-668.062	-12.348	-0.175	-0.151
-667.047	-153.395	0.288	0.026
-666.032	-97.669	0.505	0.172
-665.018	-124.905	-0.216	-0.044
-664.003	81.084	-0.213	0.305
-662.989	-200.000	-0.005	0.138
-661.974	203.320	-0.071	-0.145
-660.959	32.062	-0.458	-0.523
-659.945	-200.000	0.005	-0.313
-658.930	-109.606	0.576	-0.160
-657.916	-43.771	0.404	0.268
-656.901	-79.815	0.403	-0.179
-655.886	-15.698	-0.105	0.088
-654.872	800.000	-0.033	-0.136
-653.857	28.063	0.136	0.151
-652.843	-20.007	0.485	-0.395
-651.828	-99.083	0.426	0.142
-650.814	554.502	0.036	-0.116
-649.799	-200.000	0.074	-0.668
-648.784	152.998	-0.270	0.489
-647.770	209.093	0.142	0.296
-646.755	-200.000	-0.001	-0.026
-645.741	25.500	0.280	0.308
-644.726	-25.583	-0.548	-0.427
-643.711	-151.151	0.356	-0.035
-642.697	480.259	-0.049	0.148
-641.682	-200.000	-0.052	-0.378
-640.668	135.485	0.137	0.235
-639.653	-200.000	0.012	-0.399
-638.638	-200.000	0.273	-0.002
-637.624	-200.000	-0.041	-0.416
-636.609	-107.651	-0.441	0.126
-635.595	-173.548	0.144	0.006
-634.580	-118.784	0.505	0.117
-633.565	-200.000	0.016	-0.097
-632.551	800.000	-0.071	-0.331
-631.536	119.528	-0.122	-0.201
-630.522	-139.200	-0.130	0.018
-629.507	57.722	-0.156	0.202
-628.492	-105.971	0.345	-0.102
-627.478	261.441	0.099	0.228
-626.463	147.965	-0.075	0.133
-625.449	69.576	0.263	-0.358
-624.434	-64.996	-0.725	0.386
-623.419	-117.751	-0.274	-0.065
-622.405	-104.971	-0.453	-0.136
-621.390	-163.847	-0.290	0.018
-620.376	-63.930	0.331	0.178
-619.361	74.342	0.055	0.076
-618.346	257.906	0.105	0.239
-617.332	179.993	-0.284	-0.552
-616.317	-50.645	0.138	-0.085
-615.303	-114.088	0.088	0.022
-614.288	188.659	0.190	-0.378
-613.273	-92.379	0.325	-0.120
-612.259	-125.942	0.130	0.026
-611.244	-200.000	-0.047	0.289
-610.230	800.000	-0.079	-0.414
-609.215	-66.732	0.149	0.078
-608.201	173.047	-0.069	-0.131
-607.186	553.569	-0.104	-0.332
-606.171	-200.000	-0.021	-0.356
-605.157	-155.473	-0.247	0.021
-604.142	-29.847	0.520	-0.391
-603.128	50.901	-0.403	-0.505
-602.113	-200.000	-0.014	-0.208
-601.098	-200.000	-0.055	-0.424
-600.084	333.129	-0.044	0.114
-599.069	-116.713	-0.484	0.116
-598.055	5.816	-0.295	0.288
-597.040	-113.375	-0.540	-0.139
-596.025	-109.001	-0.413	-0.115
-595.011	-137.166	-0.592	0.088
-593.996	244.462	0.213	-0.474
-592.982	-200.000	-0.066	-0.567
-591.967	-166.539	0.160	0.009
-590.952	-55.909	-0.210	-0.124
-589.938	-89.180	0.295	0.114
-588.923	204.028	0.135	0.277
-587.909	-38.452	0.328	-0.229
-586.894	-46.669	0.165	-0.106
-585.879	-164.097	-0.553	-0.033
-584.865	479.902	0.103	0.310
-583.850	319.622	-0.093	0.233
-582.836	-200.000	0.010	0.073
-581.821	121.815	0.251	-0.415
-580.806	800.000	-0.026	0.132
-579.792	444.958	-0.083	0.241
-578.777	-53.336	-0.261	-0.158
-577.763	-36.993	0.236	-0.166
-576.748	94.765	-0.110	-0.166
-575.733	-9.245	0.219	0.193
-574.719	-86.984	-0.260	0.104
-573.704	-122.558	0.187	0.040
-572.690	-56.506	-0.378	-0.221
-571.675	-6.923	0.185	-0.166
-570.661	-143.373	0.417	0.052
-569.646	-95.098	-0.071	-0.025
-568.631	-76.729	0.021	-0.010
-567.617	-87.653	-0.194	-0.077
-566.602	193.688	-0.150	0.300
-565.588	-89.720	0.178	0.068
-564.573	-90.627	0.198	0.075
-563.558	-165.821	0.127	-0.007
-562.544	-61.054	-0.323	-0.179
-561.529	-142.879	-0.246	-0.031
-560.515	-53.469	-0.276	0.166
-559.500	-67.309	-0.221	-0.114
-558.485	-63.189	0.239	-0.129
-557.471	449.300	0.234	-0.683
-556.456	466.760	-0.138	-0.410
-555.442	31.304	-0.245	-0.277
-554.427	251.073	0.393	0.884
-553.412	-200.000	-0.010	0.198
-552.398	800.000	-0.064	0.307
-551.383	-89.911	-0.556	0.213
-550.369	106.214	-0.044	0.069
-549.354	-43.565	0.211	0.140
-548.339	-200.000	0.061	0.413
-547.325	-101.186	-0.440	-0.141
-546.310	800.000	0.063	0.237
-545.296	116.412	-0.054	-0.088
-544.281	-87.926	0.209	0.082
-543.266	-89.201	-0.396	-0.153
-542.252	-200.000	-0.064	0.407
-541.237	-78.622	-0.277	0.124
-540.223	50.906	-0.194	0.242
-539.208	-40.026	-0.612	0.419
-538.193	-92.419	-0.289	0.106
-537.179	-200.000	-0.027	-0.198
-536.164	-83.157	-0.292	0.123
-535.150	-108.816	0.294	0.082
-534.135	-124.802	0.649	-0.131
-533.121	800.000	-0.076	-0.342
-532.106	-79.753	0.252	0.111
-531.091	-111.083	-0.134	0.036
-530.077	-63.661	-0.330	-0.178
-529.062	186.346	0.181	-0.355
-528.048	8.807	-0.257	-0.255
-527.033	208.497	-0.091	0.189
-526.018	341.950	0.014	0.036
-525.004	84.049	-0.146	-0.210
-523.989	-107.637	0.327	0.093
-522.975	147.910	0.050	0.089
-521.960	-138.920	-0.491	-0.069
-520.945	32.324	-0.074	0.084
-519.931	314.798	0.048	0.119
-518.916	800.000	0.102	0.483
-517.902	-161.718	0.351	-0.023
-516.887	-45.542	0.202	0.131
-515.872	-200.000	0.008	-0.510
-514.858	800.000	-0.076	-0.328
-513.843	800.000	-0.113	0.446
-512.829	204.504	-0.083	0.169
-511.814	56.032	0.282	-0.361
-510.799	-98.928	0.099	-0.033
-509.785	103.724	-0.153	0.236
-508.770	-67.169	-0.183	-0.095
-507.756	-9.307	0.169	-0.149
-506.741	800.000	0.051	-0.221
-505.726	305.220	0.037	0.091
-504.712	-124.503	0.254	-0.052
-503.697	-112.395	0.375	0.098
-502.683	-110.741	0.280	0.075
-501.668	-176.582	-0.164	0.005
-500.653	22.453	-0.019	0.020
-499.639	-21.767	0.148	0.118
-498.624	-10.884	0.240	0.208
-497.610	197.731	0.201	0.406
-496.595	-12.964	0.269	0.230
-495.581	-59.393	-0.226	-0.128
-494.566	800.000	0.086	0.420
-493.551	33.225	-0.203	0.232
-492.537	-200.000	-0.008	-0.425
-491.522	-76.551	0.272	-0.125
-490.508	162.433	-0.189	-0.349
-489.493	139.635	-0.095	-0.164
-488.478	4.921	0.161	-0.156
-487.464	446.704	-0.022	0.065
-486.449	-200.000	-0.113	-0.664
-485.435	-64.694	0.260	-0.138
-484.420	-138.076	0.017	0.002
-483.405	132.580	0.153	0.260
-482.391	-104.756	0.097	-0.029
-481.376	-200.000	0.037	-0.257
-480.362	44.681	0.353	-0.427
-479.347	26.992	-0.183	0.202
-478.332	-121.024	0.244	0.053
-477.318	-143.052	-0.388	-0.049
-476.303	800.000	-0.059	0.278
-475.289	-89.035	0.583	-0.225
-474.274	-150.361	0.224	-0.022
-473.259	-101.592	0.670	0.212
-472.245	-98.806	-0.456	0.151
-471.230	304.274	-0.055	0.133
-470.216	-17.510	-0.345	0.285
-469.201	-113.091	-0.427	0.110
-468.186	-200.000	-0.201	0.001
-467.172	-91.458	0.258	0.096
-466.157	-200.000	-0.009	0.127
-465.143	-200.000	0.002	-0.186
-464.128	42.891	0.282	0.338
-463.113	-64.254	0.350	-0.186
-462.099	165.556	0.092	0.172
-461.084	-136.824	0.668	-0.100
-460.070	-98.075	0.431	-0.145
-459.055	-79.744	0.398	0.175
-458.040	51.539	0.331	-0.413
-457.026	-121.581	-0.344	0.074
-456.011	216.210	-0.115	0.240
-454.997	483.288	0.101	0.304
-453.982	-200.000	0.033	0.383
-452.968	80.958	0.198	0.281
-451.953	-200.000	0.019	-0.254
-450.938	-200.000	-0.010	-0.396
-449.924	447.968	-0.141	-0.409
-448.909	-23.010	0.212	0.168
-447.895	-132.070	0.289	0.049
-446.880	117.719	-0.136	0.221
-445.865	3.102	-0.399	0.381
-444.851	-95.085	-0.560	0.197
-443.836	-70.345	0.109	-0.054
-442.822	315.200	-0.085	-0.212
-441.807	-123.488	-0.391	0.081
-440.792	7.918	0.328	0.323
-439.778	-72.040	0.100	0.049
-438.763	-200.000	-0.007	-0.089
-437.749	800.000	0.094	-0.417
-436.734	-133.107	0.294	-0.048
-435.719	-174.207	0.379	-0.014
-434.705	46.716	-0.312	0.380
-433.690	-200.000	-0.040	0.301
-432.676	37.864	0.235	0.274
-431.661	-82.698	-0.002	-0.001
-430.646	-86.784	-0.231	-0.092
-429.632	-149.223	0.347	-0.036
-428.617	-181.344	0.469	0.012
-427.603	-47.795	-0.134	-0.085
-426.588	15.373	0.318	0.327
-425.573	-127.354	0.447	-0.085
-424.559	-153.267	-0.115	-0.010
-423.544	-112.522	-0.084	0.022
-422.530	146.924	-0.106	-0.188
-421.515	-128.477	0.692	0.128
-420.500	-200.000	-0.017	-0.139
-419.486	45.897	-0.135	0.164
-418.471	800.000	-0.059	-0.258
-417.457	-55.305	-0.206	-0.121
-416.442	240.813	-0.111	0.243
-415.428	152.662	0.192	0.345
-414.413	-200.000	0.012	-0.138
-413.398	534.088	-0.172	-0.538
-412.384	800.000	-0.164	0.669
-411.369	352.207	0.104	-0.272
-410.355	32.725	0.031	0.035
-409.340	191.283	0.120	0.237
-408.325	-200.000	-0.007	-0.094
-407.311	-37.763	0.276	0.192
-406.296	800.000	0.134	0.539
-405.282	-18.305	-0.399	-0.327
-404.267	-146.014	-0.414	0.047
-403.252	-174.857	0.267	0.010
-402.238	34.623	-0.112	-0.128
-401.223	800.000	-0.081	0.385
-400.209	-133.331	0.281	0.046
-399.194	-149.005	-0.076	-0.008
-398.179	-91.372	0.238	0.088
-397.165	-127.915	0.340	0.064
-396.150	-35.027	-0.162	0.116
-395.136	-60.202	0.358	-0.199
-394.121	692.079	-0.052	-0.180
-393.106	-200.000	-0.040	-0.366
-392.092	-81.258	-0.066	0.028
-391.077	239.663	0.060	0.132
-390.063	387.111	-0.077	0.209
-389.048	-95.536	0.191	-0.067
-388.033	-51.644	0.162	0.099
-387.019	95.319	0.153	0.229
-386.004	-74.295	-0.234	0.110
-384.990	59.938	-0.322	-0.416
-383.975	-200.000	0.008	-0.159
-382.960	133.474	-0.219	0.372
-381.946	46.862	0.200	-0.243
-380.931	584.525	-0.094	0.305
-379.917	78.083	-0.134	0.187
-378.902	800.000	0.027	-0.111
-377.888	192.489	-0.109	0.216
-376.873	-181.772	-0.513	0.013
-375.858	800.000	0.135	0.530
-374.844	67.978	0.274	0.367
-373.829	-102.312	-0.307	0.096
-372.815	-101.219	0.135	0.043
-371.800	-89.973	0.377	-0.143
-370.785	-98.905	0.277	0.091
-369.771	-200.000	-0.002	-0.188
-368.756	-66.807	-0.191	0.098
-367.742	-200.000	-0.053	-0.433
-366.727	-146.885	-0.146	0.016
-365.712	13.019	0.148	-0.150
-364.698	-78.779	0.678	0.301
-363.683	-200.000	-0.069	0.567
-362.669	776.143	0.052	0.187
-361.654	219.832	-0.044	-0.092
-360.639	800.000	-0.041	-0.189
-359.625	322.711	0.158	-0.395
-358.610	306.805	0.262	-0.640
-357.596	0.862	0.412	-0.386
-356.581	800.000	0.060	-0.225
-355.566	800.000	0.067	0.323
-354.552	800.000	-0.094	0.441
-353.537	176.718	-0.197	0.376
-352.523	-140.476	0.286	0.039
-351.508	399.676	-0.129	-0.356
-350.493	176.658	-0.202	0.386
-349.479	-26.007	-0.077	-0.059
-348.464	-68.564	-0.304	-0.153
-347.450	-200.000	-0.012	0.105
-346.435	-128.998	0.082	-0.015
-345.420	-18.919	0.689	-0.560
-344.406	-200.000	-0.035	0.213
-343.391	-92.762	-0.100	-0.037
-342.377	-69.111	-0.091	0.045
-341.362	79.139	0.039	0.055
-340.348	282.453	-0.127	-0.299
-339.333	800.000	-0.127	-0.538
-338.318	-63.412	-0.405	0.217
-337.304	-142.714	-0.325	-0.041
-336.289	-34.974	-0.295	0.210
-335.275	176.029	0.166	0.316
-334.260	-42.263	0.679	-0.452
-333.245	320.693	0.176	-0.440
-332.231	280.806	0.082	0.191
-331.216	139.669	-0.177	-0.306
-330.202	-106.706	0.161	-0.046
-329.187	623.266	-0.017	0.055
-328.172	-155.359	0.252	-0.021
-327.158	-66.497	-0.255	-0.132
-326.143	-152.204	-0.317	0.030
-325.129	-145.809	-0.552	0.063
-324.114	119.453	0.184	-0.298
-323.099	-122.640	0.225	0.047
-322.085	800.000	0.161	0.753
-321.070	-85.211	0.285	0.116
-320.056	44.686	0.154	-0.185
-319.041	-92.331	0.239	0.088
-318.026	-70.477	0.252	0.124
-317.012	745.522	-0.111	-0.393
-315.997	-78.289	-0.131	0.059
-314.983	800.000	0.057	0.320
-313.968	-70.332	0.244	-0.121
-312.953	272.577	-0.069	-0.160
-311.939	800.000	0.054	0.221
-310.924	46.049	0.219	-0.265
-309.910	25.034	0.245	0.265
-308.895	-41.589	0.130	-0.087
-307.880	4.629	-0.217	0.208
-306.866	383.044	0.060	-0.161
-305.851	-200.000	-0.036	-0.413
-304.837	-173.574	-0.111	0.004
-303.822	233.751	0.136	-0.293
-302.807	793.562	-0.104	0.374
-301.793	800.000	0.051	0.210
-300.778	-28.669	0.354	-0.266
-299.764	145.831	0.220	-0.386
-298.749	11.490	0.184	0.184
-297.735	344.457	0.051	0.132
-296.720	-200.000	-0.008	0.253
-295.705	-81.602	-0.277	-0.118
-294.691	13.143	-0.431	0.435
-293.676	-93.382	-0.432	-0.156
-292.662	326.376	-0.080	-0.200
-291.647	2.051	0.242	0.228
-290.632	47.906	0.360	-0.439
-289.618	-78.478	-0.114	-0.051
-288.603	81.467	-0.570	0.805
-287.589	306.844	-0.253	0.616
-286.574	-0.431	0.236	-0.218
-285.559	531.215	0.156	-0.483
-284.545	-44.954	0.208	0.135
-283.530	126.695	0.141	-0.234
-282.516	-129.480	0.371	0.066
-281.501	-154.380	-0.183	-0.016
-280.486	130.337	-0.137	-0.229
-279.472	120.951	0.221	-0.360
-278.457	-7.744	-0.372	-0.327
-277.443	-75.002	0.281	-0.131
-276.428	800.000	0.115	0.439
-275.413	-17.410	-0.171	-0.141
-274.399	4.709	-0.192	0.184
-273.384	-178.173	0.165	-0.005
-272.370	153.747	0.013	0.023
-271.355	-121.992	0.407	-0.087
-270.340	33.429	-0.026	0.030
-269.326	201.459	-0.123	0.248
-268.311	360.464	-0.067	-0.176
-267.297	484.594	0.096	0.287
-266.282	-52.270	0.341	0.205
-265.267	-165.630	0.313	0.017
-264.253	-75.656	0.403	-0.186
-263.238	-200.000	-0.005	0.071
-262.224	107.875	0.256	-0.398
-261.209	-200.000	0.009	-0.321
-260.195	15.808	-0.270	-0.277
-259.180	771.892	-0.043	-0.153
-258.165	-200.000	0.008	-0.360
-257.151	37.618	-0.416	-0.481
-256.136	-90.017	-0.256	0.097
-255.122	800.000	0.021	-0.087
-254.107	252.777	-0.127	-0.284
-253.092	-153.139	-0.329	-0.030
-252.078	-36.093	0.179	-0.125
-251.063	-113.760	0.310	0.078
-250.049	-146.948	-0.293	0.032
-249.034	180.281	-0.133	-0.256
-248.019	423.168	-0.068	0.192
-247.005	800.000	-0.040	0.169
-245.990	123.998	-0.237	0.388
-244.976	-200.000	0.023	0.316
-243.961	715.445	0.099	-0.343
-242.946	65.276	-0.195	-0.257
-241.932	180.049	-0.034	0.066
-240.917	121.415	-0.281	-0.456
-239.903	468.571	-0.171	-0.502
-238.888	1.187	0.232	-0.216
-237.873	800.000	-0.060	0.323
-236.859	800.000	-0.064	0.326
-235.844	46.149	-0.157	-0.190
-234.830	28.534	-0.113	0.125
-233.815	127.471	0.213	0.354
-232.800	-167.767	-0.473	-0.024
-231.786	-87.013	-0.288	0.114
-230.771	14.524	-0.400	0.406
-229.757	63.605	0.340	0.445
-228.742	-3.853	0.178	0.160
-227.727	271.145	0.136	0.314
-226.713	-200.000	0.023	0.213
-225.698	-35.837	0.417	0.293
-224.684	800.000	0.027	-0.110
-223.669	15.653	-0.058	-0.060
-222.655	150.295	-0.126	0.223
-221.640	-94.970	-0.464	0.162
-220.625	66.112	-0.216	0.285
-219.611	-9.520	-0.218	-0.189
-218.596	-114.425	-0.263	0.065
-217.582	-93.909	0.178	-0.063
-216.567	-132.942	0.175	0.029
-215.552	92.747	-0.157	0.232
-214.538	215.476	0.110	0.229
-213.523	-104.348	-0.452	-0.135
-212.509	-200.000	-0.042	-0.463
-211.494	-200.000	0.509	-0.002
-210.479	233.574	0.098	-0.211
-209.465	800.000	-0.111	0.450
-208.450	-40.982	-0.128	0.086
-207.436	-51.046	-0.534	0.325
-206.421	-122.627	0.425	-0.089
-205.406	-112.248	0.548	-0.142
-204.392	724.083	-0.076	-0.265
-203.377	204.378	0.051	-0.102
-202.363	179.655	-0.249	0.476
-201.348	32.929	-0.198	0.224
-200.333	-89.300	-0.283	-0.108
-199.319	367.863	0.079	-0.207
-198.304	-191.238	-0.439	0.006
-197.290	-200.000	0.019	0.202
-196.275	-120.883	0.220	-0.048
-195.260	-160.555	0.332	0.023
-194.246	-104.236	-0.382	-0.115
-193.231	-56.939	-0.270	-0.154
-192.217	-33.515	-0.529	-0.379
-191.202	800.000	0.099	-0.395
-190.187	-200.000	-0.332	0.001
-189.173	-121.445	-0.278	-0.060
-188.158	-83.408	-0.152	0.063
-187.144	-66.128	-0.532	0.274
-186.129	371.876	-0.124	0.329
-185.114	193.441	0.199	-0.393
-184.100	-22.193	-0.415	0.327
-183.085	-123.410	0.188	0.039
-182.071	800.000	-0.109	0.615
-181.056	34.687	0.122	0.139
-180.042	-200.000	-0.031	0.361
-179.027	-18.254	0.176	-0.143
-178.012	-142.873	0.817	0.102
-176.998	-134.785	0.298	0.046
-175.983	-103.795	0.318	-0.096
-174.969	800.000	-0.053	-0.305
-173.954	204.095	-0.010	-0.021
-172.939	121.923	-0.170	0.277
-171.925	45.750	-0.297	0.357
-170.910	114.994	-0.157	-0.249
-169.896	-129.196	-0.467	-0.084
-168.881	684.173	-0.249	-0.850
-167.866	-192.281	-0.236	-0.003
-166.852	800.000	0.025	0.108
-165.837	-24.219	-0.438	0.339
-164.823	800.000	-0.050	-0.231
-163.808	-3.602	0.037	0.034
-162.793	-22.611	0.062	-0.048
-161.779	142.337	-0.111	0.191
-160.764	69.962	0.058	0.078
-159.750	-164.391	0.432	-0.025
-158.735	232.191	0.080	-0.170
-157.720	800.000	-0.103	-0.509
-156.706	192.031	0.099	-0.195
-155.691	21.487	0.342	0.361
-154.677	-58.829	0.019	0.011
-153.662	-52.004	0.241	0.145
-152.647	-33.969	-0.502	0.358
-151.633	-55.815	0.307	-0.178
-150.618	-200.000	0.068	0.765
-149.604	-42.967	0.314	0.207
-148.589	-163.521	0.339	-0.021
-147.574	-15.419	0.661	0.548
-146.560	-200.000	-0.043	-0.262
-145.545	-200.000	0.001	-0.284
-144.531	800.000	0.093	0.434
-143.516	-75.286	0.313	0.144
-142.502	-158.683	-0.211	0.015
-141.487	674.432	-0.125	0.422
-140.472	19.111	0.020	-0.021
-139.458	-33.946	-0.227	0.162
-138.443	72.402	-0.058	-0.078
-137.429	-200.000	0.005	0.031
-136.414	800.000	0.053	0.209
-135.399	-37.651	0.196	-0.135
-134.385	800.000	0.032	0.171
-133.370	-24.106	-0.223	-0.172
-132.356	-102.314	0.194	-0.060
-131.341	232.460	-0.106	0.226
-130.326	800.000	0.092	-0.357
-129.312	-42.470	0.281	0.186
-128.297	-57.963	0.587	-0.331
-127.283	190.458	-0.099	-0.194
-126.268	-92.903	0.348	0.125
-125.253	303.949	0.052	-0.125
-124.239	-162.126	-0.563	0.036
-123.224	-200.000	-0.038	-0.348
-122.210	153.401	0.150	0.267
-121.195	21.283	0.328	0.345
