DTS Sentinel unit serial number:	SN409020Multiplexer serial number:	ORYXHardware model number:	OX4-SRSoftware version number:	ORYX F/W v3.00 Oryx Data Collector v3.7.2.0data status	okinstallation	HaddamTimeLapsedifferential loss correction	single-endedforward channel	channel 3reverse channel	N/Adate	2011/06/21time	22:41:17forward acquisition time	30.00reverse acquisition time	0.00gamma	498.7831k internal	0.1755k external	0.1755temperature offset calibration	1.0074default loss term (dB/km)	0.3790temperature slope calibration	1.3530multiplexer offset coefficient	1.0000multiplexer slope coefficient	1.0000fibre end	0.00T internal ref (°C)	23.84T ext. ref 1 (°C)	18.67T ext. ref 2 (°C)	0.05length (m)	temperature (°C)	Stokes	anti-Stokes-747.200	181.817	-0.057	0.111
-746.185	4.901	-0.318	0.310
-745.171	-132.568	0.295	0.050
-744.156	-15.194	-0.225	0.191
-743.142	675.641	0.127	0.440
-742.127	-5.734	-0.570	0.517
-741.112	-200.000	0.020	-0.198
-740.098	-54.313	-0.222	0.133
-739.083	-66.152	-0.157	-0.082
-738.069	-200.000	0.018	0.308
-737.054	166.899	-0.194	0.366
-736.039	166.198	-0.102	-0.192
-735.025	-193.566	0.407	-0.005
-734.010	-200.000	0.004	0.223
-732.996	-129.698	0.153	0.028
-731.981	125.068	0.196	-0.327
-730.966	-125.049	-0.891	-0.180
-729.952	65.407	0.072	0.097
-728.937	55.857	-0.248	0.319
-727.923	381.374	-0.069	-0.190
-726.908	-34.499	-0.113	0.081
-725.894	-177.464	-0.237	0.008
-724.879	-103.731	0.175	0.054
-723.864	113.212	-0.092	0.148
-722.850	125.813	-0.222	0.372
-721.835	339.566	-0.128	0.332
-720.821	-200.000	0.100	-0.000
-719.806	-32.348	0.147	-0.108
-718.791	-200.000	-0.015	0.316
-717.777	-141.890	0.370	-0.048
-716.762	-37.881	0.298	-0.209
-715.748	-74.704	-0.580	-0.275
-714.733	-71.289	0.276	-0.137
-713.718	-28.571	0.499	-0.380
-712.704	-200.000	0.009	-0.275
-711.689	-200.000	0.069	-0.509
-710.675	-99.542	-0.112	0.037
-709.660	-33.407	-0.467	0.341
-708.645	-131.205	0.248	-0.043
-707.631	-160.000	0.397	0.028
-706.616	-81.034	0.392	-0.171
-705.602	334.741	0.199	-0.511
-704.587	286.832	0.097	0.232
-703.572	-200.000	-0.028	-0.262
-702.558	130.100	0.199	-0.338
-701.543	-200.000	0.000	0.435
-700.529	524.160	0.115	0.359
-699.514	-115.355	-0.624	-0.155
-698.499	-200.000	-0.030	-0.294
-697.485	31.095	0.042	0.048
-696.470	28.163	-0.247	-0.276
-695.456	-151.451	0.331	-0.032
-694.441	-200.000	0.069	-0.580
-693.426	-128.404	0.273	-0.051
-692.412	-100.564	0.441	-0.143
-691.397	-52.870	-0.100	0.061
-690.383	-125.876	0.336	0.066
-689.368	217.713	-0.163	-0.346
-688.354	335.235	-0.065	-0.168
-687.339	57.015	0.082	-0.105
-686.324	-200.000	-0.014	0.191
-685.310	-47.501	0.089	-0.057
-684.295	800.000	-0.060	-0.230
-683.281	56.306	-0.238	0.306
-682.266	115.322	0.080	-0.129
-681.251	-170.238	-0.524	0.024
-680.237	120.460	-0.147	0.241
-679.222	332.676	0.118	-0.302
-678.208	28.740	0.011	0.012
-677.193	-35.143	0.586	-0.421
-676.178	204.704	0.290	-0.596
-675.164	-79.472	0.411	0.183
-674.149	-25.119	-0.175	-0.137
-673.135	14.837	-0.199	-0.206
-672.120	-128.746	0.160	-0.030
-671.105	212.601	0.105	0.220
-670.091	265.352	0.033	-0.076
-669.076	-60.248	-0.382	-0.214
-668.062	-102.895	0.180	0.056
-667.047	-95.633	0.319	0.112
-666.032	56.597	-0.225	0.289
-665.018	-127.573	-0.163	0.031
-664.003	-131.817	-0.189	-0.032
-662.989	3.849	-0.129	0.124
-661.974	-200.000	-0.011	-0.136
-660.959	-1.949	-0.264	-0.245
-659.945	-151.050	0.368	0.036
-658.930	132.729	-0.099	0.169
-657.916	-145.501	-0.258	0.030
-656.901	800.000	-0.085	-0.332
-655.886	-48.288	-0.245	-0.156
-654.872	12.903	-0.322	-0.329
-653.857	183.481	0.265	-0.519
-652.843	-173.037	-0.383	-0.015
-651.828	546.871	0.197	-0.626
-650.814	-200.000	0.018	-0.589
-649.799	120.210	-0.130	-0.214
-648.784	-29.846	0.179	-0.134
-647.770	103.774	-0.318	-0.493
-646.755	-90.203	-0.199	0.076
-645.741	12.414	-0.012	-0.012
-644.726	-90.582	0.307	0.117
-643.711	800.000	-0.031	0.143
-642.697	-191.500	0.417	0.005
-641.682	800.000	-0.062	0.245
-640.668	-48.330	0.101	-0.064
-639.653	800.000	-0.085	-0.377
-638.638	-115.077	-0.474	-0.118
-637.624	-200.000	0.028	-0.330
-636.609	94.512	0.174	0.262
-635.595	288.130	0.123	0.295
-634.580	390.928	0.126	-0.346
-633.565	312.276	-0.151	-0.376
-632.551	56.514	0.184	-0.237
-631.536	-140.678	-0.019	0.003
-630.522	501.234	0.185	-0.566
-629.507	8.854	-0.169	-0.168
-628.492	101.896	0.232	-0.358
-627.478	-43.065	0.457	-0.305
-626.463	50.517	-0.121	0.152
-625.449	-99.769	-0.521	-0.171
-624.434	-108.545	-0.706	-0.199
-623.419	66.722	0.463	-0.623
-622.405	-200.000	-0.061	-0.374
-621.390	-5.300	0.110	-0.100
-620.376	-42.755	-0.295	-0.197
-619.361	219.823	-0.067	0.141
-618.346	-109.313	0.238	-0.066
-617.332	91.641	-0.264	-0.393
-616.317	-168.679	0.285	-0.014
-615.303	-171.632	-0.371	-0.016
-614.288	-124.565	-0.451	0.092
-613.273	-137.553	-0.275	0.040
-612.259	-200.000	-0.020	-0.288
-611.244	1.318	-0.200	-0.189
-610.230	12.018	0.221	-0.224
-609.215	-27.071	-0.195	0.149
-608.201	101.406	-0.261	-0.401
-607.186	-67.845	0.113	-0.058
-606.171	-200.000	0.010	0.167
-605.157	-200.000	-0.011	0.109
-604.142	-79.227	-0.301	-0.134
-603.128	800.000	-0.045	-0.197
-602.113	94.768	0.193	0.290
-601.098	-46.410	-0.171	-0.110
-600.084	21.537	0.263	0.282
-599.069	-200.000	-0.022	0.180
-598.055	13.535	0.302	-0.309
-597.040	-115.090	0.264	-0.066
-596.025	-182.423	-0.586	0.014
-595.011	-200.000	-0.004	-0.070
-593.996	222.423	-0.132	-0.281
-592.982	-27.136	0.091	0.070
-591.967	-74.910	-0.047	0.022
-590.952	-143.032	0.164	-0.021
-589.938	-71.089	-0.073	0.036
-588.923	-29.700	0.338	-0.254
-587.909	-152.999	-0.218	-0.020
-586.894	-189.089	0.177	0.003
-585.879	33.324	-0.436	0.498
-584.865	11.114	0.236	-0.237
-583.850	-121.061	-0.131	-0.029
-582.836	-200.000	-0.015	0.332
-581.821	-41.022	0.395	-0.268
-580.806	-69.847	0.360	-0.180
-579.792	28.843	-0.380	0.424
-578.777	-130.021	-0.120	-0.021
-577.763	-200.000	-0.017	0.147
-576.748	-85.363	0.183	-0.075
-575.733	-149.778	0.516	0.053
-574.719	16.345	0.211	-0.219
-573.704	800.000	0.040	-0.189
-572.690	-200.000	-0.062	0.599
-571.675	-23.826	-0.263	0.207
-570.661	-46.243	0.357	-0.231
-569.646	36.017	-0.244	0.282
-568.631	-134.912	-0.410	0.065
-567.617	42.846	-0.388	0.466
-566.602	-57.539	0.111	0.064
-565.588	142.697	-0.184	0.322
-564.573	-193.922	0.623	0.007
-563.558	-200.000	-0.012	0.090
-562.544	-46.460	0.276	0.177
-561.529	-13.128	0.524	-0.447
-560.515	-200.000	0.037	-0.429
-559.500	-47.777	0.089	0.056
-558.485	-117.867	-0.495	-0.116
-557.471	-86.123	0.118	0.048
-556.456	705.293	-0.032	0.113
-555.442	-125.052	0.234	-0.047
-554.427	-200.000	0.005	0.185
-553.412	119.071	0.121	0.198
-552.398	49.860	-0.256	-0.318
-551.383	-32.989	-0.397	-0.289
-550.369	-87.144	-0.175	-0.070
-549.354	-137.819	0.764	-0.111
-548.339	-54.826	-0.021	-0.013
-547.325	76.578	0.294	-0.411
-546.310	800.000	-0.033	0.165
-545.296	-127.647	-0.506	0.096
-544.281	9.209	-0.187	0.186
-543.266	-41.802	-0.179	0.120
-542.252	675.777	0.026	0.090
-541.237	-125.554	-0.120	0.024
-540.223	-149.635	0.351	0.036
-539.208	278.245	0.067	0.158
-538.193	153.616	-0.132	-0.238
-537.179	-60.345	0.155	-0.086
-536.164	-137.017	-0.311	-0.046
-535.150	-75.746	0.358	0.166
-534.135	20.526	0.209	0.222
-533.121	-131.960	0.281	-0.048
-532.106	-167.917	-0.362	-0.018
-531.091	800.000	-0.010	0.056
-530.077	-163.648	-0.166	-0.010
-529.062	-75.433	-0.158	0.073
-528.048	-91.452	-0.532	-0.199
-527.033	-8.816	0.221	-0.195
-526.018	197.566	0.143	0.288
-525.004	-126.440	-0.552	0.107
-523.989	-13.106	-0.196	0.167
-522.975	-19.305	0.216	-0.176
-521.960	414.628	0.080	-0.226
-520.945	210.635	-0.053	-0.109
-519.931	297.377	-0.120	-0.291
-518.916	-1.362	0.110	-0.102
-517.902	800.000	-0.091	-0.507
-516.887	301.157	0.021	0.051
-515.872	-119.983	-0.428	-0.096
-514.858	800.000	0.064	-0.308
-513.843	104.815	0.240	0.372
-512.829	-43.992	0.275	0.181
-511.814	-80.996	0.308	-0.133
-510.799	356.808	-0.249	-0.654
-509.785	-44.829	-0.377	0.246
-508.770	-70.698	-0.245	0.121
-507.756	-85.643	0.206	-0.083
-506.741	-200.000	0.009	-0.228
-505.726	-173.798	0.342	0.013
-504.712	-59.042	0.425	0.240
-503.697	609.224	0.080	0.264
-502.683	-200.000	0.023	0.197
-501.668	97.631	-0.135	-0.205
-500.653	237.962	0.102	-0.224
-499.639	-200.000	0.021	-0.341
-498.624	14.469	0.205	-0.210
-497.610	-200.000	0.025	0.218
-496.595	-200.000	0.032	-0.210
-495.581	-53.557	0.559	0.335
-494.566	241.417	0.094	-0.208
-493.551	800.000	0.062	-0.242
-492.537	536.627	0.264	0.827
-491.522	157.601	0.088	-0.160
-490.508	18.388	-0.114	0.119
-489.493	21.415	-0.328	0.350
-488.478	-85.804	0.070	0.028
-487.464	-88.918	-0.054	0.021
-486.449	-165.775	0.515	-0.029
-485.435	16.225	-0.370	-0.383
-484.420	-200.000	-0.003	-0.227
-483.405	-85.399	-0.428	0.174
-482.391	-97.855	0.329	-0.111
-481.376	-88.689	0.365	0.142
-480.362	-200.000	-0.029	0.281
-479.347	-170.006	0.327	-0.015
-478.332	541.743	-0.030	-0.094
-477.318	-38.724	-0.195	-0.134
-476.303	-62.140	0.243	-0.132
-475.289	-98.264	0.265	0.089
-474.274	-45.285	-0.575	-0.373
-473.259	65.933	-0.404	-0.537
-472.245	53.348	0.185	-0.232
-471.230	-49.431	-0.145	0.091
-470.216	-13.590	0.045	0.038
-469.201	-114.846	0.346	-0.086
-468.186	40.865	0.389	0.460
-467.172	-200.000	0.022	0.196
-466.157	-125.453	0.341	-0.068
-465.143	-200.000	0.041	0.379
-464.128	220.038	-0.081	0.170
-463.113	-200.000	-0.067	0.639
-462.099	-125.041	-0.300	-0.060
-461.084	-14.156	0.195	0.164
-460.070	-132.045	0.300	-0.051
-459.055	-43.231	-0.339	0.224
-458.040	65.524	-0.252	-0.334
-457.026	-200.000	0.067	-0.420
-456.011	-124.034	-0.153	0.031
-454.997	-157.425	-0.185	-0.014
-453.982	800.000	0.157	0.633
-452.968	800.000	-0.047	0.213
-451.953	34.874	0.231	0.265
-450.938	-34.361	0.164	0.117
-449.924	31.303	-0.115	0.129
-448.909	-82.154	0.517	0.220
-447.895	-83.434	0.133	-0.056
-446.880	269.395	-0.163	0.376
-445.865	128.078	0.140	-0.234
-444.851	617.605	0.061	-0.202
-443.836	115.144	0.127	-0.204
-442.822	-15.130	-0.174	0.146
-441.807	-41.236	-0.319	-0.215
-440.792	-33.368	0.277	0.200
-439.778	-51.457	-0.501	0.306
-438.763	447.842	0.124	0.358
-437.749	-200.000	-0.034	-0.257
-436.734	220.968	-0.035	0.074
-435.719	-200.000	-0.004	0.593
-434.705	-153.027	-0.291	0.026
-433.690	-134.312	0.150	-0.024
-432.676	-90.241	-0.572	-0.216
-431.661	800.000	-0.060	-0.278
-430.646	-27.543	-0.541	0.411
-429.632	-50.311	0.303	0.187
-428.617	-48.003	-0.151	0.095
-427.603	263.146	0.091	-0.209
-426.588	-200.000	-0.008	-0.093
-425.573	247.291	0.142	0.315
-424.559	-85.648	0.337	0.136
-423.544	-146.034	0.468	-0.054
-422.530	237.281	-0.309	0.672
-421.515	-98.100	0.407	0.136
-420.500	233.212	0.166	0.359
-419.486	280.501	0.130	0.305
-418.471	84.329	-0.457	0.655
-417.457	-40.410	0.391	0.265
-416.442	517.722	0.096	0.295
-415.428	-72.213	0.048	-0.023
-414.413	-173.695	0.093	0.004
-413.398	-200.000	-0.003	-0.173
-412.384	-86.824	0.539	-0.214
-411.369	800.000	0.034	0.181
-410.355	800.000	0.076	0.289
-409.340	-23.410	-0.309	0.243
-408.325	-164.914	0.373	-0.021
-407.311	-156.392	0.132	0.011
-406.296	-52.311	-0.242	0.146
-405.282	107.639	-0.342	-0.534
-404.267	-25.470	0.304	0.234
-403.252	-21.178	0.185	0.148
-402.238	-10.777	-0.445	0.384
-401.223	-28.101	-0.155	0.117
-400.209	800.000	0.011	0.051
-399.194	-10.008	-0.253	0.220
-398.179	-60.342	0.333	0.185
-397.165	358.430	-0.129	0.337
-396.150	-54.163	0.307	0.182
-395.136	-110.354	-0.440	-0.119
-394.121	573.776	0.170	0.544
-393.106	70.053	0.183	-0.247
-392.092	121.697	-0.155	0.253
-391.077	-200.000	-0.058	0.474
-390.063	228.264	0.070	-0.149
-389.048	43.363	0.090	-0.107
-388.033	193.082	-0.140	0.278
-387.019	800.000	-0.060	-0.248
-386.004	-27.967	0.133	0.100
-384.990	-99.661	-0.338	-0.110
-383.975	-148.826	0.346	0.036
-382.960	147.251	0.209	-0.369
-381.946	-46.664	0.229	0.146
-380.931	-92.809	0.120	0.043
-379.917	-111.688	-0.449	0.118
-378.902	-200.000	-0.033	-0.199
-377.888	-72.600	-0.174	0.083
-376.873	647.458	-0.061	0.206
-375.858	21.633	0.289	-0.307
-374.844	-50.711	-0.242	-0.148
-373.829	-34.821	-0.310	-0.221
-372.815	-56.095	-0.100	0.058
-371.800	609.894	0.069	-0.227
-370.785	800.000	-0.020	-0.103
-369.771	-85.504	-0.143	0.058
-368.756	-167.478	-0.339	0.017
-367.742	-27.602	0.239	-0.181
-366.727	-200.000	0.000	0.122
-365.712	-119.602	0.527	0.118
-364.698	653.062	0.042	-0.141
-363.683	235.793	-0.183	-0.397
-362.669	-117.962	-0.522	0.121
-361.654	-200.000	-0.040	-0.831
-360.639	-200.000	0.024	-0.332
-359.625	75.335	0.228	-0.314
-358.610	-156.506	0.047	0.004
-357.596	655.610	-0.109	0.366
-356.581	800.000	0.018	0.087
-355.566	-200.000	0.009	0.162
-354.552	800.000	0.023	-0.092
-353.537	-113.289	-0.526	-0.134
-352.523	493.826	-0.075	0.225
-351.508	359.722	0.052	-0.137
-350.493	50.568	-0.379	0.468
-349.479	-116.040	-0.393	0.095
-348.464	-105.359	0.434	0.128
-347.450	-179.513	-0.221	0.006
-346.435	-94.889	-0.484	-0.170
-345.420	55.879	-0.211	0.267
-344.406	-13.116	0.367	0.311
-343.391	-120.020	-0.282	0.063
-342.377	512.668	0.092	-0.282
-341.362	-200.000	0.052	-0.370
-340.348	37.354	-0.439	0.508
-339.333	-81.620	-0.475	0.203
-338.318	-200.000	-0.027	0.253
-337.304	299.664	-0.126	-0.304
-336.289	-200.000	0.014	0.276
-335.275	-25.713	-0.041	0.031
-334.260	-17.035	0.172	0.142
-333.245	148.453	-0.073	-0.129
-332.231	466.781	-0.030	0.088
-331.216	649.597	-0.130	0.437
-330.202	-138.521	-0.539	0.076
-329.187	-14.669	0.350	-0.293
-328.172	-200.000	0.009	0.434
-327.158	-53.544	-0.257	0.153
-326.143	-130.272	-0.489	0.086
-325.129	-142.949	0.184	-0.023
-324.114	3.925	0.193	-0.184
-323.099	430.199	-0.083	0.234
-322.085	800.000	0.069	0.268
-321.070	-200.000	0.025	-0.210
-320.056	800.000	-0.074	-0.298
-319.041	-14.970	-0.214	-0.178
-318.026	-35.141	-0.163	0.116
-317.012	-90.846	0.165	-0.062
-315.997	-121.816	0.318	-0.068
-314.983	145.991	-0.173	-0.302
-313.968	-67.708	0.311	0.158
-312.953	542.822	-0.086	-0.267
-311.939	-41.284	0.036	0.024
-310.924	-41.239	-0.066	0.044
-309.910	-200.000	-0.082	-0.558
-308.895	-135.821	0.320	0.049
-307.880	-85.726	0.226	-0.091
-306.866	-200.000	0.461	0.002
-305.851	-183.052	-0.226	-0.005
-304.837	-9.488	-0.051	0.044
-303.822	80.622	-0.066	-0.093
-302.807	135.499	-0.073	-0.124
-301.793	-180.500	0.674	-0.018
-300.778	-0.314	0.093	0.086
-299.764	-77.180	0.150	-0.068
-298.749	-93.119	0.270	-0.097
-297.735	-61.433	-0.377	0.206
-296.720	62.939	0.205	-0.268
-295.705	33.869	-0.064	0.073
-294.691	-200.000	0.008	-0.094
-293.676	800.000	0.135	0.506
-292.662	430.328	0.072	-0.205
-291.647	-64.521	0.106	0.056
-290.632	-200.000	-0.019	0.220
-289.618	-73.618	0.496	0.235
-288.603	-117.182	0.402	0.094
-287.589	-200.000	-0.001	-0.018
-286.574	-138.497	0.477	0.068
-285.559	-25.391	0.119	-0.091
-284.545	85.578	-0.239	-0.342
-283.530	28.612	-0.235	0.259
-282.516	-14.066	-0.180	0.151
-281.501	800.000	0.022	-0.088
-280.486	61.853	0.070	0.091
-279.472	131.416	0.279	-0.467
-278.457	800.000	-0.031	-0.172
-277.443	-20.343	-0.113	-0.090
-276.428	-101.336	-0.391	0.123
-275.413	-78.998	0.493	-0.217
-274.399	-124.146	0.629	0.127
-273.384	800.000	-0.130	0.497
-272.370	-46.320	0.091	0.058
-271.355	91.451	-0.232	-0.340
-270.340	83.939	-0.192	-0.274
-269.326	-28.897	0.277	-0.207
-268.311	-171.024	-0.237	0.010
-267.297	-24.800	-0.207	0.160
-266.282	-82.716	-0.175	-0.073
-265.267	24.435	-0.470	0.505
-264.253	-92.836	0.208	0.075
-263.238	-17.059	0.266	0.218
-262.224	-74.383	0.207	-0.097
-261.209	800.000	0.065	-0.236
-260.195	-100.390	0.734	0.235
-259.180	-117.582	0.492	0.115
-258.165	-125.656	-0.098	-0.019
-257.151	-119.346	-0.462	0.104
-256.136	76.195	-0.281	0.387
-255.122	269.572	0.047	-0.107
-254.107	-148.788	0.893	0.093
-253.092	-37.221	-0.268	-0.186
-252.078	-97.064	-0.264	-0.089
-251.063	-119.898	-0.313	0.069
-250.049	-17.664	0.030	-0.024
-249.034	41.928	-0.245	-0.289
-248.019	-98.470	-0.259	0.086
-247.005	-193.514	-0.419	0.005
-245.990	-6.117	-0.067	-0.059
-244.976	93.972	-0.135	-0.199
-243.961	-200.000	-0.079	0.506
-242.946	31.482	-0.213	-0.238
-241.932	0.243	-0.174	0.161
-240.917	-125.851	0.619	0.120
-239.903	-42.614	-0.113	-0.075
-238.888	407.007	0.094	0.259
-237.873	800.000	0.138	0.589
-236.859	-200.000	-0.033	0.506
-235.844	-200.000	0.007	-0.152
-234.830	-155.692	-0.395	-0.032
-233.815	7.198	0.368	-0.356
-232.800	-76.841	-0.155	-0.070
-231.786	179.854	0.217	-0.414
-230.771	-1.605	-0.297	0.271
-229.757	-44.670	0.295	-0.191
-228.742	-50.977	-0.281	0.171
-227.727	270.193	0.072	0.164
-226.713	-118.166	-0.197	-0.045
-225.698	70.508	0.272	0.365
-224.684	253.737	0.090	-0.200
-223.669	9.920	0.361	0.356
-222.655	-118.615	-0.261	-0.059
-221.640	-119.763	-0.329	0.073
-220.625	-19.973	0.130	0.104
-219.611	104.996	0.194	-0.297
-218.596	-47.326	0.617	-0.389
-217.582	-111.671	0.402	-0.105
-216.567	-83.733	0.279	-0.115
-215.552	229.781	-0.158	-0.337
-214.538	-59.376	0.273	0.152
-213.523	-200.000	-0.003	-0.097
-212.509	-124.393	0.414	0.083
-211.494	77.065	-0.175	-0.242
-210.479	-33.535	-0.130	0.093
-209.465	-200.000	-0.058	0.360
-208.450	63.644	-0.194	-0.253
-207.436	121.269	-0.183	-0.296
-206.421	-200.000	0.000	-0.029
-205.406	278.122	0.133	-0.308
-204.392	5.689	-0.214	0.205
-203.377	7.516	-0.363	0.352
-202.363	-165.196	-0.108	0.006
-201.348	-162.767	0.167	-0.010
-200.333	-189.088	-0.273	-0.004
-199.319	-23.227	-0.202	-0.157
-198.304	-75.223	0.552	-0.255
-197.290	-12.459	0.042	-0.036
-196.275	800.000	-0.105	0.405
-195.260	800.000	-0.033	-0.146
-194.246	-200.000	-0.024	-0.400
-193.231	-200.000	0.002	0.465
-192.217	102.548	0.385	0.585
-191.202	10.672	-0.183	0.181
-190.187	-200.000	0.212	-0.001
-189.173	72.202	0.189	0.256
-188.158	14.999	-0.346	-0.351
-187.144	251.242	0.240	-0.532
-186.129	-55.293	0.119	-0.069
-185.114	-163.354	-0.315	0.019
-184.100	119.372	-0.147	-0.237
-183.085	-149.801	-0.407	-0.041
-182.071	66.335	-0.265	0.349
-181.056	800.000	-0.043	-0.175
-180.042	50.047	0.190	-0.233
-179.027	47.640	-0.172	-0.208
-178.012	-76.990	-0.435	0.196
-176.998	-200.000	-0.003	-0.226
-175.983	68.884	-0.232	0.309
-174.969	-200.000	0.057	0.440
-173.954	-44.837	0.156	-0.100
-172.939	-142.631	-0.229	-0.029
-171.925	-81.648	-0.334	0.142
-170.910	-119.061	0.163	-0.037
-169.896	245.342	0.030	-0.066
-168.881	-62.619	0.228	-0.122
-167.866	-200.000	0.040	-0.671
-166.852	-76.194	-0.273	0.124
-165.837	-39.685	0.065	0.044
-164.823	-200.000	0.030	-0.386
-163.808	-69.113	-0.341	-0.169
-162.793	-134.420	0.221	0.035
-161.779	800.000	-0.128	-0.519
-160.764	148.546	-0.116	-0.203
-159.750	583.821	-0.016	-0.053
-158.735	-89.986	-0.327	-0.123
-157.720	324.850	-0.030	0.074
-156.706	91.675	0.288	0.421
-155.691	-60.263	0.057	0.031
-154.677	86.315	-0.202	-0.289
-153.662	54.837	0.131	0.164
-152.647	108.596	0.214	-0.332
-151.633	98.797	0.143	-0.214
-150.618	121.105	0.257	-0.415
-149.604	289.813	-0.066	0.156
-148.589	-22.856	0.237	0.185
-147.574	-106.502	0.428	0.123
-146.560	-36.349	0.312	-0.217
-145.545	-122.361	0.406	-0.085
-144.531	208.779	0.092	0.186
-143.516	-200.000	-0.009	0.253
-142.502	189.825	0.067	-0.130
-141.487	71.557	0.288	0.388
-140.472	464.513	0.101	0.294
-139.458	-38.017	-0.182	-0.125
-138.443	-72.635	0.358	-0.170
-137.429	-115.765	0.347	0.083
-136.414	61.972	0.096	0.123
-135.399	238.249	-0.201	-0.433
-134.385	800.000	-0.042	0.173
-133.370	-200.000	-0.083	-0.596
-132.356	-162.868	0.396	-0.025
-131.341	-137.268	-0.219	0.032
-130.326	106.681	-0.030	0.045
-129.312	623.032	-0.084	-0.276
-128.297	-200.000	-0.014	0.354
-127.283	-124.555	-0.265	-0.053
-126.268	-111.577	-0.204	0.053
-125.253	288.143	0.126	-0.296
-124.239	9.049	0.168	-0.164
-123.224	-200.000	0.042	0.370
-122.210	800.000	-0.025	-0.104
