DTS Sentinel unit serial number:	SN409020Multiplexer serial number:	ORYXHardware model number:	OX4-SRSoftware version number:	ORYX F/W v3.00 Oryx Data Collector v3.7.2.0data status	okinstallation	HaddamTimeLapsedifferential loss correction	single-endedforward channel	channel 3reverse channel	N/Adate	2011/06/21time	15:56:17forward acquisition time	30.00reverse acquisition time	0.00gamma	498.7831k internal	0.1800k external	0.1800temperature offset calibration	1.0074default loss term (dB/km)	0.3790temperature slope calibration	1.3530multiplexer offset coefficient	1.0000multiplexer slope coefficient	1.0000fibre end	0.00T internal ref (°C)	35.75T ext. ref 1 (°C)	26.90T ext. ref 2 (°C)	0.23length (m)	temperature (°C)	Stokes	anti-Stokes-747.200	-37.698	-0.143	0.098
-746.185	226.450	0.199	0.418
-745.171	800.000	-0.090	-0.350
-744.156	449.361	0.273	0.783
-743.142	600.685	-0.180	-0.580
-742.127	-200.000	0.017	0.211
-741.112	-200.000	0.039	-0.612
-740.098	-200.000	-0.016	0.188
-739.083	-125.231	-0.122	-0.024
-738.069	-159.676	0.386	0.027
-737.054	-181.434	0.667	-0.017
-736.039	-102.775	-0.411	0.126
-735.025	800.000	-0.189	-0.684
-734.010	800.000	-0.078	-0.372
-732.996	-105.479	-0.085	-0.025
-731.981	-22.126	-0.349	0.273
-730.966	189.419	0.186	-0.360
-729.952	272.075	0.233	0.534
-728.937	-200.000	0.001	0.248
-727.923	800.000	-0.084	0.308
-726.908	-138.245	-0.555	-0.078
-725.894	-2.617	-0.171	-0.155
-724.879	-94.119	0.049	0.017
-723.864	172.532	-0.109	0.203
-722.850	112.851	-0.224	-0.351
-721.835	280.283	-0.017	-0.040
-720.821	-102.334	-0.437	0.134
-719.806	-61.569	0.152	0.082
-718.791	-200.000	0.015	-0.397
-717.777	-200.000	0.070	-0.511
-716.762	-139.775	0.358	-0.048
-715.748	71.154	0.342	-0.459
-714.733	-193.219	-0.438	0.005
-713.718	-50.008	0.173	0.106
-712.704	-25.754	0.238	-0.181
-711.689	268.190	-0.203	-0.460
-710.675	-24.898	-0.259	0.198
-709.660	299.432	0.028	-0.066
-708.645	-81.076	-0.173	0.074
-707.631	138.555	-0.240	-0.408
-706.616	31.017	-0.223	0.247
-705.602	-157.617	-0.290	-0.022
-704.587	155.710	0.146	0.261
-703.572	231.263	-0.014	-0.030
-702.558	388.787	-0.155	-0.417
-701.543	-61.572	-0.118	-0.064
-700.529	-9.365	0.370	0.319
-699.514	-13.671	0.242	0.202
-698.499	-84.874	0.293	0.118
-697.485	754.937	0.152	0.532
-696.470	22.874	0.183	0.193
-695.456	-84.424	0.131	-0.053
-694.441	107.474	-0.191	0.293
-693.426	-74.693	-0.194	-0.089
-692.412	468.114	-0.120	-0.350
-691.397	-139.130	-0.398	-0.055
-690.383	107.944	-0.109	-0.168
-689.368	-99.410	0.456	-0.147
-688.354	107.105	0.342	-0.526
-687.339	128.059	0.172	-0.283
-686.324	-120.571	0.222	-0.048
-685.310	460.059	0.009	-0.026
-684.295	-115.090	-0.486	0.118
-683.281	-174.336	-0.203	0.007
-682.266	800.000	0.058	-0.231
-681.251	-72.533	-0.090	0.043
-680.237	800.000	0.030	0.134
-679.222	-62.038	-0.329	-0.177
-678.208	-43.615	-0.362	0.234
-677.193	-24.127	-0.181	-0.139
-676.178	502.672	0.174	-0.522
-675.164	-189.701	-0.458	0.007
-674.149	800.000	-0.063	0.241
-673.135	104.564	-0.035	-0.053
-672.120	406.701	-0.118	0.324
-671.105	-18.286	-0.125	-0.101
-670.091	71.408	-0.293	-0.392
-669.076	-145.787	-0.196	0.022
-668.062	-33.200	-0.177	-0.126
-667.047	-23.343	-0.223	0.172
-666.032	800.000	0.026	0.140
-665.018	124.296	0.364	0.590
-664.003	-81.119	-0.167	0.071
-662.989	542.552	0.068	-0.210
-661.974	-115.759	-0.419	-0.100
-660.959	4.615	0.241	0.227
-659.945	-200.000	-0.596	0.001
-658.930	-57.435	0.421	0.237
-657.916	800.000	0.075	0.379
-656.901	-162.598	-0.427	0.027
-655.886	28.287	0.083	-0.091
-654.872	-0.504	0.150	-0.137
-653.857	-155.533	0.341	-0.028
-652.843	-87.249	-0.473	0.184
-651.828	237.060	0.062	0.132
-650.814	77.944	0.254	-0.349
-649.799	-97.188	-0.497	0.166
-648.784	606.102	0.014	0.045
-647.770	176.428	0.190	-0.356
-646.755	-35.719	0.141	-0.098
-645.741	621.637	-0.076	-0.247
-644.726	-107.956	0.369	0.102
-643.711	-45.205	0.556	0.354
-642.697	-200.000	-0.011	0.301
-641.682	70.966	0.212	0.283
-640.668	-107.023	-0.870	-0.246
-639.653	13.269	-0.194	0.194
-638.638	157.808	-0.109	0.195
-637.624	-6.052	0.211	-0.186
-636.609	-73.464	0.439	0.205
-635.595	665.147	0.034	0.114
-634.580	-87.999	-0.408	0.157
-633.565	-130.329	0.157	0.027
-632.551	-10.290	-0.331	0.283
-631.536	-38.207	0.043	0.029
-630.522	-139.211	-0.205	-0.028
-629.507	170.733	0.227	0.420
-628.492	-111.359	-0.319	0.083
-627.478	-200.000	-0.028	-0.201
-626.463	-200.000	-0.030	0.227
-625.449	327.673	0.164	-0.407
-624.434	-11.991	-0.404	0.340
-623.419	-137.565	-0.489	0.070
-622.405	-71.652	0.076	0.036
-621.390	70.814	0.171	-0.228
-620.376	-91.161	0.059	0.022
-619.361	-172.870	-0.324	-0.013
-618.346	-200.000	0.009	0.078
-617.332	-81.102	-0.262	0.111
-616.317	400.308	0.039	0.106
-615.303	117.976	0.233	0.369
-614.288	21.828	0.258	-0.270
-613.273	-55.257	-0.132	0.076
-612.259	800.000	-0.118	-0.436
-611.244	3.154	0.332	0.310
-610.230	67.164	0.145	0.190
-609.215	189.590	-0.153	-0.296
-608.201	-200.000	0.015	-0.150
-607.186	-200.000	0.043	-0.532
-606.171	60.780	-0.278	-0.355
-605.157	337.280	0.281	0.706
-604.142	-132.517	0.207	-0.034
-603.128	-189.702	-0.142	-0.002
-602.113	-125.176	-0.373	-0.073
-601.098	210.295	0.045	-0.091
-600.084	-85.612	0.313	-0.124
-599.069	800.000	0.062	0.296
-598.055	205.454	-0.084	-0.168
-597.040	800.000	0.112	0.406
-596.025	784.772	0.113	-0.400
-595.011	-101.041	-0.419	-0.131
-593.996	800.000	-0.054	-0.230
-592.982	-98.800	-0.298	-0.097
-591.967	-27.102	-0.425	-0.318
-590.952	-167.939	-0.331	0.016
-589.938	-200.000	0.019	-0.233
-588.923	-112.273	0.386	-0.099
-587.909	102.250	-0.114	-0.171
-586.894	-116.535	0.140	-0.033
-585.879	417.827	0.233	0.643
-584.865	-137.495	0.191	-0.027
-583.850	2.826	-0.076	-0.071
-582.836	-200.000	0.026	-0.601
-581.821	144.952	0.189	0.325
-580.806	28.542	-0.169	0.183
-579.792	800.000	-0.047	-0.195
-578.777	-90.973	-0.427	0.157
-577.763	362.141	0.139	0.360
-576.748	-104.929	0.510	-0.149
-575.733	-140.437	0.099	-0.013
-574.719	233.813	0.149	-0.316
-573.704	-168.068	-0.315	0.016
-572.690	-153.124	-0.571	-0.051
-571.675	-47.851	-0.215	-0.133
-570.661	-172.060	0.470	-0.019
-569.646	137.976	-0.265	0.446
-568.631	383.941	-0.112	0.298
-567.617	-11.098	0.293	-0.248
-566.602	-124.789	0.678	0.133
-565.588	173.715	0.099	-0.185
-564.573	-48.514	-0.290	0.178
-563.558	-200.000	0.005	-0.280
-562.544	-200.000	0.016	0.100
-561.529	110.637	-0.139	-0.215
-560.515	800.000	-0.035	-0.187
-559.500	31.543	0.089	-0.098
-558.485	800.000	-0.053	0.195
-557.471	146.644	0.309	0.534
-556.456	-151.335	0.118	-0.011
-555.442	-200.000	0.006	0.194
-554.427	219.467	-0.086	-0.177
-553.412	-114.819	0.011	-0.003
-552.398	503.037	0.055	0.163
-551.383	6.842	-0.159	-0.152
-550.369	-166.891	-0.313	-0.016
-549.354	-97.798	0.240	0.079
-548.339	-70.244	-0.205	0.099
-547.325	-200.000	-0.044	0.297
-546.310	-109.074	-0.423	0.115
-545.296	331.924	-0.146	0.363
-544.281	648.116	0.089	-0.295
-543.266	-160.982	-0.134	0.009
-542.252	122.037	-0.116	0.187
-541.237	-39.389	-0.237	-0.159
-540.223	246.243	0.048	-0.105
-539.208	-123.857	0.746	0.150
-538.193	-4.588	0.427	0.377
-537.179	-200.000	0.073	0.414
-536.164	-152.832	-0.252	-0.023
-535.150	-104.279	-0.551	-0.163
-534.135	-128.095	0.019	-0.004
-533.121	-138.676	0.222	-0.031
-532.106	59.125	0.070	-0.088
-531.091	-41.379	-0.106	0.070
-530.077	-133.124	-0.189	0.030
-529.062	-194.945	0.562	-0.005
-528.048	178.252	-0.066	0.124
-527.033	-161.292	-0.655	-0.043
-526.018	-48.325	0.536	0.330
-525.004	-139.677	0.420	-0.057
-523.989	183.316	0.235	-0.446
-522.975	-85.784	-0.084	-0.033
-521.960	-200.000	-0.061	0.384
-520.945	-113.748	0.073	-0.018
-519.931	-30.271	-0.341	0.248
-518.916	46.796	0.146	0.174
-517.902	-170.208	-0.072	0.003
-516.887	-49.330	0.412	0.251
-515.872	45.018	0.132	-0.156
-514.858	-102.099	0.549	-0.168
-513.843	-99.176	0.680	-0.219
-512.829	-97.496	-0.488	-0.162
-511.814	16.971	-0.142	-0.144
-510.799	-39.906	0.585	0.390
-509.785	-68.638	0.345	0.170
-508.770	-178.213	-0.083	-0.002
-507.756	589.988	-0.063	-0.200
-506.741	-200.000	0.056	0.328
-505.726	91.930	0.161	-0.232
-504.712	163.419	-0.114	0.206
-503.697	-39.824	0.051	-0.034
-502.683	-9.688	0.171	0.145
-501.668	31.449	0.111	0.122
-500.653	-200.000	-0.017	0.146
-499.639	-74.138	0.228	0.105
-498.624	89.569	-0.167	-0.238
-497.610	149.872	-0.182	-0.316
-496.595	-122.608	0.173	-0.036
-495.581	-105.223	-0.318	0.092
-494.566	-79.655	-0.452	-0.194
-493.551	-9.596	-0.065	-0.056
-492.537	-155.316	0.349	-0.029
-491.522	-96.961	0.420	0.140
-490.508	-70.749	0.460	-0.221
-489.493	-200.000	-0.004	0.471
-488.478	585.430	0.027	-0.086
-487.464	-63.269	-0.467	-0.245
-486.449	800.000	-0.100	-0.390
-485.435	83.150	0.181	0.253
-484.420	800.000	-0.090	-0.404
-483.405	-87.092	-0.174	-0.067
-482.391	-23.309	-0.211	0.162
-481.376	-170.111	-0.212	-0.009
-480.362	-53.393	0.197	0.115
-479.347	-42.336	-0.134	0.087
-478.332	531.890	0.063	0.192
-477.318	-31.021	0.132	0.095
-476.303	65.955	0.285	-0.369
-475.289	-9.699	-0.110	-0.094
-474.274	-4.245	0.279	0.247
-473.259	222.301	-0.117	-0.242
-472.245	-22.796	0.363	0.280
-471.230	-129.888	-0.769	0.134
-470.216	-106.603	-0.341	-0.096
-469.201	-156.730	0.043	0.003
-468.186	-108.034	-0.197	0.054
-467.172	23.029	0.080	0.084
-466.157	-25.918	-0.662	-0.498
-465.143	-67.846	0.070	-0.035
-464.128	800.000	0.002	0.011
-463.113	-49.575	0.290	-0.176
-462.099	-146.406	0.143	-0.016
-461.084	3.942	-0.061	0.057
-460.070	-129.124	-0.398	0.070
-459.055	-46.959	-0.244	-0.152
-458.040	-21.341	0.077	0.060
-457.026	-200.000	-0.046	-0.443
-456.011	-200.000	-0.018	0.329
-454.997	18.195	0.277	0.283
-453.982	160.054	-0.135	-0.241
-452.968	139.988	-0.133	-0.225
-451.953	-200.000	0.014	0.225
-450.938	-165.157	-0.170	0.009
-449.924	204.130	-0.209	0.414
-448.909	247.556	-0.168	-0.363
-447.895	-71.056	-0.112	0.054
-446.880	505.244	0.092	0.273
-445.865	191.389	0.200	-0.386
-444.851	-92.315	-0.413	-0.148
-443.836	267.718	0.089	0.200
-442.822	59.938	-0.221	-0.279
-441.807	-86.867	-0.112	-0.044
-440.792	-45.600	-0.144	-0.091
-439.778	647.336	-0.051	0.169
-438.763	-115.268	0.076	-0.018
-437.749	800.000	0.109	-0.390
-436.734	-54.321	0.173	-0.100
-435.719	226.795	-0.068	-0.142
-434.705	22.151	-0.243	-0.254
-433.690	-0.365	-0.049	-0.044
-432.676	149.893	-0.166	0.288
-431.661	800.000	0.053	-0.201
-430.646	309.303	0.097	0.233
-429.632	-155.099	-0.207	-0.017
-428.617	-74.186	0.230	-0.106
-427.603	790.019	-0.110	0.389
-426.588	474.845	-0.218	0.631
-425.573	246.913	0.129	0.278
-424.559	-158.548	0.198	-0.014
-423.544	-198.619	0.451	0.003
-422.530	514.598	0.034	0.103
-421.515	-50.105	0.119	0.072
-420.500	-200.000	-0.035	-0.567
-419.486	-35.523	-0.248	-0.171
-418.471	-112.742	0.107	0.027
-417.457	183.645	-0.108	-0.204
-416.442	-55.269	-0.296	0.169
-415.428	-200.000	-0.007	0.337
-414.413	-122.887	-0.151	-0.031
-413.398	-134.098	-0.608	-0.095
-412.384	-115.366	0.372	-0.089
-411.369	55.669	0.375	-0.464
-410.355	136.691	0.342	-0.572
-409.340	-88.756	-0.576	0.217
-408.325	-94.129	-0.429	-0.149
-407.311	-102.045	-0.273	-0.083
-406.296	-16.781	-0.414	0.333
-405.282	-49.308	-0.574	-0.349
-404.267	-156.069	0.233	-0.019
-403.252	-173.241	0.210	-0.008
-402.238	-103.340	0.529	0.158
-401.223	-70.507	0.056	0.027
-400.209	34.364	-0.057	0.064
-399.194	-20.097	0.442	-0.347
-398.179	576.888	0.159	0.498
-397.165	613.519	-0.111	0.357
-396.150	15.801	-0.391	0.392
-395.136	-62.672	-0.316	-0.167
-394.121	800.000	-0.031	0.133
-393.106	-200.000	-0.046	0.389
-392.092	-11.726	0.160	-0.134
-391.077	800.000	0.152	-0.593
-390.063	-200.000	-0.000	0.427
-389.048	-48.962	0.156	0.095
-388.033	69.575	-0.127	-0.166
-387.019	-58.746	0.106	-0.058
-386.004	-35.250	-0.493	-0.342
-384.990	117.441	-0.354	0.556
-383.975	-200.000	0.003	0.080
-382.960	85.554	0.182	-0.255
-381.946	800.000	0.137	0.489
-380.931	3.648	0.167	0.156
-379.917	-59.515	-0.132	-0.072
-378.902	-200.000	-0.028	0.229
-377.888	-64.697	-0.205	0.105
-376.873	-76.072	0.382	-0.171
-375.858	51.239	0.133	-0.161
-374.844	-26.682	0.086	0.064
-373.829	-26.242	-0.306	-0.229
-372.815	61.883	-0.165	-0.209
-371.800	-78.809	0.478	0.207
-370.785	-24.999	0.427	0.322
-369.771	-141.224	0.297	0.038
-368.756	-200.000	-0.005	-0.085
-367.742	-58.899	0.392	-0.215
-366.727	13.637	0.219	0.217
-365.712	112.138	0.265	-0.408
-364.698	465.195	-0.139	0.397
-363.683	-127.960	-0.196	0.036
-362.669	-200.000	-0.093	-0.529
-361.654	-11.088	-0.249	0.209
-360.639	-200.000	-0.010	-0.325
-359.625	66.330	0.126	0.163
-358.610	-63.893	-0.066	-0.034
-357.596	-39.397	-0.482	0.321
-356.581	-114.749	0.352	-0.085
-355.566	46.646	0.163	0.193
-354.552	-200.000	-0.016	0.345
-353.537	148.919	-0.242	0.418
-352.523	266.495	-0.148	-0.330
-351.508	-157.631	-0.539	0.040
-350.493	87.093	0.080	-0.113
-349.479	-83.659	0.227	0.092
-348.464	-97.752	0.155	0.051
-347.450	800.000	-0.109	-0.515
-346.435	423.851	0.123	0.339
-345.420	99.443	-0.210	0.309
-344.406	-200.000	-0.026	0.455
-343.391	193.212	0.146	-0.282
-342.377	-200.000	0.002	-0.294
-341.362	152.984	0.067	-0.117
-340.348	-200.000	0.017	0.641
-339.333	19.768	0.229	0.235
-338.318	-133.920	-0.254	0.040
-337.304	-1.277	0.142	0.128
-336.289	262.036	-0.094	0.208
-335.275	-200.000	0.002	-0.327
-334.260	-64.801	-0.292	-0.150
-333.245	132.667	0.194	0.319
-332.231	-200.000	-0.028	0.172
-331.216	127.158	0.181	0.293
-330.202	-34.621	-0.266	0.185
-329.187	-46.726	0.020	-0.012
-328.172	11.475	0.131	-0.127
-327.158	-107.445	-0.490	-0.136
-326.143	-77.969	-0.072	-0.032
-325.129	-128.215	0.586	0.105
-324.114	5.526	-0.204	0.191
-323.099	-3.339	-0.196	0.174
-322.085	-10.096	0.199	0.168
-321.070	-200.000	-0.029	-0.759
-320.056	-17.682	0.338	0.270
-319.041	-99.678	-0.201	0.064
-318.026	-71.659	0.176	-0.083
-317.012	-108.373	0.273	0.074
-315.997	-90.525	0.252	-0.092
-314.983	219.800	-0.237	-0.483
-313.968	-123.804	-0.300	-0.060
-312.953	87.609	-0.207	0.292
-311.939	800.000	-0.092	-0.429
-310.924	-200.000	0.049	-0.373
-309.910	86.567	-0.293	-0.411
-308.895	-200.000	0.000	-0.321
-307.880	32.315	-0.081	0.088
-306.866	166.411	-0.122	-0.221
-305.851	221.061	0.185	-0.378
-304.837	297.694	-0.059	-0.137
-303.822	800.000	-0.047	0.202
-302.807	72.715	0.135	0.179
-301.793	-133.562	-0.273	-0.043
-300.778	22.380	-0.075	-0.078
-299.764	-86.353	-0.337	-0.131
-298.749	-59.033	-0.369	-0.202
-297.735	-200.000	0.003	0.215
-296.720	-61.181	0.789	0.421
-295.705	800.000	0.063	-0.264
-294.691	27.611	-0.130	-0.139
-293.676	-59.853	-0.095	-0.052
-292.662	32.147	0.346	-0.379
-291.647	800.000	0.032	0.137
-290.632	103.484	0.226	0.338
-289.618	-200.000	0.014	-0.256
-288.603	245.629	0.123	0.265
-287.589	230.702	0.047	0.099
-286.574	-200.000	0.011	-0.075
-285.559	183.042	-0.174	0.328
-284.545	-4.124	-0.122	-0.107
-283.530	36.356	-0.130	-0.145
-282.516	46.369	0.142	0.167
-281.501	3.628	-0.233	-0.216
-280.486	-0.504	-0.153	0.138
-279.472	246.514	-0.061	0.131
-278.457	192.994	0.061	-0.118
-277.443	7.057	0.202	-0.191
-276.428	-57.873	0.452	0.250
-275.413	-50.458	-0.151	0.090
-274.399	-200.000	0.001	0.030
-273.384	427.072	0.052	-0.144
-272.370	327.035	0.249	-0.607
-271.355	-18.204	0.311	0.246
-270.340	60.759	-0.082	0.104
-269.326	-154.951	0.172	0.014
-268.311	451.156	-0.198	0.558
-267.297	-33.135	0.069	-0.048
-266.282	-140.614	-0.196	0.025
-265.267	-87.819	0.608	0.231
-264.253	-52.430	-0.518	-0.303
-263.238	66.053	-0.248	0.320
-262.224	-142.324	-0.309	0.038
-261.209	800.000	0.032	0.139
-260.195	-66.140	-0.289	-0.146
-259.180	-200.000	0.031	-0.381
-258.165	170.957	-0.146	0.265
-257.151	-63.657	-0.471	-0.244
-256.136	213.132	-0.220	-0.443
-255.122	0.865	0.334	-0.304
-254.107	-200.000	0.006	0.561
-253.092	-27.947	0.157	0.115
-252.078	323.405	0.031	0.076
-251.063	135.465	-0.043	0.072
-250.049	624.633	-0.194	0.623
-249.034	162.429	-0.142	0.253
-248.019	60.393	-0.085	0.106
-247.005	-160.824	-0.371	-0.025
-245.990	40.105	0.174	0.198
-244.976	-200.000	-0.008	0.217
-243.961	-200.000	-0.041	0.241
-242.946	-74.744	-0.664	-0.301
-241.932	-142.944	0.490	-0.060
-240.917	65.675	-0.190	-0.244
-239.903	-154.120	-0.553	0.047
-238.888	489.791	0.132	-0.384
-237.873	-135.544	0.536	0.080
-236.859	-42.157	0.062	-0.040
-235.844	136.499	-0.052	-0.087
-234.830	126.584	0.150	0.241
-233.815	-118.392	-0.199	-0.044
-232.800	5.666	-0.252	0.236
-231.786	428.180	-0.104	-0.287
-230.771	122.027	-0.173	0.274
-229.757	-179.689	-0.309	-0.008
-228.742	-43.379	0.131	-0.084
-227.727	-39.821	0.135	0.089
-226.713	203.374	0.089	-0.175
-225.698	95.639	-0.243	-0.352
-224.684	-62.465	-0.242	-0.127
-223.669	-129.747	0.171	-0.030
-222.655	-14.947	0.380	0.308
-221.640	332.653	0.120	-0.296
-220.625	-200.000	-0.168	-0.000
-219.611	-16.140	0.062	-0.049
-218.596	800.000	0.061	-0.308
-217.582	-125.265	0.266	-0.051
-216.567	12.959	-0.167	0.163
-215.552	665.958	0.058	0.191
-214.538	-200.000	-0.039	0.376
-213.523	99.001	-0.226	-0.330
-212.509	-143.080	0.302	-0.037
-211.494	-200.000	0.013	-0.471
-210.479	-40.802	-0.211	0.138
-209.465	175.713	-0.080	-0.146
-208.450	545.267	0.122	0.370
-207.436	-81.551	-0.083	0.035
-206.421	-150.416	0.745	-0.072
-205.406	-27.191	0.249	0.183
-204.392	-26.201	0.968	-0.718
-203.377	800.000	0.182	-0.786
-202.363	-33.086	-0.066	-0.046
-201.348	800.000	-0.131	-0.508
-200.333	-200.000	0.013	0.347
-199.319	188.262	0.167	0.316
-198.304	-30.710	0.398	0.284
-197.290	24.710	0.254	-0.266
-196.275	81.506	-0.225	-0.309
-195.260	-200.000	0.028	0.385
-194.246	-72.289	-0.351	0.164
-193.231	-200.000	-0.050	0.303
-192.217	488.875	0.071	0.205
-191.202	-200.000	0.008	-0.211
-190.187	99.906	-0.243	0.356
-189.173	26.583	0.216	-0.229
-188.158	121.496	0.372	-0.588
-187.144	3.096	0.100	-0.092
-186.129	800.000	0.042	0.204
-185.114	65.373	-0.189	0.242
-184.100	-142.932	0.447	0.054
-183.085	-68.527	0.182	-0.089
-182.071	-200.000	0.006	0.245
-181.056	-70.210	0.392	0.188
-180.042	630.552	0.070	-0.226
-179.027	-137.214	-0.182	0.026
-178.012	52.113	0.067	-0.081
-176.998	509.984	0.226	0.669
-175.983	169.107	0.149	-0.269
-174.969	-144.866	-0.171	0.020
-173.954	-12.290	0.183	-0.151
-172.939	-75.771	0.277	0.124
-171.925	-200.000	-0.011	-0.110
-170.910	-150.150	-0.142	0.014
-169.896	-152.129	-0.442	-0.040
-168.881	-83.922	-0.401	-0.160
-167.866	-29.234	0.225	-0.162
-166.852	-194.741	0.195	-0.002
-165.837	-144.583	0.328	-0.038
-164.823	-11.053	0.143	-0.119
-163.808	4.432	0.105	-0.098
-162.793	-131.215	-0.424	0.070
-161.779	698.022	0.024	-0.079
-160.764	-124.846	0.548	-0.106
-159.750	37.068	0.434	-0.485
-158.735	-153.817	0.226	-0.019
-157.720	75.216	-0.337	-0.449
-156.706	800.000	0.129	-0.469
-155.691	305.511	-0.066	-0.156
-154.677	219.268	-0.136	-0.276
-153.662	-14.241	-0.329	-0.268
-152.647	432.528	0.076	-0.209
-151.633	787.143	-0.143	0.497
-150.618	-121.121	0.376	0.079
-149.604	149.342	-0.034	0.058
-148.589	-67.256	-0.277	0.137
-147.574	337.763	0.067	0.165
-146.560	-188.000	-0.099	0.002
-145.545	-81.924	0.226	0.093
-144.531	800.000	-0.098	0.539
-143.516	158.423	0.072	0.127
-142.502	-120.455	0.147	0.031
-141.487	-15.133	0.162	0.131
-140.472	-55.869	0.447	-0.251
-139.458	34.777	0.183	-0.202
-138.443	800.000	0.097	-0.518
-137.429	697.633	-0.081	-0.269
-136.414	-200.000	0.024	-0.146
-135.399	-105.176	0.209	-0.060
-134.385	-200.000	-0.006	0.359
-133.370	-200.000	-0.007	-0.137
-132.356	95.583	-0.043	-0.062
-131.341	-95.250	-0.449	0.152
-130.326	-153.923	-0.348	0.030
-129.312	-84.892	0.202	0.080
-128.297	800.000	0.057	-0.255
-127.283	333.569	-0.097	-0.239
-126.268	99.126	-0.069	0.100
-125.253	738.230	-0.062	0.210
-124.239	-200.000	-0.015	-0.106
-123.224	-200.000	0.010	-0.110
-122.210	-2.074	0.368	0.326
