DTS Sentinel unit serial number:	SN409020Multiplexer serial number:	ORYXHardware model number:	OX4-SRSoftware version number:	ORYX F/W v3.00 Oryx Data Collector v3.7.2.0data status	okinstallation	HaddamTimeLapsedifferential loss correction	single-endedforward channel	channel 3reverse channel	N/Adate	2011/06/22time	03:11:17forward acquisition time	30.00reverse acquisition time	0.00gamma	498.7831k internal	0.1750k external	0.1750temperature offset calibration	1.0074default loss term (dB/km)	0.3790temperature slope calibration	1.3530multiplexer offset coefficient	1.0000multiplexer slope coefficient	1.0000fibre end	0.00T internal ref (°C)	22.31T ext. ref 1 (°C)	17.59T ext. ref 2 (°C)	0.05length (m)	temperature (°C)	Stokes	anti-Stokes-747.200	-132.718	-0.341	-0.057
-746.185	-200.000	-0.101	0.685
-745.171	269.414	0.225	0.526
-744.156	234.663	0.225	0.494
-743.142	-126.340	-0.083	-0.016
-742.127	-200.000	-0.051	-0.334
-741.112	-61.765	0.223	-0.124
-740.098	-87.473	-0.388	0.155
-739.083	-200.000	-0.043	0.493
-738.069	-200.000	0.125	0.834
-737.054	32.784	0.209	-0.241
-736.039	-120.638	-0.369	-0.082
-735.025	345.570	-0.063	-0.165
-734.010	-200.000	0.011	0.493
-732.996	127.279	-0.090	0.152
-731.981	-110.325	0.376	-0.103
-730.966	-200.000	0.013	-0.579
-729.952	75.028	0.115	-0.161
-728.937	-117.319	-0.432	0.103
-727.923	-99.369	0.384	0.128
-726.908	-150.693	-0.139	0.014
-725.894	4.363	-0.301	-0.293
-724.879	8.587	-0.134	-0.133
-723.864	64.760	-0.322	-0.432
-722.850	-59.992	0.278	-0.157
-721.835	44.747	0.331	0.405
-720.821	-52.972	-0.240	0.146
-719.806	97.087	0.245	-0.373
-718.791	41.632	-0.256	0.308
-717.777	-200.000	-0.003	-0.374
-716.762	-116.497	0.194	-0.047
-715.748	385.375	-0.098	0.269
-714.733	-34.786	0.271	0.196
-713.718	-69.672	-0.638	-0.322
-712.704	682.265	-0.041	0.142
-711.689	3.241	-0.160	-0.155
-710.675	389.538	0.152	0.419
-709.660	-200.000	-0.018	0.667
-708.645	285.168	-0.109	-0.261
-707.631	129.331	-0.256	-0.435
-706.616	-127.122	0.249	-0.048
-705.602	-86.987	0.615	-0.248
-704.587	-28.360	0.363	0.277
-703.572	19.545	0.428	-0.457
-702.558	-89.376	-0.352	-0.137
-701.543	-147.293	0.604	0.067
-700.529	-180.608	-0.274	-0.007
-699.514	-116.923	-0.394	-0.095
-698.499	-200.000	-0.422	-0.002
-697.485	5.949	0.151	0.148
-696.470	-9.700	-0.266	-0.235
-695.456	-65.867	-0.536	0.283
-694.441	523.115	-0.115	-0.361
-693.426	-11.737	-0.304	0.264
-692.412	661.711	-0.130	0.448
-691.397	-200.000	0.025	0.313
-690.383	45.291	-0.053	0.064
-689.368	-20.982	-0.160	0.129
-688.354	-199.007	0.177	0.001
-687.339	296.573	-0.110	-0.270
-686.324	-98.174	-0.216	-0.073
-685.310	-38.461	-0.493	-0.345
-684.295	800.000	0.033	-0.152
-683.281	85.531	-0.184	0.268
-682.266	-90.416	-0.357	0.137
-681.251	800.000	-0.058	-0.269
-680.237	-73.025	-0.219	0.106
-679.222	-38.524	-0.381	0.266
-678.208	-200.000	0.017	-0.199
-677.193	168.527	0.262	-0.496
-676.178	-58.586	-0.270	0.155
-675.164	-151.476	0.147	-0.014
-674.149	592.129	-0.144	-0.475
-673.135	-6.444	-0.627	0.566
-672.120	111.494	0.071	-0.114
-671.105	214.705	0.090	-0.190
-670.091	-61.553	-0.336	0.186
-669.076	-27.453	-0.247	-0.190
-668.062	-145.358	0.713	-0.084
-667.047	461.088	-0.089	0.264
-666.032	321.285	0.129	-0.326
-665.018	-70.903	-0.375	0.186
-664.003	-46.261	0.296	-0.192
-662.989	-117.870	-0.187	-0.044
-661.974	-13.707	0.453	0.388
-660.959	-125.763	0.192	0.038
-659.945	-35.534	-0.140	-0.100
-658.930	-122.815	-0.461	-0.098
-657.916	-188.058	0.370	-0.006
-656.901	-138.513	-0.341	0.049
-655.886	800.000	-0.151	0.601
-654.872	-31.512	-0.458	-0.340
-653.857	-200.000	0.044	-0.313
-652.843	-200.000	-0.015	-0.204
-651.828	5.769	0.234	0.229
-650.814	778.678	0.065	-0.238
-649.799	92.400	0.189	0.282
-648.784	207.899	0.134	-0.277
-647.770	-5.381	0.297	-0.270
-646.755	-149.749	-0.232	-0.024
-645.741	-47.048	-0.317	-0.204
-644.726	-200.000	0.017	-0.257
-643.711	-90.460	-0.261	-0.099
-642.697	-56.942	0.362	-0.211
-641.682	-68.535	-0.290	-0.148
-640.668	773.028	0.066	-0.238
-639.653	-200.000	0.043	0.356
-638.638	159.917	0.114	0.211
-637.624	0.391	0.237	0.224
-636.609	-97.630	-0.290	0.099
-635.595	-185.374	0.492	0.010
-634.580	-104.613	-0.323	-0.098
-633.565	272.127	-0.218	0.512
-632.551	-156.305	0.530	0.043
-631.536	701.836	0.107	-0.373
-630.522	163.788	-0.374	-0.698
-629.507	-65.739	-0.192	-0.101
-628.492	84.044	0.253	0.365
-627.478	-173.936	0.136	0.005
-626.463	-43.066	-0.102	0.068
-625.449	16.033	-0.345	0.360
-624.434	-140.403	-0.516	-0.070
-623.419	8.000	0.124	-0.123
-622.405	-198.805	0.341	-0.002
-621.390	-63.597	0.170	-0.092
-620.376	10.668	0.154	-0.156
-619.361	-41.864	0.131	0.089
-618.346	-200.000	-0.032	0.196
-617.332	135.795	0.068	-0.117
-616.317	534.070	-0.064	-0.202
-615.303	-90.979	-0.188	0.071
-614.288	36.969	-0.181	-0.212
-613.273	157.929	-0.168	-0.308
-612.259	800.000	0.052	-0.289
-611.244	-103.142	0.198	-0.062
-610.230	800.000	-0.052	0.235
-609.215	-200.000	0.028	-0.389
-608.201	-43.609	-0.062	0.041
-607.186	-91.469	0.249	0.093
-606.171	-43.691	0.528	0.351
-605.157	-130.376	0.337	0.060
-604.142	57.480	0.383	0.495
-603.128	-120.581	0.192	0.043
-602.113	53.309	-0.057	0.072
-601.098	185.264	-0.235	0.462
-600.084	10.892	0.163	-0.164
-599.069	-97.419	0.031	0.011
-598.055	-148.851	0.104	-0.011
-597.040	-51.676	0.208	0.128
-596.025	518.406	-0.049	-0.151
-595.011	-29.860	0.175	-0.132
-593.996	76.742	-0.137	-0.192
-592.982	-200.000	0.016	0.129
-591.967	-38.663	0.165	0.115
-590.952	-170.701	-0.292	0.013
-589.938	-29.020	-0.115	0.087
-588.923	462.941	0.157	-0.465
-587.909	200.182	-0.095	-0.194
-586.894	-24.409	-0.185	0.145
-585.879	800.000	-0.025	-0.125
-584.865	81.851	-0.277	-0.396
-583.850	184.981	0.059	-0.115
-582.836	-77.405	0.456	0.208
-581.821	-26.001	-0.365	-0.283
-580.806	49.474	-0.407	-0.506
-579.792	312.009	0.147	-0.365
-578.777	-123.119	-0.479	-0.101
-577.763	-145.843	0.506	0.059
-576.748	84.202	-0.205	0.296
-575.733	21.685	-0.270	0.290
-574.719	161.408	-0.123	-0.227
-573.704	-137.835	0.247	0.036
-572.690	800.000	-0.064	-0.259
-571.675	-200.000	-0.015	-0.177
-570.661	7.202	-0.432	-0.425
-569.646	-41.206	-0.115	0.078
-568.631	-54.878	0.040	0.024
-567.617	2.627	-0.384	-0.367
-566.602	530.038	-0.086	-0.270
-565.588	12.221	-0.195	0.198
-564.573	176.133	-0.132	0.253
-563.558	221.087	-0.119	0.253
-562.544	-141.643	0.364	-0.048
-561.529	-173.126	0.286	0.011
-560.515	-125.365	-0.161	0.032
-559.500	-145.023	-0.325	0.039
-558.485	248.483	-0.244	-0.546
-557.471	-200.000	0.005	0.106
-556.456	-66.216	0.166	-0.087
-555.442	-52.585	-0.479	-0.291
-554.427	259.547	-0.218	-0.499
-553.412	-200.000	0.004	-0.142
-552.398	-110.973	0.081	0.022
-551.383	800.000	-0.108	-0.491
-550.369	-80.288	0.337	-0.148
-549.354	32.405	0.185	-0.211
-548.339	10.609	0.088	-0.089
-547.325	-200.000	-0.006	0.119
-546.310	393.021	-0.028	-0.078
-545.296	-200.000	-0.040	0.542
-544.281	-25.202	-0.133	-0.104
-543.266	-157.320	-0.415	-0.033
-542.252	-200.000	-0.046	-0.468
-541.237	-117.596	-0.266	0.063
-540.223	31.229	-0.123	-0.139
-539.208	800.000	-0.022	-0.128
-538.193	-200.000	0.013	0.146
-537.179	-120.232	0.217	0.048
-536.164	-103.996	0.243	0.074
-535.150	278.658	0.089	0.210
-534.135	-140.770	-0.292	-0.039
-533.121	-200.000	0.023	0.151
-532.106	42.940	0.101	-0.121
-531.091	366.123	-0.249	-0.664
-530.077	-153.991	0.293	-0.026
-529.062	-130.940	0.022	0.004
-528.048	660.172	-0.083	0.282
-527.033	-90.149	0.362	0.138
-526.018	110.189	-0.079	-0.125
-525.004	-126.070	-0.444	0.087
-523.989	-81.230	0.563	-0.244
-522.975	42.822	0.098	-0.118
-521.960	-200.000	-0.044	-0.352
-520.945	-130.656	0.192	-0.034
-519.931	-94.558	-0.405	-0.145
-518.916	138.585	0.327	-0.567
-517.902	-55.194	-0.147	-0.087
-516.887	209.203	-0.108	0.224
-515.872	166.209	-0.156	-0.292
-514.858	-200.000	0.029	0.331
-513.843	-104.937	0.070	-0.021
-512.829	-1.003	0.011	-0.010
-511.814	215.310	-0.054	0.112
-510.799	-103.759	-0.738	0.226
-509.785	-200.000	0.001	-0.036
-508.770	671.766	-0.090	0.310
-507.756	-200.000	0.013	0.155
-506.741	-70.647	-0.228	0.113
-505.726	-155.339	-0.276	-0.023
-504.712	-28.769	-0.371	0.281
-503.697	-119.360	-0.209	0.047
-502.683	309.887	-0.059	-0.147
-501.668	39.148	0.203	0.239
-500.653	62.717	-0.114	-0.150
-499.639	-200.000	0.014	0.101
-498.624	-13.960	-0.169	-0.144
-497.610	-128.984	-0.437	-0.080
-496.595	141.084	-0.141	-0.246
-495.581	-130.712	-0.380	-0.067
-494.566	16.578	0.237	0.246
-493.551	-31.535	-0.186	-0.138
-492.537	-46.569	-0.198	0.128
-491.522	-135.886	0.413	0.063
-490.508	175.243	-0.154	0.294
-489.493	63.244	0.409	0.540
-488.478	34.566	0.291	-0.335
-487.464	8.142	0.286	0.282
-486.449	123.899	0.300	0.497
-485.435	553.832	0.098	0.311
-484.420	7.791	-0.202	0.199
-483.405	-102.222	-0.159	0.050
-482.391	800.000	-0.054	-0.207
-481.376	-159.288	-0.171	0.012
-480.362	-34.541	0.265	0.190
-479.347	-112.853	-0.167	-0.043
-478.332	74.994	0.036	0.050
-477.318	55.519	-0.062	0.079
-476.303	-71.044	0.273	-0.135
-475.289	800.000	-0.123	0.536
-474.274	800.000	0.134	-0.512
-473.259	-68.548	-0.315	0.160
-472.245	37.215	0.248	-0.289
-471.230	-108.178	-0.655	0.185
-470.216	-200.000	0.031	-0.219
-469.201	281.337	0.297	-0.703
-468.186	-149.014	0.224	0.023
-467.172	-34.873	-0.100	0.072
-466.157	155.774	0.101	0.184
-465.143	-200.000	-0.012	0.131
-464.128	-200.000	0.014	0.206
-463.113	138.440	-0.166	-0.286
-462.099	40.782	0.204	0.242
-461.084	125.979	0.149	-0.249
-460.070	482.723	0.097	-0.291
-459.055	-123.833	-0.107	0.022
-458.040	-59.659	0.301	-0.169
-457.026	47.453	0.231	0.284
-456.011	-32.191	0.259	0.190
-454.997	-93.502	-0.285	-0.103
-453.982	3.288	-0.349	-0.334
-452.968	800.000	0.100	-0.526
-451.953	186.504	-0.102	-0.201
-450.938	-106.164	-0.087	0.026
-449.924	59.480	-0.017	0.022
-448.909	207.372	-0.236	-0.485
-447.895	634.266	0.073	-0.245
-446.880	748.116	-0.030	-0.109
-445.865	129.126	0.189	-0.317
-444.851	110.193	-0.225	0.356
-443.836	-58.564	0.394	-0.223
-442.822	158.830	0.128	-0.235
-441.807	280.571	0.169	-0.399
-440.792	22.955	0.332	0.357
-439.778	-44.540	0.343	-0.224
-438.763	-66.519	0.331	-0.172
-437.749	-66.099	-0.014	0.007
-436.734	-59.063	0.181	-0.102
-435.719	-17.695	0.101	0.083
-434.705	-200.000	-0.015	-0.259
-433.690	-40.500	-0.141	0.096
-432.676	382.896	-0.074	0.200
-431.661	-8.986	0.477	0.418
-430.646	135.244	-0.102	0.174
-429.632	-42.088	-0.225	0.151
-428.617	-76.694	0.248	0.114
-427.603	18.695	0.224	0.235
-426.588	-200.000	-0.015	0.099
-425.573	-117.443	0.619	-0.146
-424.559	-40.278	0.323	-0.220
-423.544	41.128	-0.128	-0.152
-422.530	-3.578	0.183	0.167
-421.515	-39.143	-0.417	-0.287
-420.500	800.000	-0.101	0.557
-419.486	-105.703	-0.229	0.067
-418.471	293.609	0.089	-0.215
-417.457	2.284	-0.448	0.425
-416.442	-200.000	-0.031	0.271
-415.428	333.813	-0.109	0.277
-414.413	308.964	-0.099	-0.243
-413.398	-81.525	0.339	-0.145
-412.384	-39.911	0.295	0.201
-411.369	-147.013	-0.328	0.036
-410.355	140.640	0.139	0.241
-409.340	-67.931	0.372	0.190
-408.325	-200.000	0.006	0.222
-407.311	70.611	-0.091	-0.123
-406.296	-43.306	-0.229	-0.151
-405.282	-164.427	-0.446	-0.026
-404.267	123.943	0.130	-0.214
-403.252	122.675	0.076	0.125
-402.238	-200.000	0.001	0.574
-401.223	-35.626	-0.170	-0.120
-400.209	-123.713	-0.553	-0.114
-399.194	285.107	-0.143	0.339
-398.179	-200.000	0.000	0.122
-397.165	800.000	0.038	0.206
-396.150	313.238	0.150	0.370
-395.136	379.183	0.180	0.485
-394.121	-200.000	-0.017	-0.229
-393.106	800.000	-0.053	-0.266
-392.092	264.501	-0.084	0.192
-391.077	-147.399	0.208	0.023
-390.063	-103.969	0.102	0.031
-389.048	-159.984	0.256	-0.018
-388.033	-113.818	-0.349	0.088
-387.019	-150.279	-0.764	-0.076
-386.004	-147.240	0.229	0.025
-384.990	-0.484	-0.490	0.455
-383.975	-8.735	0.338	0.297
-382.960	-164.662	-0.262	-0.015
-381.946	-98.875	-0.288	-0.095
-380.931	-88.579	-0.054	0.021
-379.917	-200.000	-0.044	-0.277
-378.902	800.000	-0.027	-0.119
-377.888	25.047	0.134	0.146
-376.873	75.159	0.154	-0.212
-375.858	182.791	-0.091	-0.176
-374.844	-126.959	-0.178	-0.034
-373.829	84.369	0.386	-0.553
-372.815	27.025	0.132	0.145
-371.800	-132.016	0.403	-0.068
-370.785	29.548	-0.157	0.175
-369.771	34.247	-0.183	0.209
-368.756	800.000	0.056	-0.233
-367.742	800.000	0.085	0.386
-366.727	-200.000	0.002	0.358
-365.712	800.000	0.039	0.188
-364.698	-95.266	-0.389	-0.136
-363.683	-200.000	0.081	-0.624
-362.669	-147.804	-0.032	-0.003
-361.654	25.556	-0.189	-0.206
-360.639	-45.431	-0.073	0.047
-359.625	-200.000	0.045	0.388
-358.610	69.866	0.063	-0.085
-357.596	21.631	-0.241	0.257
-356.581	-94.872	0.487	-0.172
-355.566	65.149	0.450	-0.595
-354.552	800.000	0.051	0.211
-353.537	-47.751	0.292	0.185
-352.523	-83.667	-0.037	0.015
-351.508	5.915	0.105	0.102
-350.493	-200.000	-0.061	-0.393
-349.479	151.892	0.031	0.056
-348.464	-200.000	-0.029	0.232
-347.450	-57.257	-0.128	-0.074
-346.435	800.000	0.041	0.179
-345.420	-130.428	0.365	0.064
-344.406	-61.060	-0.102	0.056
-343.391	340.945	-0.154	0.394
-342.377	59.922	0.293	0.379
-341.362	800.000	-0.050	-0.247
-340.348	354.991	0.059	0.154
-339.333	-200.000	-0.019	-0.136
-338.318	-95.851	-0.262	-0.091
-337.304	504.800	0.131	0.398
-336.289	-113.810	0.474	0.120
-335.275	-24.214	-0.324	0.253
-334.260	56.276	0.119	-0.152
-333.245	0.996	0.301	0.282
-332.231	167.334	-0.169	0.315
-331.216	-22.299	0.537	0.425
-330.202	514.047	-0.171	0.524
-329.187	-40.235	0.049	0.034
-328.172	-200.000	0.044	0.649
-327.158	42.387	-0.219	0.260
-326.143	266.536	0.013	0.030
-325.129	585.617	0.103	-0.333
-324.114	178.680	-0.216	-0.414
-323.099	534.173	-0.068	0.211
-322.085	161.254	-0.383	-0.702
-321.070	-42.666	0.310	-0.206
-320.056	-17.353	0.115	0.095
-319.041	-16.048	0.139	0.115
-318.026	-75.033	-0.453	0.211
-317.012	11.539	-0.140	-0.140
-315.997	-119.927	0.262	-0.058
-314.983	-107.924	-0.185	-0.052
-313.968	-169.542	0.092	0.004
-312.953	22.498	-0.119	0.127
-311.939	-51.850	0.218	-0.132
-310.924	-200.000	0.001	0.144
-309.910	-137.444	-0.054	0.008
-308.895	84.418	-0.113	0.161
-307.880	-41.910	0.360	0.241
-306.866	-54.341	-0.225	-0.133
-305.851	-119.256	-0.180	0.041
-304.837	-31.427	0.325	-0.238
-303.822	-92.421	-0.532	0.195
-302.807	73.638	-0.335	0.459
-301.793	-200.000	0.035	0.279
-300.778	-131.668	0.600	-0.102
-299.764	-148.503	0.105	0.011
-298.749	277.897	-0.149	0.348
-297.735	180.630	-0.061	-0.118
-296.720	514.432	-0.060	0.184
-295.705	-52.252	-0.533	-0.321
-294.691	-37.656	-0.196	0.136
-293.676	130.800	0.173	-0.291
-292.662	800.000	0.067	-0.350
-291.647	800.000	-0.108	-0.398
-290.632	-54.189	-0.546	-0.323
-289.618	-200.000	0.006	0.242
-288.603	137.955	-0.216	0.371
-287.589	-76.413	0.339	0.155
-286.574	46.005	-0.104	-0.125
-285.559	-200.000	-0.008	-0.133
-284.545	83.479	-0.079	-0.112
-283.530	-128.801	-0.135	-0.025
-282.516	-165.441	-0.564	0.032
-281.501	-162.116	-0.066	-0.004
-280.486	500.942	0.041	-0.125
-279.472	64.340	-0.278	0.366
-278.457	-89.117	-0.385	-0.148
-277.443	-94.408	-0.095	0.034
-276.428	-3.820	-0.268	-0.242
-275.413	800.000	-0.048	-0.264
-274.399	797.933	0.031	-0.113
-273.384	431.800	0.062	-0.177
-272.370	250.382	0.124	0.275
-271.355	-99.318	-0.066	-0.022
-270.340	-32.540	-0.877	-0.636
-269.326	-21.901	0.215	-0.171
-268.311	-18.570	0.267	-0.217
-267.297	-200.000	0.411	-0.002
-266.282	-200.000	0.358	-0.001
-265.267	-200.000	-0.039	-0.264
-264.253	-43.054	0.216	0.143
-263.238	247.939	0.090	0.200
-262.224	191.292	0.128	-0.253
-261.209	800.000	0.027	-0.117
-260.195	244.262	0.122	-0.269
-259.180	-58.005	-0.120	0.068
-258.165	-20.133	-0.224	-0.180
-257.151	241.887	0.100	0.219
-256.136	255.895	0.071	-0.159
-255.122	-68.229	0.436	-0.220
-254.107	-90.051	-0.188	0.071
-253.092	85.089	-0.286	-0.410
-252.078	164.229	0.121	-0.223
-251.063	800.000	-0.038	0.180
-250.049	-13.043	-0.164	0.139
-249.034	-127.915	0.173	0.032
-248.019	800.000	-0.076	0.365
-247.005	800.000	-0.105	0.422
-245.990	-114.132	-0.375	0.094
-244.976	-118.951	0.234	0.053
-243.961	-63.431	0.338	-0.181
-242.946	-129.007	0.330	0.060
-241.932	16.059	0.092	0.094
-240.917	3.940	-0.299	0.284
-239.903	800.000	0.055	0.217
-238.888	800.000	0.087	-0.329
-237.873	-160.122	-0.190	-0.013
-236.859	-79.007	-0.369	-0.163
-235.844	4.742	-0.135	-0.129
-234.830	-200.000	-0.054	0.614
-233.815	-46.868	-0.194	0.123
-232.800	-154.322	0.287	-0.025
-231.786	134.836	0.340	0.576
-230.771	-0.942	0.136	0.125
-229.757	-68.348	-0.162	-0.082
-228.742	-200.000	-0.016	-0.681
-227.727	-12.094	0.264	0.224
-226.713	-200.000	0.045	-0.354
-225.698	-124.538	-0.236	0.047
-224.684	-190.978	-0.337	0.004
-223.669	-18.264	0.387	0.315
-222.655	800.000	0.057	-0.267
-221.640	-147.579	0.166	0.018
-220.625	630.904	-0.080	0.264
-219.611	133.997	-0.226	0.382
-218.596	50.238	-0.208	0.256
-217.582	25.074	-0.099	0.107
-216.567	205.861	0.166	0.337
-215.552	-108.268	0.097	-0.027
-214.538	-59.237	0.034	-0.019
-213.523	-104.177	0.337	-0.101
-212.509	800.000	-0.071	0.392
-211.494	73.862	-0.125	-0.170
-210.479	-73.095	-0.108	-0.051
-209.465	103.896	-0.004	-0.006
-208.450	-200.000	0.034	-0.456
-207.436	-47.774	0.295	-0.186
-206.421	-200.000	0.016	0.297
-205.406	-119.154	0.628	0.142
-204.392	413.163	0.150	-0.418
-203.377	800.000	-0.053	0.290
-202.363	-200.000	-0.118	0.720
-201.348	113.200	0.148	-0.234
-200.333	-73.695	0.485	-0.229
-199.319	96.702	0.201	-0.300
-198.304	-148.627	0.187	-0.020
-197.290	40.555	0.164	0.192
-196.275	347.748	-0.160	-0.413
-195.260	-200.000	-0.181	-0.001
-194.246	-69.152	-0.281	0.140
-193.231	-200.000	-0.003	-0.412
-192.217	-164.487	-0.611	0.036
-191.202	-200.000	-0.044	0.401
-190.187	-105.055	-0.184	-0.054
-189.173	-93.990	-0.337	-0.119
-188.158	-28.133	0.268	-0.201
-187.144	-200.000	-0.030	-0.233
-186.129	-67.376	0.142	-0.072
-185.114	-143.731	0.252	0.031
-184.100	-107.669	0.202	0.057
-183.085	169.720	-0.089	-0.165
-182.071	145.925	-0.088	0.154
-181.056	800.000	-0.065	0.237
-180.042	-200.000	0.073	0.607
-179.027	-114.734	0.479	0.118
-178.012	-133.825	0.460	-0.074
-176.998	93.556	-0.077	0.113
-175.983	48.545	-0.078	-0.095
-174.969	36.300	0.155	0.178
-173.954	65.424	0.193	0.254
-172.939	-73.732	0.203	-0.096
-171.925	-70.695	0.263	0.128
-170.910	-3.406	0.119	0.107
-169.896	800.000	-0.033	0.149
-168.881	-109.132	-0.060	-0.017
-167.866	-32.189	0.064	0.046
-166.852	5.725	-0.402	0.385
-165.837	556.812	0.057	0.178
-164.823	184.206	-0.227	0.438
-163.808	-152.653	-0.444	-0.041
-162.793	-66.664	0.351	0.180
-161.779	-115.126	0.164	-0.040
-160.764	26.693	-0.166	-0.181
-159.750	-164.278	0.086	-0.005
-158.735	-200.000	-0.003	-0.465
-157.720	-200.000	0.014	-0.110
-156.706	-117.026	0.446	0.105
-155.691	-12.167	0.487	0.413
-154.677	800.000	0.026	0.120
-153.662	71.219	0.308	-0.416
-152.647	-200.000	0.037	-0.368
-151.633	70.669	-0.320	-0.431
-150.618	-90.417	0.301	0.113
-149.604	24.609	0.286	-0.308
-148.589	-75.768	-0.024	0.011
-147.574	438.578	0.108	-0.308
-146.560	800.000	-0.048	-0.175
-145.545	800.000	0.098	0.394
-144.531	-5.209	-0.212	0.189
-143.516	-104.004	0.312	0.094
-142.502	-104.646	0.172	0.051
-141.487	255.806	-0.136	0.305
-140.472	-36.611	0.081	-0.056
-139.458	800.000	-0.046	0.183
-138.443	800.000	-0.097	-0.438
-137.429	-200.000	0.019	-0.207
-136.414	324.555	-0.152	0.377
-135.399	145.576	-0.118	0.205
-134.385	25.427	-0.105	-0.113
-133.370	800.000	0.067	-0.283
-132.356	-149.836	0.829	-0.083
-131.341	-128.199	-0.300	-0.055
-130.326	-97.697	-0.099	-0.033
-129.312	-24.835	-0.081	-0.062
-128.297	35.325	0.314	0.357
-127.283	139.247	0.068	0.116
-126.268	-24.805	-0.204	-0.157
-125.253	-9.003	-0.138	-0.120
-124.239	-200.000	-0.047	-0.320
-123.224	-200.000	-0.003	0.204
-122.210	-24.523	-0.011	0.009
-121.195	22.985	-0.111	-0.118
