DTS Sentinel unit serial number:	SN409020Multiplexer serial number:	ORYXHardware model number:	OX4-SRSoftware version number:	ORYX F/W v3.00 Oryx Data Collector v3.7.2.0data status	okinstallation	HaddamTimeLapsedifferential loss correction	single-endedforward channel	channel 3reverse channel	N/Adate	2011/06/22time	05:01:16forward acquisition time	30.00reverse acquisition time	0.00gamma	498.7831k internal	0.1752k external	0.1752temperature offset calibration	1.0074default loss term (dB/km)	0.3790temperature slope calibration	1.3530multiplexer offset coefficient	1.0000multiplexer slope coefficient	1.0000fibre end	0.00T internal ref (°C)	22.69T ext. ref 1 (°C)	17.62T ext. ref 2 (°C)	0.16length (m)	temperature (°C)	Stokes	anti-Stokes-747.200	-116.498	0.220	0.053
-746.185	46.852	-0.137	0.170
-745.171	208.199	-0.124	-0.258
-744.156	-72.480	0.192	-0.094
-743.142	-91.409	0.421	0.159
-742.127	-200.000	0.018	0.318
-741.112	-21.528	0.251	-0.203
-740.098	-110.431	-0.279	-0.076
-739.083	-71.291	-0.302	-0.150
-738.069	4.784	-0.119	0.116
-737.054	-43.343	-0.381	0.255
-736.039	-111.309	-0.176	0.047
-735.025	-200.000	-0.007	-0.166
-734.010	176.402	-0.104	0.200
-732.996	-65.765	0.321	-0.170
-731.981	155.925	0.084	0.154
-730.966	-164.224	0.404	0.024
-729.952	-80.642	-0.199	0.087
-728.937	37.420	-0.213	-0.251
-727.923	-75.762	-0.480	-0.225
-726.908	-54.255	-0.500	-0.300
-725.894	100.743	-0.059	0.091
-724.879	-43.303	-0.185	-0.124
-723.864	268.463	-0.089	-0.207
-722.850	-200.000	0.048	-0.456
-721.835	-2.212	0.256	-0.238
-720.821	71.790	0.204	0.281
-719.806	-7.449	-0.087	0.078
-718.791	215.347	0.168	-0.354
-717.777	-122.221	0.300	-0.065
-716.762	-100.419	-0.589	-0.192
-715.748	-32.779	-0.631	-0.464
-714.733	-127.163	-0.277	0.053
-713.718	323.384	-0.071	0.179
-712.704	800.000	-0.047	0.232
-711.689	-174.828	0.417	-0.015
-710.675	-200.000	-0.029	-0.179
-709.660	-156.616	-0.394	-0.032
-708.645	-30.479	0.154	-0.115
-707.631	0.271	-0.188	-0.178
-706.616	260.213	0.202	0.464
-705.602	485.623	-0.244	0.742
-704.587	-66.271	-0.181	0.095
-703.572	-98.266	0.266	0.090
-702.558	-61.357	0.338	0.188
-701.543	-158.171	-0.248	0.019
-700.529	-56.937	0.114	-0.066
-699.514	-11.504	-0.148	0.129
-698.499	371.005	-0.170	-0.458
-697.485	-139.481	0.363	-0.051
-696.470	-79.435	-0.143	-0.064
-695.456	12.437	0.301	-0.307
-694.441	641.187	0.100	-0.338
-693.426	-21.783	0.121	0.097
-692.412	-145.486	0.241	-0.028
-691.397	188.388	-0.085	0.169
-690.383	-143.749	-0.366	-0.045
-689.368	1.447	-0.495	-0.471
-688.354	169.341	0.192	0.365
-687.339	-20.513	0.446	0.363
-686.324	-47.392	-0.206	0.132
-685.310	-107.325	-0.380	-0.110
-684.295	-200.000	0.011	0.176
-683.281	105.144	0.076	-0.118
-682.266	800.000	-0.023	-0.092
-681.251	-200.000	0.039	-0.228
-680.237	147.596	-0.156	0.278
-679.222	-200.000	-0.020	0.425
-678.208	-1.644	-0.387	0.360
-677.193	-54.328	-0.215	0.129
-676.178	-103.161	-0.279	0.087
-675.164	-110.526	-0.370	0.101
-674.149	-101.235	0.422	0.136
-673.135	-159.727	-0.208	-0.015
-672.120	533.541	-0.060	-0.190
-671.105	221.429	-0.164	0.350
-670.091	800.000	-0.038	-0.191
-669.076	145.366	-0.296	-0.526
-668.062	142.338	0.212	0.373
-667.047	-178.863	-0.481	0.014
-666.032	-200.000	0.011	0.089
-665.018	-38.780	-0.190	-0.132
-664.003	192.605	-0.092	-0.184
-662.989	-187.513	-0.106	0.002
-661.974	-51.111	-0.445	0.275
-660.959	-42.188	0.135	0.091
-659.945	-59.209	0.123	-0.070
-658.930	30.305	0.501	-0.566
-657.916	-29.353	0.083	0.063
-656.901	-111.555	-0.241	0.064
-655.886	-97.372	0.320	0.110
-654.872	18.978	0.035	0.037
-653.857	269.218	0.055	-0.129
-652.843	38.209	0.129	0.152
-651.828	-164.723	0.283	0.017
-650.814	-80.295	-0.370	-0.163
-649.799	149.205	-0.088	0.158
-648.784	487.978	-0.168	0.510
-647.770	-153.500	0.679	0.061
-646.755	-140.559	0.259	0.035
-645.741	-139.039	-0.294	0.042
-644.726	350.030	-0.086	-0.225
-643.711	-90.367	0.514	-0.196
-642.697	41.352	-0.511	-0.611
-641.682	262.155	-0.009	0.020
-640.668	52.786	-0.179	0.226
-639.653	-68.875	0.384	-0.195
-638.638	-8.696	-0.255	0.226
-637.624	89.849	-0.214	0.316
-636.609	113.315	0.199	-0.319
-635.595	-200.000	0.027	-0.443
-634.580	-87.562	0.153	-0.061
-633.565	-200.000	0.029	0.348
-632.551	-200.000	-0.003	0.061
-631.536	800.000	0.024	0.103
-630.522	273.535	-0.183	0.430
-629.507	317.648	-0.166	0.416
-628.492	447.547	-0.140	0.409
-627.478	164.600	0.065	-0.121
-626.463	-26.439	0.125	-0.097
-625.449	-90.718	-0.582	0.221
-624.434	-34.062	-0.363	0.263
-623.419	92.138	-0.154	0.229
-622.405	-191.167	-0.460	0.006
-621.390	197.269	-0.144	-0.291
-620.376	106.816	0.210	-0.331
-619.361	-28.918	-0.181	-0.137
-618.346	-200.000	-0.060	-0.543
-617.332	-135.352	-0.473	-0.074
-616.317	289.035	0.157	-0.377
-615.303	-200.000	0.074	-0.515
-614.288	24.643	-0.222	0.242
-613.273	1.443	-0.170	0.162
-612.259	418.596	-0.106	0.301
-611.244	431.799	-0.096	-0.276
-610.230	-112.083	-0.119	-0.031
-609.215	-83.132	-0.214	0.091
-608.201	178.239	0.002	0.004
-607.186	-172.913	0.295	-0.012
-606.171	-119.128	0.235	0.054
-605.157	42.094	0.372	0.447
-604.142	-21.255	-0.077	0.062
-603.128	8.921	-0.205	0.205
-602.113	-38.493	-0.069	-0.048
-601.098	-200.000	-0.019	0.177
-600.084	196.764	0.054	-0.108
-599.069	-121.155	0.582	0.128
-598.055	27.692	-0.105	-0.117
-597.040	32.400	-0.394	0.450
-596.025	-75.062	0.486	-0.229
-595.011	-134.530	-0.391	-0.062
-593.996	236.493	-0.034	-0.075
-592.982	800.000	-0.046	-0.181
-591.967	21.158	-0.207	-0.222
-590.952	162.699	0.322	0.598
-589.938	800.000	0.030	0.138
-588.923	-200.000	0.062	0.376
-587.909	778.796	-0.078	0.282
-586.894	-31.328	-0.296	-0.219
-585.879	-67.472	-0.350	-0.180
-584.865	-13.746	-0.080	0.068
-583.850	-172.155	0.741	-0.031
-582.836	-200.000	-0.029	-0.269
-581.821	63.524	0.140	0.185
-580.806	12.528	0.274	0.278
-579.792	-200.000	-0.043	0.364
-578.777	-200.000	0.027	-0.404
-577.763	-172.920	0.356	-0.014
-576.748	145.793	0.200	0.354
-575.733	-59.622	-0.273	0.154
-574.719	89.667	0.107	0.157
-573.704	-87.824	0.179	0.071
-572.690	235.037	-0.047	-0.102
-571.675	-11.598	0.261	-0.226
-570.661	-200.000	0.003	0.115
-569.646	-66.930	-0.105	0.054
-568.631	12.588	0.110	0.112
-567.617	-9.876	-0.017	-0.015
-566.602	-200.000	0.006	-0.059
-565.588	90.855	-0.079	0.117
-564.573	-105.772	-0.057	-0.017
-563.558	-137.812	-0.096	-0.014
-562.544	235.122	0.111	-0.242
-561.529	-200.000	-0.024	-0.173
-560.515	-181.414	0.183	-0.005
-559.500	-104.451	0.439	-0.133
-558.485	-200.000	-0.086	-0.619
-557.471	40.448	0.204	-0.242
-556.456	77.547	-0.176	0.247
-555.442	800.000	-0.029	-0.139
-554.427	-141.391	0.097	0.013
-553.412	-127.847	-0.057	0.011
-552.398	73.881	0.066	0.092
-551.383	-161.350	0.336	0.023
-550.369	-124.134	-0.139	0.028
-549.354	-79.514	0.349	-0.155
-548.339	-65.507	0.287	0.151
-547.325	122.207	-0.261	0.431
-546.310	48.010	0.118	0.146
-545.296	363.879	0.046	-0.122
-544.281	9.144	0.400	-0.398
-543.266	79.806	-0.349	0.495
-542.252	172.850	0.143	-0.271
-541.237	702.498	0.118	-0.413
-540.223	800.000	0.050	-0.273
-539.208	-124.287	-0.345	0.070
-538.193	448.962	-0.129	-0.376
-537.179	-81.116	0.409	0.177
-536.164	-99.367	-0.393	-0.130
-535.150	-200.000	0.014	0.552
-534.135	95.221	0.326	0.490
-533.121	-6.622	-0.379	0.339
-532.106	-47.999	0.341	0.216
-531.091	-57.652	-0.171	-0.098
-530.077	-200.000	-0.017	-0.480
-529.062	11.085	-0.155	0.156
-528.048	34.286	-0.224	-0.257
-527.033	416.624	-0.121	-0.342
-526.018	-200.000	-0.265	-0.001
-525.004	-107.499	-0.270	-0.077
-523.989	-163.183	-0.068	0.004
-522.975	90.314	0.208	-0.307
-521.960	140.412	0.112	0.195
-520.945	-60.806	-0.253	0.141
-519.931	4.058	0.183	-0.176
-518.916	213.571	0.311	-0.649
-517.902	-200.000	0.070	0.550
-516.887	-71.245	0.237	0.116
-515.872	-200.000	0.007	-0.294
-514.858	0.699	0.332	-0.313
-513.843	10.891	-0.247	0.248
-512.829	-33.377	-0.500	-0.363
-511.814	-150.559	-0.201	-0.020
-510.799	-36.724	0.296	0.209
-509.785	-141.065	0.432	-0.058
-508.770	-123.136	-0.207	0.043
-507.756	-16.299	0.154	-0.128
-506.741	-92.114	-0.057	-0.021
-505.726	-163.780	0.108	0.007
-504.712	-200.000	-0.020	0.198
-503.697	108.893	0.085	0.133
-502.683	296.250	0.025	-0.062
-501.668	-117.270	0.291	-0.069
-500.653	-14.823	0.110	0.093
-499.639	126.477	0.176	0.293
-498.624	-50.416	0.539	-0.334
-497.610	-142.572	0.053	-0.007
-496.595	135.335	0.065	0.111
-495.581	15.559	0.444	0.458
-494.566	-27.452	-0.259	0.197
-493.551	-56.145	-0.219	-0.128
-492.537	96.167	0.211	0.318
-491.522	129.880	0.308	0.519
-490.508	123.463	0.032	0.053
-489.493	-54.072	-0.154	0.092
-488.478	-149.300	0.424	0.044
-487.464	-84.810	-0.431	-0.177
-486.449	298.848	-0.102	0.249
-485.435	800.000	0.073	-0.361
-484.420	-105.350	0.214	0.064
-483.405	-184.670	-0.607	-0.013
-482.391	-200.000	0.002	0.204
-481.376	-153.630	-0.264	-0.024
-480.362	176.027	-0.243	0.464
-479.347	252.821	0.121	0.273
-478.332	-200.000	-0.031	-0.301
-477.318	-129.611	-0.397	0.071
-476.303	155.128	0.114	0.207
-475.289	-142.041	-0.040	-0.005
-474.274	32.472	0.266	-0.302
-473.259	-140.253	-0.427	0.058
-472.245	-161.815	-0.137	-0.009
-471.230	-200.000	0.024	-0.269
-470.216	97.132	-0.153	0.231
-469.201	35.190	-0.050	-0.057
-468.186	-82.817	0.611	0.258
-467.172	-200.000	-0.013	0.312
-466.157	-200.000	0.028	-0.297
-465.143	5.559	-0.397	-0.384
-464.128	-20.830	0.207	-0.166
-463.113	-200.000	0.049	-0.545
-462.099	800.000	0.096	-0.521
-461.084	-200.000	0.010	0.147
-460.070	-93.264	0.350	0.127
-459.055	-8.519	0.168	0.148
-458.040	-169.962	-0.493	0.023
-457.026	17.730	-0.173	0.180
-456.011	-116.497	-0.054	0.013
-454.997	466.495	-0.254	-0.751
-453.982	800.000	0.019	0.091
-452.968	1.792	0.163	-0.154
-451.953	-102.656	0.343	0.107
-450.938	800.000	-0.092	-0.388
-449.924	-173.139	0.274	-0.011
-448.909	-86.757	-0.116	-0.046
-447.895	46.272	0.071	0.087
-446.880	-42.397	-0.256	-0.171
-445.865	-0.776	0.201	-0.187
-444.851	-77.792	0.115	0.052
-443.836	800.000	-0.086	0.335
-442.822	54.575	0.221	-0.280
-441.807	-101.319	-0.455	-0.145
-440.792	344.509	0.024	0.062
-439.778	485.525	-0.069	0.208
-438.763	270.725	-0.285	0.661
-437.749	-14.473	-0.157	-0.132
-436.734	-125.899	-0.140	-0.027
-435.719	800.000	0.058	-0.224
-434.705	-200.000	0.005	-0.577
-433.690	72.382	0.201	-0.274
-432.676	-64.129	0.367	0.196
-431.661	-116.762	-0.208	0.050
-430.646	-144.335	0.332	-0.040
-429.632	-175.663	0.454	-0.016
-428.617	715.960	0.150	0.524
-427.603	64.225	0.207	-0.273
-426.588	69.176	0.267	-0.360
-425.573	71.488	-0.145	-0.197
-424.559	-126.282	-0.381	-0.074
-423.544	-146.957	-0.357	-0.040
-422.530	-127.814	-0.374	0.070
-421.515	63.651	-0.353	0.465
-420.500	-61.569	0.199	0.109
-419.486	58.476	-0.151	0.194
-418.471	-150.375	-0.548	0.055
-417.457	-123.045	-0.171	-0.036
-416.442	-156.099	-0.440	-0.036
-415.428	-200.000	-0.010	-0.265
-414.413	526.167	-0.087	0.270
-413.398	203.800	-0.182	-0.371
-412.384	133.436	-0.189	0.321
-411.369	-200.000	0.060	0.435
-410.355	-200.000	0.023	0.154
-409.340	79.369	-0.075	0.106
-408.325	-40.422	-0.137	-0.093
-407.311	-200.000	-0.022	0.372
-406.296	58.506	-0.268	-0.344
-405.282	-137.241	0.032	-0.005
-404.267	320.122	0.093	-0.233
-403.252	-200.000	-0.368	0.000
-402.238	550.844	0.226	-0.715
-401.223	-109.119	0.475	0.131
-400.209	-82.109	0.452	-0.192
-399.194	-103.912	0.297	-0.090
-398.179	800.000	0.028	-0.144
-397.165	86.078	0.213	0.308
-396.150	-159.773	0.377	0.027
-395.136	28.803	-0.157	-0.174
-394.121	-133.658	0.252	0.041
-393.106	-39.893	0.222	0.151
-392.092	-200.000	0.486	0.000
-391.077	-137.854	0.619	0.090
-390.063	-200.000	0.023	0.136
-389.048	482.096	0.063	0.188
-388.033	-43.771	0.372	0.245
-387.019	-82.915	0.451	-0.189
-386.004	-123.972	-0.150	0.031
-384.990	-80.455	0.496	-0.216
-383.975	-35.848	0.312	0.221
-382.960	137.745	-0.203	-0.348
-381.946	359.236	-0.233	-0.613
-380.931	-177.841	0.513	0.016
-379.917	-131.386	-0.219	0.038
-378.902	122.913	-0.081	0.133
-377.888	-58.624	0.147	-0.083
-376.873	21.002	-0.387	-0.411
-375.858	-200.000	-0.044	-0.300
-374.844	-8.629	0.273	-0.240
-373.829	129.273	-0.039	-0.065
-372.815	-86.793	0.551	-0.219
-371.800	800.000	0.102	0.400
-370.785	-108.240	-0.429	0.120
-369.771	-51.646	0.182	0.111
-368.756	228.728	-0.097	0.207
-367.742	147.750	-0.106	-0.187
-366.727	5.001	-0.350	-0.336
-365.712	16.503	-0.246	0.255
-364.698	459.117	-0.050	-0.146
-363.683	-73.737	0.201	0.095
-362.669	-66.092	-0.353	-0.183
-361.654	-46.374	0.135	0.086
-360.639	164.945	0.198	-0.366
-359.625	-105.466	-0.191	0.056
-358.610	-48.774	0.200	0.125
-357.596	195.568	-0.071	-0.141
-356.581	800.000	0.082	-0.339
-355.566	-8.541	-0.206	-0.180
-354.552	-200.000	-0.006	-0.383
-353.537	-104.069	-0.378	-0.114
-352.523	142.730	-0.155	-0.271
-351.508	-115.346	0.358	0.088
-350.493	-200.000	-0.029	0.487
-349.479	141.581	-0.118	-0.205
-348.464	-110.975	-0.314	-0.084
-347.450	164.378	0.043	0.080
-346.435	27.816	0.058	-0.063
-345.420	-97.338	-0.626	-0.212
-344.406	-200.000	-0.036	-0.415
-343.391	51.400	-0.197	-0.245
-342.377	-200.000	-0.025	-0.309
-341.362	-7.505	0.301	-0.266
-340.348	-28.557	0.274	0.206
-339.333	-145.076	-0.250	-0.029
-338.318	13.205	-0.118	-0.120
-337.304	-200.000	0.009	0.255
-336.289	227.036	-0.176	-0.375
-335.275	109.668	0.144	0.225
-334.260	476.634	-0.111	0.329
-333.245	-54.592	0.324	-0.191
-332.231	800.000	-0.067	0.274
-331.216	-122.793	0.144	0.030
-330.202	800.000	0.170	0.733
-329.187	-57.759	-0.362	-0.206
-328.172	800.000	-0.141	-0.547
-327.158	-19.181	-0.308	0.249
-326.143	-128.704	-0.399	-0.073
-325.129	346.378	-0.075	-0.194
-324.114	800.000	0.095	0.376
-323.099	-120.144	-0.241	0.053
-322.085	-136.688	-0.491	0.073
-321.070	-108.219	0.096	0.027
-320.056	117.123	-0.348	0.560
-319.041	140.943	-0.218	-0.377
-318.026	-153.523	0.413	-0.037
-317.012	-76.440	-0.339	-0.155
-315.997	153.318	0.128	-0.229
-314.983	6.238	0.348	-0.337
-313.968	-91.356	0.073	-0.027
-312.953	391.874	0.157	-0.427
-311.939	527.122	-0.128	-0.397
-310.924	-103.575	0.226	-0.069
-309.910	112.064	0.179	0.283
-308.895	800.000	0.094	-0.523
-307.880	-100.604	0.084	0.027
-306.866	-112.964	-0.202	0.052
-305.851	167.390	0.119	-0.221
-304.837	64.926	0.095	-0.126
-303.822	22.413	0.425	0.453
-302.807	-166.089	-0.316	0.017
-301.793	21.227	-0.155	0.164
-300.778	-98.896	-0.280	0.092
-299.764	800.000	0.049	0.184
-298.749	10.748	0.346	0.344
-297.735	800.000	-0.048	0.177
-296.720	-68.534	0.457	0.230
-295.705	-19.230	-0.047	-0.038
-294.691	31.137	0.266	0.298
-293.676	-36.782	-0.090	-0.063
-292.662	800.000	0.062	-0.355
-291.647	225.577	0.198	-0.419
-290.632	123.150	0.237	-0.388
-289.618	-115.665	-0.476	0.115
-288.603	-200.000	0.016	0.201
-287.589	-200.000	0.001	0.115
-286.574	-63.358	0.124	0.066
-285.559	-122.981	-0.661	-0.138
-284.545	-40.514	0.082	-0.055
-283.530	-174.445	-0.268	-0.010
-282.516	18.662	-0.168	-0.176
-281.501	339.934	-0.125	0.320
-280.486	18.692	-0.393	0.410
-279.472	-114.327	0.301	0.075
-278.457	800.000	-0.018	-0.093
-277.443	679.438	-0.036	-0.122
-276.428	-53.431	-0.147	-0.088
-275.413	239.228	-0.141	-0.307
-274.399	19.548	-0.302	-0.316
-273.384	25.540	-0.494	0.535
-272.370	-80.166	0.186	0.081
-271.355	-200.000	-0.021	0.245
-270.340	37.431	0.426	0.492
-269.326	800.000	0.084	0.307
-268.311	-112.858	-0.405	0.104
-267.297	-50.336	0.083	-0.051
-266.282	-36.241	-0.477	-0.335
-265.267	0.014	0.396	-0.367
-264.253	771.252	-0.041	0.146
-263.238	-92.168	-0.169	0.062
-262.224	-200.000	0.013	-0.129
-261.209	-129.512	0.271	-0.048
-260.195	-200.000	0.011	0.225
-259.180	377.796	0.193	-0.516
-258.165	-46.845	0.306	0.195
-257.151	-126.260	0.217	0.042
-256.136	-153.291	-0.186	-0.017
-255.122	200.339	-0.182	-0.365
-254.107	274.233	0.182	0.421
-253.092	-43.383	-0.068	0.044
-252.078	-88.501	-0.105	-0.041
-251.063	-42.908	0.094	-0.062
-250.049	-149.375	-0.256	-0.026
-249.034	70.768	0.047	0.063
-248.019	56.138	0.292	-0.369
-247.005	249.288	-0.098	0.216
-245.990	-0.931	0.339	-0.312
-244.976	-106.513	0.782	-0.226
-243.961	800.000	-0.094	0.401
-242.946	44.677	-0.014	-0.016
-241.932	800.000	-0.100	-0.423
-240.917	15.515	0.146	-0.149
-239.903	-37.254	-0.161	-0.112
-238.888	-26.192	0.363	0.277
-237.873	332.911	0.064	-0.162
-236.859	13.841	-0.162	-0.164
-235.844	47.916	-0.294	-0.357
-234.830	486.735	-0.036	-0.108
-233.815	13.999	0.291	-0.294
-232.800	-60.127	-0.408	-0.226
-231.786	-97.710	0.478	0.160
-230.771	-12.407	0.193	0.164
-229.757	-36.616	0.091	-0.063
-228.742	-35.455	-0.365	-0.257
-227.727	-144.896	0.376	0.044
-226.713	-200.000	-0.033	-0.216
-225.698	-143.782	-0.268	-0.033
-224.684	-172.603	0.389	0.016
-223.669	-139.437	-0.472	-0.065
-222.655	-142.289	-0.204	0.026
-221.640	18.734	-0.339	-0.352
-220.625	-60.887	-0.401	0.220
-219.611	-120.034	0.294	-0.065
-218.596	800.000	-0.109	0.510
-217.582	-119.539	-0.234	-0.052
-216.567	91.143	0.064	0.094
-215.552	-200.000	-0.064	0.610
-214.538	381.625	-0.126	0.339
-213.523	76.585	0.237	0.327
-212.509	-17.880	-0.002	-0.002
-211.494	800.000	-0.040	0.205
-210.479	-64.831	-0.088	0.046
-209.465	214.080	-0.162	0.334
-208.450	25.175	0.279	-0.301
-207.436	61.064	0.353	0.456
-206.421	-45.730	-0.143	-0.092
-205.406	-119.087	0.334	0.075
-204.392	37.055	-0.262	0.302
-203.377	-200.000	-0.011	0.074
-202.363	-68.665	-0.323	0.162
-201.348	114.687	0.087	-0.138
-200.333	-200.000	0.041	0.244
-199.319	-21.707	-0.383	-0.302
-198.304	-114.679	-0.309	0.076
-197.290	-200.000	0.114	0.875
-196.275	-200.000	0.065	-0.533
-195.260	-93.870	0.375	-0.133
-194.246	-99.623	-0.322	-0.104
-193.231	-36.461	0.438	0.306
-192.217	-51.569	0.276	0.167
-191.202	61.917	-0.217	-0.281
-190.187	-193.011	0.273	-0.003
-189.173	-138.933	-0.430	-0.060
-188.158	-200.000	-0.044	-0.265
-187.144	-113.414	0.258	0.065
-186.129	2.614	0.136	0.128
-185.114	-26.112	0.257	-0.196
-184.100	-125.163	-0.298	0.059
-183.085	559.247	-0.061	0.192
-182.071	-163.166	-0.335	0.021
-181.056	18.840	0.069	-0.072
-180.042	-200.000	0.029	0.219
-179.027	28.586	-0.114	0.125
-178.012	672.204	0.110	-0.371
-176.998	800.000	0.014	0.069
-175.983	800.000	-0.083	-0.357
-174.969	185.931	0.241	0.467
-173.954	202.333	0.177	0.355
-172.939	-113.009	-0.418	-0.106
-171.925	-62.021	-0.235	-0.127
-170.910	102.367	0.192	0.292
-169.896	-200.000	-0.229	-0.001
-168.881	-147.467	-0.186	-0.020
-167.866	736.508	-0.009	-0.030
-166.852	38.859	-0.091	0.106
-165.837	-84.178	-0.329	0.135
-164.823	554.385	-0.069	0.217
-163.808	428.849	-0.076	0.215
-162.793	2.157	-0.175	-0.164
-161.779	521.071	-0.078	0.240
-160.764	-178.748	0.273	-0.008
-159.750	-200.000	-0.039	0.299
-158.735	-200.000	-0.022	0.128
-157.720	800.000	-0.044	-0.238
-156.706	-200.000	-0.036	0.371
-155.691	-66.720	0.401	0.205
-154.677	-22.654	0.170	0.133
-153.662	78.873	0.125	0.174
-152.647	-137.637	0.289	0.042
-151.633	61.243	0.150	-0.194
-150.618	-60.996	-0.420	-0.229
-149.604	-33.626	-0.184	-0.131
-148.589	32.323	0.335	-0.375
-147.574	-91.415	-0.218	0.080
-146.560	-159.944	-0.366	-0.026
-145.545	-39.964	0.251	-0.169
-144.531	-170.789	0.361	-0.016
-143.516	-80.672	-0.343	-0.147
-142.502	17.108	-0.288	0.296
-141.487	-85.703	0.407	0.163
-140.472	252.288	0.058	-0.128
-139.458	-156.602	-0.211	-0.017
-138.443	4.066	-0.172	0.163
-137.429	-132.937	-0.476	0.078
-136.414	23.027	0.258	0.275
-135.399	45.955	0.240	0.288
-134.385	-99.100	0.190	-0.062
-133.370	1.322	-0.080	-0.074
-132.356	800.000	0.089	-0.337
-131.341	-200.000	0.020	-0.258
-130.326	-140.107	0.143	-0.019
-129.312	134.410	-0.146	-0.246
-128.297	-19.988	0.041	-0.033
-127.283	107.377	0.258	-0.398
-126.268	-24.024	-0.169	0.131
-125.253	-103.439	0.065	-0.020
-124.239	-122.038	0.337	-0.071
-123.224	10.553	-0.160	-0.157
-122.210	62.993	0.114	0.148
