DTS Sentinel unit serial number:	SN409020Multiplexer serial number:	ORYXHardware model number:	OX4-SRSoftware version number:	ORYX F/W v3.00 Oryx Data Collector v3.7.2.0data status	okinstallation	HaddamTimeLapsedifferential loss correction	single-endedforward channel	channel 3reverse channel	N/Adate	2011/06/21time	17:16:17forward acquisition time	30.00reverse acquisition time	0.00gamma	498.7831k internal	0.1804k external	0.1804temperature offset calibration	1.0074default loss term (dB/km)	0.3790temperature slope calibration	1.3530multiplexer offset coefficient	1.0000multiplexer slope coefficient	1.0000fibre end	0.00T internal ref (°C)	33.06T ext. ref 1 (°C)	29.99T ext. ref 2 (°C)	0.25length (m)	temperature (°C)	Stokes	anti-Stokes-747.200	-21.424	-0.387	0.304
-746.185	356.369	-0.267	0.690
-745.171	-139.771	-0.569	-0.077
-744.156	-128.764	-0.314	0.057
-743.142	-45.813	-0.117	0.075
-742.127	-61.489	-0.065	0.035
-741.112	621.065	-0.039	0.128
-740.098	-200.000	0.061	0.357
-739.083	121.478	-0.265	-0.427
-738.069	125.562	-0.292	0.476
-737.054	-200.000	0.040	0.292
-736.039	-123.264	0.312	0.064
-735.025	6.656	-0.177	0.170
-734.010	-71.750	-0.422	0.202
-732.996	-29.316	0.182	-0.134
-731.981	196.866	0.142	0.279
-730.966	-133.891	0.202	-0.032
-729.952	308.135	-0.169	0.409
-728.937	-200.000	0.038	-0.234
-727.923	-90.629	-0.326	-0.121
-726.908	356.718	0.189	0.486
-725.894	-200.000	0.049	0.508
-724.879	234.251	-0.231	0.492
-723.864	113.734	0.096	0.151
-722.850	143.883	0.074	0.128
-721.835	-120.965	-0.176	0.038
-720.821	-32.144	-0.017	-0.012
-719.806	63.167	-0.255	-0.329
-718.791	-91.224	-0.432	-0.158
-717.777	-85.848	-0.299	-0.119
-716.762	-25.643	-0.268	-0.203
-715.748	-91.448	-0.306	0.112
-714.733	30.987	-0.165	-0.182
-713.718	800.000	-0.049	0.239
-712.704	-115.174	0.189	-0.046
-711.689	322.214	0.026	-0.063
-710.675	-200.000	-0.018	0.295
-709.660	111.463	-0.196	0.304
-708.645	74.014	-0.038	0.051
-707.631	-81.239	0.096	0.040
-706.616	800.000	-0.014	-0.068
-705.602	-200.000	-0.051	-0.410
-704.587	-136.926	-0.381	-0.056
-703.572	496.728	0.093	-0.278
-702.558	-111.268	-0.046	0.012
-701.543	139.044	0.248	-0.420
-700.529	182.191	-0.157	-0.298
-699.514	299.178	-0.110	-0.262
-698.499	-161.450	-0.521	0.034
-697.485	-10.355	-0.276	-0.235
-696.470	598.496	-0.101	-0.323
-695.456	-59.421	-0.084	0.046
-694.441	-121.367	0.262	0.056
-693.426	3.196	-0.263	-0.246
-692.412	-69.414	-0.243	-0.120
-691.397	800.000	-0.063	0.323
-690.383	800.000	0.098	0.423
-689.368	-58.199	-0.598	-0.334
-688.354	-55.258	0.374	-0.216
-687.339	-77.398	0.066	-0.029
-686.324	-5.022	-0.195	0.172
-685.310	-67.205	-0.134	0.068
-684.295	-83.351	0.296	0.121
-683.281	800.000	-0.062	0.231
-682.266	72.573	-0.391	-0.525
-681.251	-200.000	0.072	-0.450
-680.237	-200.000	-0.004	-0.268
-679.222	17.569	0.247	-0.253
-678.208	79.041	-0.293	0.404
-677.193	-90.789	0.509	0.188
-676.178	50.033	0.199	-0.241
-675.164	-72.871	-0.424	0.200
-674.149	397.963	-0.178	-0.480
-673.135	-188.351	-0.099	0.002
-672.120	-93.576	0.243	-0.086
-671.105	-108.835	-0.434	0.119
-670.091	-17.040	-0.141	0.114
-669.076	-200.000	0.051	0.396
-668.062	-49.637	-0.294	-0.179
-667.047	-13.527	-0.204	0.170
-666.032	-1.033	0.072	0.065
-665.018	800.000	-0.016	-0.058
-664.003	203.717	-0.052	0.103
-662.989	-88.397	-0.358	-0.137
-661.974	-111.037	-0.099	0.026
-660.959	-53.406	-0.121	-0.071
-659.945	-91.537	0.324	0.118
-658.930	-8.017	-0.076	-0.066
-657.916	-91.785	0.225	-0.082
-656.901	-116.725	0.172	0.040
-655.886	-61.802	-0.088	0.047
-654.872	-84.594	-0.046	-0.019
-653.857	-177.365	-0.573	-0.018
-652.843	-25.095	0.207	0.158
-651.828	359.416	-0.168	0.434
-650.814	-83.825	-0.257	-0.105
-649.799	-11.627	-0.437	-0.369
-648.784	-110.069	-0.660	-0.176
-647.770	-9.504	-0.269	-0.230
-646.755	-36.537	0.449	0.309
-645.741	87.305	0.248	0.352
-644.726	255.928	-0.194	0.428
-643.711	-84.722	0.319	0.128
-642.697	-51.278	0.361	0.217
-641.682	-76.919	-0.632	-0.282
-640.668	-87.130	-0.436	-0.170
-639.653	-200.000	0.055	-0.323
-638.638	-77.397	-0.456	-0.203
-637.624	606.624	0.092	-0.295
-636.609	-77.655	-0.403	-0.178
-635.595	105.120	-0.482	-0.732
-634.580	-5.074	0.112	-0.099
-633.565	211.397	0.187	0.379
-632.551	109.886	0.104	-0.161
-631.536	18.666	-0.246	-0.253
-630.522	17.089	0.327	-0.332
-629.507	-131.165	-0.354	0.060
-628.492	-43.000	-0.295	-0.192
-627.478	182.225	-0.192	-0.364
-626.463	168.334	0.217	-0.399
-625.449	631.509	-0.058	0.190
-624.434	-121.542	-0.321	0.068
-623.419	88.658	0.131	0.188
-622.405	-200.000	0.035	0.380
-621.390	397.138	0.119	0.320
-620.376	800.000	-0.082	0.367
-619.361	-200.000	-0.037	0.284
-618.346	104.097	0.313	-0.473
-617.332	-110.168	-0.190	0.050
-616.317	-145.416	-0.089	-0.010
-615.303	800.000	0.047	0.184
-614.288	800.000	-0.070	-0.394
-613.273	59.275	-0.219	-0.277
-612.259	-97.030	-0.102	-0.034
-611.244	-200.000	-0.018	-0.172
-610.230	-200.000	0.035	-0.401
-609.215	-8.117	0.368	-0.318
-608.201	330.014	-0.168	-0.416
-607.186	-87.954	-0.302	0.116
-606.171	113.985	-0.158	-0.247
-605.157	-64.649	-0.401	-0.208
-604.142	15.275	-0.059	-0.059
-603.128	-148.248	0.465	-0.049
-602.113	-156.244	0.335	0.027
-601.098	-81.764	-0.163	-0.068
-600.084	-134.712	0.242	0.037
-599.069	140.354	0.152	0.257
-598.055	800.000	0.028	0.131
-597.040	-162.262	-0.348	-0.022
-596.025	139.551	0.153	0.259
-595.011	51.523	0.053	0.064
-593.996	-83.405	0.385	-0.157
-592.982	-92.693	-0.429	-0.153
-591.967	-134.751	0.165	-0.025
-590.952	73.815	-0.148	-0.199
-589.938	-200.000	0.014	-0.115
-588.923	-200.000	-0.016	0.156
-587.909	800.000	0.031	-0.171
-586.894	-37.224	-0.294	-0.201
-585.879	-115.858	0.280	-0.066
-584.865	-109.089	-0.229	0.062
-583.850	-66.525	0.589	-0.298
-582.836	800.000	-0.085	-0.302
-581.821	197.862	-0.157	0.308
-580.806	-48.987	0.291	-0.178
-579.792	-200.000	0.005	0.375
-578.777	-136.476	-0.422	0.062
-577.763	-74.278	0.389	0.179
-576.748	58.144	0.282	0.355
-575.733	-22.107	-0.845	0.656
-574.719	414.227	0.012	0.032
-573.704	-63.103	0.410	-0.216
-572.690	33.618	0.115	0.128
-571.675	-200.000	0.021	-0.347
-570.661	470.699	0.152	0.440
-569.646	-199.393	0.188	0.001
-568.631	-200.000	-0.038	0.272
-567.617	151.981	-0.208	0.364
-566.602	104.922	0.128	-0.194
-565.588	-98.757	-0.194	-0.063
-564.573	-161.432	-0.217	0.014
-563.558	-187.610	-0.243	0.004
-562.544	110.354	-0.088	-0.136
-561.529	-125.870	-0.384	-0.074
-560.515	-71.902	-0.288	0.137
-559.500	-85.650	0.331	-0.131
-558.485	-69.142	-0.651	0.319
-557.471	-93.303	-0.529	-0.187
-556.456	-148.036	-0.195	-0.020
-555.442	-26.639	0.328	-0.245
-554.427	-200.000	-0.029	-0.236
-553.412	-107.359	-0.387	-0.108
-552.398	-104.338	0.314	0.092
-551.383	-105.046	0.597	-0.174
-550.369	239.152	0.091	-0.195
-549.354	-109.273	0.415	0.112
-548.339	800.000	-0.036	0.146
-547.325	-128.933	0.366	0.065
-546.310	76.200	0.107	0.145
-545.296	38.422	-0.046	0.052
-544.281	169.887	0.174	-0.319
-543.266	-200.000	-0.020	-0.527
-542.252	-91.533	-0.116	-0.042
-541.237	-200.000	0.043	0.262
-540.223	-80.064	-0.360	0.154
-539.208	-36.729	-0.281	0.193
-538.193	273.947	0.161	-0.365
-537.179	-48.493	-0.244	-0.150
-536.164	-119.009	0.229	0.051
-535.150	33.454	0.115	-0.127
-534.135	-8.298	0.206	-0.177
-533.121	-111.201	-0.276	0.072
-532.106	-81.777	0.259	-0.108
-531.091	-200.000	0.022	0.333
-530.077	617.740	0.026	0.082
-529.062	-122.657	-0.418	0.086
-528.048	-119.095	0.234	0.052
-527.033	-1.576	0.384	-0.346
-526.018	-25.720	-0.099	-0.075
-525.004	50.703	-0.136	-0.164
-523.989	373.573	0.044	0.114
-522.975	65.125	-0.401	-0.518
-521.960	-200.000	0.065	-0.517
-520.945	120.625	0.237	0.377
-519.931	582.526	0.066	-0.209
-518.916	42.662	-0.243	0.283
-517.902	127.133	0.105	0.170
-516.887	-37.416	0.262	-0.179
-515.872	-24.454	-0.397	-0.301
-514.858	-88.320	0.271	-0.103
-513.843	682.163	-0.061	0.204
-512.829	25.551	-0.198	0.211
-511.814	-57.293	-0.512	-0.287
-510.799	800.000	-0.051	0.266
-509.785	800.000	0.054	0.264
-508.770	770.658	0.046	0.161
-507.756	155.360	-0.201	-0.354
-506.741	-102.087	0.135	-0.041
-505.726	-152.006	-0.305	-0.028
-504.712	-200.000	-0.001	-0.430
-503.697	689.000	0.051	-0.171
-502.683	18.792	-0.198	0.202
-501.668	-48.926	0.483	0.294
-500.653	71.839	0.055	-0.073
-499.639	-156.237	-0.481	-0.038
-498.624	-128.459	-0.123	0.022
-497.610	-102.035	0.085	-0.026
-496.595	-87.883	-0.242	-0.092
-495.581	-127.052	-0.077	-0.014
-494.566	59.633	-0.212	-0.268
-493.551	-118.467	0.506	0.113
-492.537	197.007	-0.247	-0.483
-491.522	-158.943	-0.207	0.015
-490.508	-143.033	0.408	-0.050
-489.493	-200.000	-0.014	0.127
-488.478	800.000	0.129	0.522
-487.464	65.329	0.174	0.224
-486.449	-169.014	-0.146	0.007
-485.435	185.747	-0.093	0.177
-484.420	194.515	0.163	-0.317
-483.405	-89.395	0.392	0.147
-482.391	-194.368	0.320	0.003
-481.376	-93.159	0.402	0.142
-480.362	-136.218	-0.034	-0.005
-479.347	4.720	-0.250	-0.234
-478.332	-70.577	0.227	0.109
-477.318	-97.704	0.431	0.141
-476.303	597.857	0.082	0.260
-475.289	-72.654	-0.194	0.091
-474.274	-200.000	0.034	-0.391
-473.259	2.299	0.135	0.124
-472.245	57.996	0.246	-0.308
-471.230	512.890	-0.094	0.282
-470.216	-65.937	0.219	0.111
-469.201	793.385	-0.063	0.223
-468.186	-49.728	-0.249	-0.151
-467.172	232.997	0.114	0.241
-466.157	-47.555	-0.035	0.021
-465.143	-108.579	0.225	0.061
-464.128	-200.000	0.060	0.653
-463.113	125.155	-0.201	0.323
-462.099	72.583	-0.033	0.044
-461.084	470.793	0.090	0.261
-460.070	-68.719	-0.052	-0.026
-459.055	-101.289	0.179	0.055
-458.040	-54.856	-0.220	-0.126
-457.026	-135.783	0.636	0.095
-456.011	800.000	0.071	0.362
-454.997	-8.425	0.226	-0.194
-453.982	-127.093	-0.223	-0.041
-452.968	-107.245	-0.527	0.147
-451.953	690.304	-0.043	0.144
-450.938	-40.051	0.274	0.182
-449.924	84.909	0.027	0.038
-448.909	-31.596	0.183	-0.130
-447.895	-200.000	-0.053	0.367
-446.880	-200.000	0.040	0.487
-445.865	57.084	0.101	-0.125
-444.851	625.799	-0.057	0.184
-443.836	-78.787	-0.208	-0.090
-442.822	-200.000	0.025	-0.543
-441.807	-56.085	0.215	0.122
-440.792	120.958	0.221	-0.351
-439.778	7.488	0.106	0.101
-438.763	-117.958	-0.039	0.009
-437.749	-24.649	-0.269	-0.203
-436.734	-89.421	-0.262	0.098
-435.719	-37.676	-0.109	-0.074
-434.705	-100.570	-0.497	-0.155
-433.690	203.252	0.218	-0.431
-432.676	-200.000	-0.002	0.137
-431.661	-116.250	-0.154	-0.036
-430.646	-3.938	0.233	0.205
-429.632	305.292	-0.053	0.125
-428.617	123.263	0.129	-0.207
-427.603	100.914	0.227	-0.336
-426.588	-38.360	-0.208	-0.140
-425.573	154.444	0.118	0.207
-424.559	8.346	0.113	-0.108
-423.544	-141.193	-0.398	0.051
-422.530	737.119	-0.080	-0.273
-421.515	-126.221	-0.232	-0.044
-420.500	-49.307	-0.385	0.233
-419.486	5.620	-0.302	0.284
-418.471	26.147	0.326	0.346
-417.457	-57.364	-0.305	0.170
-416.442	-80.159	-0.034	0.014
-415.428	192.289	0.306	0.590
-414.413	-200.000	-0.028	0.190
-413.398	-200.000	-0.002	-0.197
-412.384	-99.671	-0.780	-0.248
-411.369	-71.798	-0.626	-0.296
-410.355	-200.000	0.011	-0.138
-409.340	-134.538	0.154	0.024
-408.325	-116.774	0.361	-0.084
-407.311	-200.000	0.011	-0.179
-406.296	367.422	-0.045	-0.117
-405.282	-200.000	-0.052	-0.472
-404.267	800.000	-0.061	0.222
-403.252	68.962	-0.303	0.397
-402.238	-200.000	0.027	0.277
-401.223	104.028	0.003	-0.004
-400.209	-57.027	-0.214	0.120
-399.194	148.203	-0.119	-0.205
-398.179	-175.429	0.386	0.013
-397.165	-155.514	0.347	0.028
-396.150	-150.573	-0.540	-0.052
-395.136	-93.769	-0.177	0.062
-394.121	753.083	0.067	0.232
-393.106	-200.000	-0.003	0.319
-392.092	-200.000	-0.013	0.142
-391.077	135.707	0.017	-0.027
-390.063	141.728	0.128	0.216
-389.048	-200.000	-0.004	0.343
-388.033	-114.564	0.385	0.093
-387.019	-117.983	0.666	0.150
-386.004	-119.178	0.352	0.078
-384.990	800.000	0.116	0.473
-383.975	32.779	-0.273	-0.300
-382.960	45.194	-0.163	0.191
-381.946	169.900	0.131	-0.239
-380.931	103.236	0.173	0.258
-379.917	74.267	0.309	0.413
-378.902	-122.083	0.761	-0.157
-377.888	-63.569	0.199	0.103
-376.873	-93.721	-0.279	-0.097
-375.858	35.353	-0.469	0.523
-374.844	-65.774	-0.186	-0.094
-373.829	-127.878	0.289	0.052
-372.815	18.159	0.383	0.388
-371.800	-89.629	0.495	0.183
-370.785	145.024	-0.261	-0.445
-369.771	-45.709	0.242	-0.152
-368.756	800.000	0.065	-0.247
-367.742	-26.608	-0.425	-0.316
-366.727	-200.000	-0.037	0.264
-365.712	800.000	0.138	0.489
-364.698	-155.124	0.419	-0.034
-363.683	163.318	-0.121	-0.217
-362.669	135.146	-0.080	0.132
-361.654	6.068	0.219	0.206
-360.639	-150.084	-0.229	0.022
-359.625	-200.000	0.016	0.145
-358.610	49.036	-0.072	0.086
-357.596	64.081	0.057	-0.073
-356.581	463.698	0.056	-0.160
-355.566	-200.000	0.076	-0.465
-354.552	800.000	0.040	-0.172
-353.537	272.315	0.071	0.160
-352.523	417.456	0.104	0.283
-351.508	88.936	-0.148	0.209
-350.493	800.000	-0.024	-0.120
-349.479	100.435	0.126	-0.186
-348.464	-200.000	0.112	0.753
-347.450	-139.539	0.086	0.012
-346.435	-34.046	0.264	0.184
-345.420	800.000	-0.048	-0.207
-344.406	-52.854	-0.051	0.030
-343.391	620.249	0.140	-0.448
-342.377	-141.037	0.599	0.077
-341.362	-110.051	0.278	0.073
-340.348	-27.512	0.390	0.287
-339.333	-135.254	0.261	0.039
-338.318	1.550	-0.224	0.205
-337.304	-59.568	-0.438	-0.238
-336.289	188.860	-0.157	-0.300
-335.275	-200.000	0.431	0.001
-334.260	393.524	-0.110	-0.292
-333.245	168.731	0.122	-0.222
-332.231	-191.855	-0.468	0.006
-331.216	12.751	0.345	0.338
-330.202	691.758	0.122	0.407
-329.187	108.775	-0.183	0.277
-328.172	-95.536	-0.495	0.167
-327.158	7.298	0.361	-0.341
-326.143	557.898	-0.067	-0.205
-325.129	377.931	-0.048	0.124
-324.114	-24.428	-0.362	-0.273
-323.099	156.971	-0.198	-0.349
-322.085	-88.763	0.467	0.175
-321.070	385.307	0.048	-0.127
-320.056	-128.854	0.461	-0.081
-319.041	46.773	0.030	0.036
-318.026	-200.000	0.049	0.293
-317.012	-12.874	-0.053	-0.043
-315.997	68.317	-0.103	-0.134
-314.983	39.245	-0.323	-0.367
-313.968	-200.000	-0.023	-0.301
-312.953	263.584	-0.069	0.152
-311.939	28.415	0.230	0.247
-310.924	-107.801	0.424	0.116
-309.910	11.616	0.105	-0.102
-308.895	-200.000	0.049	0.362
-307.880	-200.000	-0.006	0.164
-306.866	14.160	0.202	0.199
-305.851	193.017	0.084	0.161
-304.837	182.024	-0.205	-0.384
-303.822	-84.283	-0.265	0.106
-302.807	-96.892	-0.133	-0.044
-301.793	-131.845	0.285	-0.047
-300.778	124.380	-0.068	0.108
-299.764	72.738	-0.159	0.210
-298.749	-35.866	-0.081	-0.056
-297.735	-143.693	-0.471	0.056
-296.720	-200.000	0.030	0.201
-295.705	-119.234	0.190	-0.042
-294.691	68.546	0.164	-0.213
-293.676	-73.202	-0.119	0.055
-292.662	-200.000	-0.007	-0.339
-291.647	800.000	-0.079	-0.416
-290.632	206.682	0.141	-0.279
-289.618	207.560	-0.329	-0.653
-288.603	-38.562	0.144	-0.096
-287.589	-200.000	-0.030	-0.258
-286.574	-61.276	0.446	0.237
-285.559	-143.117	-0.443	-0.053
-284.545	17.378	0.189	0.190
-283.530	-68.413	0.074	-0.036
-282.516	64.970	-0.224	0.287
-281.501	201.354	0.075	0.147
-280.486	-48.422	0.507	-0.308
-279.472	-149.951	-0.502	0.049
-278.457	-39.522	-0.150	-0.100
-277.443	-92.198	-0.538	-0.191
-276.428	191.529	-0.177	0.339
-275.413	-200.000	0.039	0.267
-274.399	-29.120	-0.174	0.126
-273.384	-73.936	0.295	-0.135
-272.370	99.273	-0.081	0.118
-271.355	-98.125	-0.159	-0.051
-270.340	-118.469	0.189	0.042
-269.326	63.758	0.404	0.515
-268.311	87.682	0.040	-0.056
-267.297	-32.964	0.326	-0.229
-266.282	-30.731	-0.350	-0.250
-265.267	45.218	-0.381	-0.445
-264.253	-52.324	0.707	0.413
-263.238	-50.328	0.245	0.146
-262.224	800.000	0.099	-0.518
-261.209	101.215	0.060	-0.089
-260.195	-168.203	0.416	0.020
-259.180	-92.759	0.402	-0.142
-258.165	566.859	-0.122	0.376
-257.151	72.300	0.274	0.362
-256.136	-200.000	0.020	-0.280
-255.122	-58.040	0.281	-0.155
-254.107	-95.189	-0.305	-0.103
-253.092	-186.142	0.205	0.004
-252.078	-59.322	-0.419	0.227
-251.063	-126.556	-0.447	-0.083
-250.049	-131.911	-0.170	-0.028
-249.034	-51.075	-0.219	-0.129
-248.019	-92.641	-0.389	-0.137
-247.005	247.688	0.154	-0.329
-245.990	137.627	0.183	-0.304
-244.976	-89.070	0.254	-0.094
-243.961	313.474	0.102	0.244
-242.946	-66.793	0.206	0.103
-241.932	-200.000	0.000	-0.238
-240.917	800.000	0.015	-0.060
-239.903	251.663	-0.075	0.162
-238.888	-66.585	0.313	-0.156
-237.873	-128.203	0.277	0.050
-236.859	-8.395	0.359	0.304
-235.844	232.321	0.039	-0.081
-234.830	191.319	0.202	-0.385
-233.815	267.863	-0.123	0.274
-232.800	-81.270	-0.476	-0.198
-231.786	-81.697	-0.252	-0.104
-230.771	-63.103	-0.417	-0.217
-229.757	-171.657	-0.522	0.021
-228.742	-6.435	0.044	0.037
-227.727	714.674	-0.076	-0.258
-226.713	209.614	-0.073	0.146
-225.698	566.958	0.017	-0.052
-224.684	254.354	0.134	-0.292
-223.669	800.000	0.141	-0.551
-222.655	280.026	0.113	0.257
-221.640	800.000	-0.070	0.378
-220.625	40.206	0.099	0.113
-219.611	-200.000	0.011	-0.196
-218.596	-200.000	-0.024	0.460
-217.582	9.024	-0.141	0.134
-216.567	68.285	-0.402	0.520
-215.552	-63.515	0.367	-0.190
-214.538	48.388	0.110	-0.130
-213.523	-28.684	-0.219	0.159
-212.509	-200.000	0.048	0.312
-211.494	756.329	-0.029	-0.098
-210.479	-134.376	0.213	0.033
-209.465	-36.784	0.347	0.234
-208.450	-200.000	0.008	-0.333
-207.436	-106.105	-0.126	-0.036
-206.421	-100.375	-0.377	-0.117
-205.406	-12.385	0.057	-0.047
-204.392	-79.880	0.314	0.133
-203.377	-160.547	-0.421	0.028
-202.363	-200.000	0.027	0.386
-201.348	9.233	0.223	0.213
-200.333	800.000	-0.046	-0.179
-199.319	-200.000	-0.046	0.371
-198.304	378.364	0.117	-0.303
-197.290	-200.000	-0.022	-0.618
-196.275	-51.592	-0.283	-0.166
-195.260	51.189	-0.313	-0.376
-194.246	143.838	-0.177	0.298
-193.231	696.571	0.101	0.338
-192.217	452.265	-0.129	-0.360
-191.202	174.046	0.152	0.278
-190.187	-171.376	-0.439	0.018
-189.173	-114.007	-0.343	0.083
-188.158	79.012	-0.149	-0.202
-187.144	-29.429	0.214	-0.154
-186.129	-138.520	0.346	0.048
-185.114	532.290	-0.095	0.284
-184.100	-92.392	-0.279	-0.098
-183.085	72.155	-0.188	0.248
-182.071	-30.018	-0.350	0.251
-181.056	-169.310	0.540	0.025
-180.042	800.000	0.065	0.354
-179.027	-119.419	0.054	0.012
-178.012	16.671	0.205	0.205
-176.998	800.000	0.074	-0.282
-175.983	-98.022	0.300	-0.097
-174.969	15.462	0.047	0.047
-173.954	-200.000	0.006	-0.050
-172.939	534.024	0.072	-0.216
-171.925	131.915	0.087	-0.142
-170.910	10.379	0.178	0.171
-169.896	59.143	-0.321	0.399
-168.881	-200.000	0.031	-0.348
-167.866	-200.000	-0.048	-0.375
-166.852	-134.263	0.095	-0.015
-165.837	-53.994	-0.107	0.061
-164.823	-191.872	0.220	-0.003
-163.808	472.222	0.113	0.323
-162.793	-54.829	0.186	-0.105
-161.779	20.321	0.196	-0.199
-160.764	-200.000	0.006	-0.128
-159.750	71.748	-0.072	0.095
-158.735	-67.780	-0.279	-0.137
-157.720	-154.539	0.130	0.011
-156.706	-91.044	-0.208	0.075
-155.691	88.133	0.053	0.074
-154.677	-40.759	0.283	0.184
-153.662	-173.291	-0.120	-0.005
-152.647	-131.357	-0.582	0.096
-151.633	-12.919	0.353	0.289
-150.618	9.794	0.296	-0.282
-149.604	800.000	-0.077	-0.357
-148.589	-111.939	0.230	0.058
-147.574	-23.738	0.228	-0.172
-146.560	-76.345	0.343	-0.151
-145.545	36.574	-0.217	-0.242
-144.531	482.088	0.064	-0.184
-143.516	431.968	-0.080	0.221
-142.502	58.763	-0.321	-0.398
-141.487	800.000	-0.017	-0.077
-140.472	11.258	-0.042	0.040
-139.458	-136.395	0.177	-0.026
-138.443	-6.088	-0.300	-0.258
-137.429	-102.019	0.194	-0.059
-136.414	81.581	-0.123	-0.167
-135.399	-170.298	0.335	-0.015
-134.385	386.587	0.104	0.271
-133.370	364.734	0.166	0.423
-132.356	-76.930	-0.380	0.166
-131.341	-62.724	-0.372	-0.193
-130.326	49.691	-0.282	0.335
-129.312	-115.331	-0.384	0.091
-128.297	-74.449	0.597	-0.270
-127.283	588.603	0.059	-0.185
-126.268	-200.000	-0.017	-0.105
-125.253	-62.502	-0.300	0.156
-124.239	138.691	0.084	0.140
-123.224	4.940	-0.414	-0.383
-122.210	-160.933	0.257	0.017
-121.195	-58.192	-0.357	0.195
