DTS Sentinel unit serial number:	SN409020Multiplexer serial number:	ORYXHardware model number:	OX4-SRSoftware version number:	ORYX F/W v3.00 Oryx Data Collector v3.7.2.0data status	okinstallation	HaddamTimeLapsedifferential loss correction	single-endedforward channel	channel 3reverse channel	N/Adate	2011/06/21time	20:16:17forward acquisition time	30.00reverse acquisition time	0.00gamma	498.7831k internal	0.1781k external	0.1781temperature offset calibration	1.0074default loss term (dB/km)	0.3790temperature slope calibration	1.3530multiplexer offset coefficient	1.0000multiplexer slope coefficient	1.0000fibre end	0.00T internal ref (°C)	31.19T ext. ref 1 (°C)	22.94T ext. ref 2 (°C)	0.03length (m)	temperature (°C)	Stokes	anti-Stokes-747.200	-56.666	0.416	-0.240
-746.185	-166.526	0.075	0.004
-745.171	-200.000	0.020	-0.190
-744.156	-22.239	-0.262	-0.207
-743.142	16.338	-0.095	0.098
-742.127	537.177	0.154	0.482
-741.112	129.482	-0.151	0.252
-740.098	-200.000	0.030	0.597
-739.083	104.574	-0.123	0.190
-738.069	17.190	0.330	0.342
-737.054	-73.808	-0.392	0.185
-736.039	-44.062	0.336	-0.219
-735.025	-200.000	0.022	-0.153
-734.010	-90.819	-0.307	-0.115
-732.996	-37.016	0.285	-0.199
-731.981	-189.849	0.154	-0.002
-730.966	-163.893	0.054	-0.003
-729.952	-79.060	-0.408	-0.180
-728.937	-136.799	0.099	-0.015
-727.923	-132.307	-0.293	-0.049
-726.908	299.391	0.161	-0.388
-725.894	148.843	0.250	-0.443
-724.879	0.805	-0.463	-0.433
-723.864	17.395	0.087	-0.090
-722.850	-200.000	0.042	0.342
-721.835	364.990	-0.172	0.454
-720.821	-124.626	-0.288	0.058
-719.806	-78.923	0.193	-0.085
-718.791	1.693	-0.269	0.253
-717.777	282.067	-0.089	-0.208
-716.762	50.176	0.401	-0.494
-715.748	-141.555	0.303	-0.039
-714.733	-47.263	0.192	0.122
-713.718	373.311	0.075	0.200
-712.704	158.327	0.229	-0.415
-711.689	105.659	0.285	0.440
-710.675	-15.230	0.249	0.208
-709.660	-135.188	-0.093	-0.014
-708.645	-145.741	-0.128	0.015
-707.631	-84.657	-0.605	0.247
-706.616	50.025	-0.193	-0.237
-705.602	18.912	0.063	-0.066
-704.587	740.275	-0.053	-0.187
-703.572	800.000	-0.066	0.347
-702.558	90.621	-0.101	0.148
-701.543	80.462	0.154	0.216
-700.529	-33.796	0.366	-0.262
-699.514	544.275	0.104	-0.326
-698.499	800.000	-0.108	-0.595
-697.485	-102.684	-0.606	-0.187
-696.470	-183.204	-0.064	-0.001
-695.456	27.727	0.362	0.398
-694.441	-3.791	0.167	0.151
-693.426	800.000	0.107	0.522
-692.412	50.994	-0.350	0.433
-691.397	-138.522	0.150	0.021
-690.383	61.599	0.137	0.177
-689.368	15.501	0.171	0.175
-688.354	16.309	0.306	0.315
-687.339	-93.815	0.157	-0.056
-686.324	-43.140	-0.252	-0.166
-685.310	392.613	0.028	0.077
-684.295	132.829	0.076	0.128
-683.281	-45.867	-0.093	0.060
-682.266	-81.398	0.505	-0.216
-681.251	-46.936	0.051	0.032
-680.237	-29.995	0.281	-0.208
-679.222	69.154	-0.179	-0.240
-678.208	-71.348	0.314	-0.152
-677.193	-94.964	-0.256	-0.090
-676.178	-133.053	-0.229	0.037
-675.164	800.000	0.072	-0.294
-674.149	73.455	0.418	-0.571
-673.135	-134.163	-0.329	-0.052
-672.120	-200.000	-0.020	-0.392
-671.105	-154.588	-0.114	0.010
-670.091	13.279	-0.130	-0.131
-669.076	208.152	0.327	0.668
-668.062	84.926	-0.256	-0.365
-667.047	377.141	-0.051	-0.136
-666.032	-91.009	-0.521	-0.194
-665.018	732.868	0.161	-0.565
-664.003	-161.211	-0.058	-0.004
-662.989	-200.000	-0.019	0.128
-661.974	188.926	0.044	0.086
-660.959	-38.821	0.094	-0.064
-659.945	676.485	0.006	0.022
-658.930	411.686	0.080	0.221
-657.916	-37.426	0.289	-0.200
-656.901	-110.390	0.233	-0.063
-655.886	122.243	0.162	-0.264
-654.872	-97.310	0.340	0.115
-653.857	-29.293	0.205	-0.152
-652.843	800.000	-0.092	0.514
-651.828	800.000	0.202	0.778
-650.814	16.237	0.178	-0.182
-649.799	-29.871	-0.231	-0.171
-648.784	68.446	-0.130	-0.174
-647.770	51.298	-0.289	-0.357
-646.755	124.491	-0.156	0.257
-645.741	800.000	-0.106	-0.426
-644.726	-161.039	0.550	0.037
-643.711	-200.000	0.036	0.388
-642.697	-174.973	0.421	0.015
-641.682	-200.000	0.057	-0.377
-640.668	81.330	-0.192	-0.270
-639.653	85.772	0.105	-0.150
-638.638	-143.368	-0.246	-0.030
-637.624	14.510	0.270	-0.274
-636.609	-92.917	0.214	-0.077
-635.595	-200.000	0.025	0.349
-634.580	275.773	-0.069	-0.160
-633.565	217.912	-0.051	-0.106
-632.551	142.483	0.084	0.146
-631.536	-197.957	0.516	-0.004
-630.522	-10.884	0.168	-0.144
-629.507	-5.970	0.184	-0.163
-628.492	5.397	-0.244	0.233
-627.478	341.565	-0.046	0.118
-626.463	-200.000	0.063	-0.384
-625.449	-1.982	0.228	-0.208
-624.434	78.211	-0.192	-0.267
-623.419	-134.759	-0.280	-0.044
-622.405	212.476	0.106	0.218
-621.390	800.000	0.123	0.600
-620.376	-200.000	-0.014	-0.181
-619.361	-69.192	0.717	0.357
-618.346	72.817	0.166	-0.225
-617.332	-79.441	0.648	-0.284
-616.317	130.336	0.187	-0.313
-615.303	800.000	-0.047	0.180
-614.288	106.045	-0.105	-0.162
-613.273	-25.628	0.398	0.305
-612.259	-75.500	-0.065	-0.030
-611.244	-135.483	-0.361	-0.055
-610.230	113.389	0.159	0.252
-609.215	-136.214	-0.408	-0.061
-608.201	-34.302	-0.110	-0.078
-607.186	196.333	0.188	0.373
-606.171	244.148	0.199	0.436
-605.157	30.010	0.374	-0.414
-604.142	-109.701	0.059	-0.016
-603.128	30.939	0.240	0.268
-602.113	-17.111	-0.255	-0.208
-601.098	-200.000	0.010	0.161
-600.084	-142.510	-0.129	-0.016
-599.069	-200.000	0.031	0.377
-598.055	-200.000	-0.018	0.318
-597.040	-165.313	-0.288	0.016
-596.025	-66.941	0.064	0.033
-595.011	-36.048	0.283	0.198
-593.996	-118.952	-0.336	0.076
-592.982	15.132	-0.522	-0.531
-591.967	-82.480	0.362	0.152
-590.952	545.683	-0.166	0.517
-589.938	22.306	-0.106	0.112
-588.923	-25.517	0.380	0.291
-587.909	-147.175	-0.711	0.078
-586.894	-200.000	0.004	0.372
-585.879	-23.936	0.355	-0.275
-584.865	-200.000	-0.023	-0.391
-583.850	-200.000	-0.070	0.412
-582.836	-40.718	-0.454	0.305
-581.821	11.152	-0.215	0.213
-580.806	133.567	0.011	-0.019
-579.792	-111.465	-0.247	-0.065
-578.777	-171.736	0.366	0.015
-577.763	-121.824	0.205	0.044
-576.748	267.282	0.070	0.160
-575.733	-28.761	-0.183	0.137
-574.719	-37.832	-0.376	0.259
-573.704	79.337	-0.239	0.332
-572.690	17.239	-0.101	-0.104
-571.675	800.000	-0.074	0.384
-570.661	-200.000	-0.074	0.622
-569.646	150.522	-0.068	0.120
-568.631	421.171	0.075	0.209
-567.617	-22.582	0.083	0.065
-566.602	-143.661	0.483	-0.059
-565.588	7.536	-0.167	-0.162
-564.573	800.000	0.134	-0.512
-563.558	50.734	0.206	-0.253
-562.544	797.024	-0.034	-0.122
-561.529	50.636	0.150	0.185
-560.515	-200.000	-0.032	-0.341
-559.500	749.493	0.160	0.564
-558.485	-74.095	0.598	-0.279
-557.471	16.583	-0.262	0.269
-556.456	-122.794	0.327	0.068
-555.442	-145.305	-0.591	-0.068
-554.427	183.500	0.211	0.405
-553.412	800.000	0.056	0.312
-552.398	-200.000	-0.019	0.236
-551.383	201.989	0.087	-0.175
-550.369	-200.000	0.068	-0.511
-549.354	800.000	-0.019	-0.098
-548.339	-153.819	0.249	-0.022
-547.325	-200.000	-0.019	0.148
-546.310	315.630	0.019	0.046
-545.296	-200.000	0.072	-0.609
-544.281	-108.535	-0.643	-0.178
-543.266	-18.213	0.029	0.024
-542.252	-30.121	-0.477	-0.351
-541.237	425.041	-0.109	0.305
-540.223	108.209	-0.084	0.130
-539.208	-200.000	0.415	-0.000
-538.193	-111.519	-0.233	0.061
-537.179	-88.191	-0.166	-0.064
-536.164	149.705	-0.133	-0.234
-535.150	-13.955	-0.472	-0.394
-534.135	68.210	0.099	0.131
-533.121	152.135	0.250	-0.442
-532.106	-134.211	0.581	-0.092
-531.091	45.337	0.253	-0.302
-530.077	-112.016	-0.219	-0.057
-529.062	-76.738	-0.341	-0.154
-528.048	-118.551	0.453	-0.103
-527.033	105.626	-0.101	0.155
-526.018	-98.509	0.026	-0.009
-525.004	-181.218	0.748	0.019
-523.989	35.091	0.060	0.068
-522.975	-91.295	-0.123	0.045
-521.960	800.000	0.062	0.258
-520.945	-200.000	-0.008	0.084
-519.931	-127.831	-0.342	0.063
-518.916	-52.209	0.239	0.143
-517.902	-83.351	0.140	-0.058
-516.887	92.654	0.142	0.207
-515.872	-31.912	0.421	0.305
-514.858	-101.999	-0.397	-0.123
-513.843	-29.629	-0.092	-0.068
-512.829	-21.137	-0.515	0.407
-511.814	-200.000	-0.004	-0.069
-510.799	-115.754	0.102	0.025
-509.785	364.105	-0.210	-0.549
-508.770	35.646	-0.101	-0.115
-507.756	-115.520	-0.732	0.177
-506.741	96.190	0.231	-0.342
-505.726	15.280	0.218	0.221
-504.712	-110.121	0.228	-0.061
-503.697	413.282	0.333	-0.921
-502.683	-121.871	0.296	-0.063
-501.668	-100.346	-0.403	0.128
-500.653	81.938	0.232	-0.326
-499.639	-33.268	0.280	-0.200
-498.624	-63.170	0.302	0.160
-497.610	-106.064	0.057	-0.016
-496.595	-17.820	-0.220	-0.178
-495.581	-200.000	0.015	0.276
-494.566	-138.951	-0.130	0.018
-493.551	-105.119	0.200	0.059
-492.537	622.587	0.194	0.634
-491.522	622.687	0.136	-0.446
-490.508	-54.317	0.456	-0.267
-489.493	800.000	-0.073	-0.269
-488.478	6.054	-0.089	-0.085
-487.464	-200.000	-0.010	0.217
-486.449	17.570	0.125	0.129
-485.435	800.000	0.051	0.225
-484.420	168.122	-0.105	0.193
-483.405	-200.000	0.016	-0.446
-482.391	800.000	-0.040	0.180
-481.376	676.883	-0.131	-0.443
-480.362	-159.289	-0.098	0.007
-479.347	372.275	0.071	0.186
-478.332	-4.348	0.196	-0.175
-477.318	-200.000	-0.017	0.275
-476.303	-80.680	0.265	0.114
-475.289	-129.673	0.215	0.038
-474.274	-200.000	0.010	-0.080
-473.259	63.223	0.123	0.159
-472.245	278.521	0.050	-0.117
-471.230	-166.051	-0.388	-0.021
-470.216	800.000	-0.055	-0.199
-469.201	-101.003	-0.123	0.039
-468.186	367.408	0.143	0.374
-467.172	50.482	0.080	-0.097
-466.157	-98.225	0.064	0.021
-465.143	800.000	-0.042	-0.173
-464.128	566.204	-0.101	-0.319
-463.113	8.074	-0.254	-0.247
-462.099	-157.713	-0.485	0.037
-461.084	-51.910	-0.061	0.037
-460.070	29.542	-0.453	0.497
-459.055	-154.968	0.325	0.027
-458.040	-12.548	0.289	0.244
-457.026	169.801	0.172	-0.318
-456.011	-157.593	-0.313	-0.024
-454.997	6.943	-0.318	-0.306
-453.982	-200.000	-0.008	-0.085
-452.968	-75.852	-0.614	-0.280
-451.953	-92.116	0.340	0.123
-450.938	318.569	-0.065	-0.160
-449.924	-53.776	-0.189	-0.111
-448.909	800.000	0.039	-0.205
-447.895	179.448	0.117	0.222
-446.880	-64.964	-0.132	-0.069
-445.865	800.000	0.030	-0.164
-444.851	58.014	0.350	-0.443
-443.836	-131.329	-0.757	0.128
-442.822	-58.781	-0.285	-0.159
-441.807	-14.054	-0.124	0.103
-440.792	-42.695	0.090	-0.059
-439.778	228.931	-0.050	0.107
-438.763	155.705	-0.097	0.173
-437.749	63.484	0.391	0.506
-436.734	-120.104	-0.254	0.056
-435.719	-200.000	0.003	0.320
-434.705	-116.097	0.218	0.052
-433.690	160.603	-0.169	-0.305
-432.676	66.391	-0.215	-0.282
-431.661	-109.315	-0.572	0.155
-430.646	-92.396	-0.506	-0.183
-429.632	188.111	0.226	0.438
-428.617	85.631	-0.280	0.397
-427.603	800.000	0.058	0.255
-426.588	714.015	0.282	0.969
-425.573	582.383	-0.071	-0.227
-424.559	-79.437	-0.467	-0.203
-423.544	315.152	-0.178	-0.435
-422.530	103.851	0.215	-0.327
-421.515	14.292	-0.129	-0.130
-420.500	-84.224	-0.267	0.108
-419.486	-181.996	-0.293	-0.007
-418.471	-53.142	-0.193	0.114
-417.457	339.777	0.038	0.095
-416.442	-12.294	-0.148	0.124
-415.428	-3.442	-0.049	-0.044
-414.413	62.440	0.085	0.110
-413.398	483.038	0.176	-0.518
-412.384	-188.824	0.404	-0.006
-411.369	-143.602	0.570	0.069
-410.355	-1.583	0.152	0.138
-409.340	26.790	0.140	0.151
-408.325	-45.705	-0.311	0.198
-407.311	252.183	0.083	0.182
-406.296	-155.046	-0.555	0.046
-405.282	-9.659	0.201	0.172
-404.267	-62.319	-0.332	-0.177
-403.252	-24.724	0.410	0.314
-402.238	-127.309	-0.342	-0.064
-401.223	179.850	0.196	0.371
-400.209	-200.000	0.039	0.529
-399.194	-65.106	0.049	-0.025
-398.179	222.630	-0.254	0.529
-397.165	1.353	0.346	0.320
-396.150	-200.000	0.009	0.285
-395.136	-20.257	0.168	-0.133
-394.121	-116.817	-0.250	0.059
-393.106	-103.662	-0.482	-0.145
-392.092	74.267	0.181	0.245
-391.077	126.361	0.264	0.431
-390.063	-147.191	-0.497	0.054
-389.048	-106.393	-0.213	0.061
-388.033	332.778	0.037	-0.094
-387.019	-79.879	0.381	-0.164
-386.004	-17.147	-0.191	-0.155
-384.990	431.124	-0.120	-0.338
-383.975	-200.000	-0.008	-0.184
-382.960	-42.832	-0.294	-0.192
-381.946	-0.575	-0.149	0.136
-380.931	-200.000	-0.066	-0.756
-379.917	593.231	0.027	0.087
-378.902	-31.926	0.343	-0.247
-377.888	-28.554	0.342	-0.253
-376.873	-200.000	0.104	-0.798
-375.858	570.578	-0.152	-0.478
-374.844	-200.000	0.036	-0.211
-373.829	639.695	0.181	-0.595
-372.815	-26.200	0.254	0.192
-371.800	-105.566	0.483	0.140
-370.785	39.563	-0.273	-0.315
-369.771	74.737	-0.207	0.281
-368.756	-200.000	0.000	0.197
-367.742	195.547	0.194	-0.381
-366.727	203.845	0.175	-0.350
-365.712	-164.431	-0.220	0.013
-364.698	-53.108	0.266	-0.157
-363.683	-155.380	-0.329	0.027
-362.669	-109.907	-0.503	-0.135
-361.654	800.000	-0.047	-0.173
-360.639	-119.095	0.286	-0.064
-359.625	52.778	-0.209	0.257
-358.610	-200.000	0.050	-0.341
-357.596	-59.316	0.130	0.072
-356.581	-74.871	-0.145	-0.067
-355.566	585.093	-0.162	0.514
-354.552	-55.726	-0.634	-0.364
-353.537	108.695	0.208	-0.321
-352.523	-114.301	-0.241	-0.059
-351.508	324.505	0.048	0.119
-350.493	23.226	-0.179	-0.189
-349.479	523.382	-0.119	0.363
-348.464	-200.000	0.031	0.254
-347.450	-138.123	-0.261	0.037
-346.435	-23.042	-0.229	-0.177
-345.420	4.227	-0.004	0.004
-344.406	-87.882	-0.451	-0.174
-343.391	770.618	-0.045	0.159
-342.377	235.475	0.031	0.066
-341.362	137.142	-0.165	0.277
-340.348	-200.000	0.003	-0.121
-339.333	-173.506	-0.167	-0.006
-338.318	-200.000	0.007	-0.360
-337.304	19.796	0.090	0.093
-336.289	-200.000	-0.016	-0.098
-335.275	28.405	-0.170	0.185
-334.260	800.000	0.206	-0.769
-333.245	-18.490	0.461	-0.369
-332.231	191.061	-0.037	0.072
-331.216	85.890	0.076	-0.108
-330.202	-200.000	-0.041	0.277
-329.187	-82.071	-0.308	-0.128
-328.172	-54.119	0.424	0.247
-327.158	-109.133	-0.250	0.068
-326.143	93.395	0.036	-0.053
-325.129	-117.326	-0.186	-0.043
-324.114	800.000	0.091	0.495
-323.099	219.242	0.149	0.308
-322.085	-180.380	-0.047	0.001
-321.070	-27.739	0.223	-0.166
-320.056	-18.797	-0.292	-0.233
-319.041	-83.297	0.173	0.071
-318.026	-168.752	-0.429	-0.021
-317.012	800.000	0.054	-0.274
-315.997	-23.788	-0.391	-0.300
-314.983	665.847	0.034	0.114
-313.968	-134.569	0.323	-0.050
-312.953	800.000	-0.096	0.412
-311.939	-200.000	0.016	0.282
-310.924	567.899	0.069	0.215
-309.910	-145.655	0.129	-0.015
-308.895	-154.942	0.408	-0.034
-307.880	-41.174	-0.054	0.036
-306.866	-200.000	-0.039	-0.234
-305.851	83.699	0.127	-0.179
-304.837	96.319	0.141	-0.208
-303.822	-54.302	-0.301	-0.175
-302.807	-78.791	0.181	-0.079
-301.793	102.860	0.176	-0.264
-300.778	800.000	-0.039	0.169
-299.764	-46.342	0.129	-0.081
-298.749	-200.000	0.005	-0.352
-297.735	288.920	-0.082	-0.191
-296.720	80.891	-0.109	-0.151
-295.705	285.688	0.234	0.543
-294.691	49.638	0.169	0.205
-293.676	-148.258	-0.251	-0.026
-292.662	-200.000	0.009	0.090
-291.647	375.442	0.090	0.236
-290.632	-127.797	0.300	0.055
-289.618	-200.000	-0.087	-0.705
-288.603	554.012	0.047	-0.146
-287.589	-65.500	-0.287	0.147
-286.574	-126.257	0.108	-0.021
-285.559	-200.000	0.025	-0.281
-284.545	241.900	-0.229	-0.493
-283.530	800.000	0.113	-0.531
-282.516	-167.921	0.590	0.029
-281.501	395.793	-0.098	-0.264
-280.486	-45.207	0.213	-0.136
-279.472	61.375	0.297	0.378
-278.457	-51.288	0.149	0.089
-277.443	-104.707	-0.413	0.121
-276.428	-14.960	-0.130	0.107
-275.413	-194.625	0.207	0.002
-274.399	-103.675	-0.212	0.063
-273.384	51.974	0.399	0.488
-272.370	278.506	-0.056	0.128
-271.355	800.000	-0.122	0.534
-270.340	-23.871	0.401	0.307
-269.326	-117.105	0.234	0.054
-268.311	800.000	-0.117	-0.459
-267.297	102.306	-0.329	0.493
-266.282	457.140	0.031	0.089
-265.267	-155.385	0.242	-0.020
-264.253	-97.572	0.249	-0.082
-263.238	-200.000	0.018	0.254
-262.224	94.806	0.033	0.048
-261.209	14.466	-0.144	0.144
-260.195	154.167	-0.204	0.360
-259.180	-136.881	0.322	0.047
-258.165	6.714	0.321	0.306
-257.151	-111.300	0.123	0.032
-256.136	-17.156	0.004	-0.003
-255.122	-200.000	0.039	-0.658
-254.107	-55.118	0.551	-0.317
-253.092	711.030	0.135	-0.460
-252.078	-4.791	-0.171	-0.151
-251.063	-152.073	-0.416	-0.038
-250.049	-82.971	0.350	-0.144
-249.034	-16.047	0.170	0.138
-248.019	-28.794	0.285	-0.210
-247.005	84.703	-0.182	-0.255
-245.990	-200.000	0.015	-0.268
-244.976	774.961	-0.094	-0.332
-243.961	-86.754	0.197	0.077
-242.946	347.450	-0.170	-0.430
-241.932	-99.477	0.189	-0.061
-240.917	-101.273	0.399	0.124
-239.903	-154.526	-0.692	-0.058
-238.888	-93.975	-0.498	0.174
-237.873	746.002	-0.050	0.174
-236.859	-32.411	-0.585	0.417
-235.844	-200.000	0.004	-0.065
-234.830	800.000	-0.097	0.408
-233.815	246.729	0.146	0.317
-232.800	-108.437	-0.220	0.060
-231.786	147.086	-0.151	0.260
-230.771	-8.229	-0.294	0.253
-229.757	-69.393	0.247	0.121
-228.742	-200.000	0.005	0.652
-227.727	-53.653	-0.158	-0.092
-226.713	800.000	-0.065	-0.274
-225.698	-200.000	0.017	-0.436
-224.684	242.974	0.183	0.394
-223.669	409.154	0.124	0.338
-222.655	-133.540	-0.210	-0.033
-221.640	-169.784	0.146	0.007
-220.625	-97.327	-0.293	0.097
-219.611	-45.857	0.204	-0.129
-218.596	147.172	0.249	-0.430
-217.582	-47.344	-0.351	-0.218
-216.567	180.717	0.113	-0.212
-215.552	78.617	-0.276	-0.377
-214.538	-154.677	0.393	0.033
-213.523	-200.000	0.048	0.312
-212.509	276.879	0.124	-0.283
-211.494	177.463	-0.123	0.230
-210.479	-200.000	-0.007	0.481
-209.465	115.894	-0.239	-0.374
-208.450	-200.000	-0.021	0.131
-207.436	321.746	-0.036	0.088
-206.421	-200.000	-0.022	0.416
-205.406	-43.346	-0.280	0.181
-204.392	800.000	0.096	-0.455
-203.377	728.073	0.123	-0.421
-202.363	-200.000	0.028	-0.376
-201.348	188.680	0.212	-0.407
-200.333	82.367	-0.101	-0.140
-199.319	800.000	0.052	0.250
-198.304	-122.115	0.217	0.045
-197.290	35.109	-0.055	-0.061
-196.275	-200.000	0.030	0.442
-195.260	-102.030	-0.154	0.047
-194.246	100.764	0.141	0.210
-193.231	-90.537	0.339	0.125
-192.217	201.701	-0.045	0.090
-191.202	307.550	-0.140	-0.335
-190.187	-200.000	-0.008	0.359
-189.173	-174.070	-0.230	0.008
-188.158	4.560	0.268	0.251
-187.144	-39.795	0.127	-0.085
-186.129	110.231	-0.272	-0.417
-185.114	6.280	0.124	-0.117
-184.100	-200.000	-0.035	0.689
-183.085	-67.722	0.418	-0.208
-182.071	800.000	0.035	-0.162
-181.056	-58.070	0.216	0.120
-180.042	800.000	0.038	0.182
-179.027	-145.185	-0.340	-0.039
-178.012	81.144	-0.041	-0.056
-176.998	-121.480	-0.316	0.067
-175.983	54.947	-0.012	-0.015
-174.969	-200.000	-0.066	0.458
-173.954	-200.000	0.209	-0.001
-172.939	-82.028	-0.363	0.151
-171.925	-146.192	0.081	0.009
-170.910	800.000	0.033	0.185
-169.896	800.000	-0.112	-0.546
-168.881	433.027	0.265	0.738
-167.866	1.477	0.278	0.256
-166.852	394.834	0.164	-0.438
-165.837	-133.104	-0.235	-0.038
-164.823	-97.942	-0.399	0.130
-163.808	231.006	-0.055	-0.115
-162.793	133.833	-0.124	0.206
-161.779	-96.734	0.210	0.070
-160.764	800.000	-0.094	0.394
-159.750	-31.721	0.252	-0.180
-158.735	127.555	-0.182	-0.295
-157.720	-111.327	0.517	-0.134
-156.706	-152.500	0.367	0.033
-155.691	-89.205	-0.413	0.155
-154.677	-131.865	-0.267	0.044
-153.662	-148.826	0.278	0.028
-152.647	74.973	-0.134	0.180
-151.633	-39.570	0.336	0.224
-150.618	-103.920	0.407	-0.120
-149.604	266.921	-0.181	0.406
-148.589	-151.901	-0.265	0.024
-147.574	13.154	-0.452	0.446
-146.560	130.332	-0.096	0.157
-145.545	-174.501	0.590	-0.021
-144.531	-200.000	-0.097	-0.577
-143.516	324.905	0.147	0.361
-142.502	-31.106	-0.316	-0.227
-141.487	136.898	-0.115	0.192
-140.472	325.089	0.033	0.080
-139.458	44.351	-0.346	0.406
-138.443	-69.040	-0.207	-0.101
-137.429	-200.000	-0.010	0.069
-136.414	-200.000	-0.008	0.086
-135.399	-162.872	0.332	0.020
-134.385	706.681	0.020	-0.066
-133.370	6.094	-0.154	-0.146
-132.356	98.110	-0.078	0.114
-131.341	-200.000	-0.023	0.529
-130.326	-10.245	-0.127	0.107
-129.312	-82.845	-0.309	0.127
-128.297	344.348	-0.139	0.350
-127.283	-200.000	0.075	0.595
-126.268	-200.000	-0.064	0.494
-125.253	800.000	0.074	-0.294
-124.239	311.896	-0.133	0.319
-123.224	142.405	-0.113	0.191
-122.210	-200.000	-0.023	-0.136
-121.195	7.332	0.173	0.165
