DTS Sentinel unit serial number:	SN409020Multiplexer serial number:	ORYXHardware model number:	OX4-SRSoftware version number:	ORYX F/W v3.00 Oryx Data Collector v3.7.2.0data status	okinstallation	HaddamTimeLapsedifferential loss correction	single-endedforward channel	channel 3reverse channel	N/Adate	2011/06/22time	01:36:17forward acquisition time	30.00reverse acquisition time	0.00gamma	498.7831k internal	0.1752k external	0.1752temperature offset calibration	1.0074default loss term (dB/km)	0.3790temperature slope calibration	1.3530multiplexer offset coefficient	1.0000multiplexer slope coefficient	1.0000fibre end	0.00T internal ref (°C)	22.50T ext. ref 1 (°C)	17.73T ext. ref 2 (°C)	0.01length (m)	temperature (°C)	Stokes	anti-Stokes-747.200	-138.679	0.384	0.055
-746.185	263.650	-0.050	0.115
-745.171	-30.529	-0.289	0.217
-744.156	156.156	0.121	0.222
-743.142	11.767	0.112	-0.115
-742.127	681.012	0.089	-0.309
-741.112	5.442	-0.501	-0.491
-740.098	-103.670	-0.395	0.122
-739.083	66.256	0.359	0.485
-738.069	-94.244	-0.271	0.098
-737.054	800.000	-0.088	-0.475
-736.039	587.929	-0.061	0.199
-735.025	800.000	-0.054	0.273
-734.010	-118.531	0.471	0.110
-732.996	2.277	0.109	0.105
-731.981	800.000	-0.154	0.691
-730.966	800.000	-0.073	-0.280
-729.952	-114.856	-0.235	-0.059
-728.937	-200.000	-0.048	-0.431
-727.923	-200.000	-0.033	-0.360
-726.908	-25.795	-0.280	-0.219
-725.894	800.000	0.068	0.265
-724.879	98.881	-0.174	-0.267
-723.864	715.015	0.138	-0.487
-722.850	53.462	-0.083	-0.106
-721.835	-114.826	0.377	0.095
-720.821	153.861	-0.273	0.497
-719.806	-1.992	-0.368	-0.343
-718.791	40.581	0.416	-0.497
-717.777	-108.300	-0.301	0.086
-716.762	-200.000	0.044	0.356
-715.748	312.329	0.080	0.201
-714.733	-172.160	-0.229	0.010
-713.718	800.000	-0.054	0.236
-712.704	800.000	-0.038	0.185
-711.689	-153.514	-0.250	-0.023
-710.675	-137.048	0.149	-0.022
-709.660	-200.000	0.030	0.336
-708.645	-97.608	-0.558	-0.191
-707.631	-184.139	0.569	-0.012
-706.616	-109.828	0.871	-0.241
-705.602	-106.060	-0.322	0.095
-704.587	-22.747	0.018	0.015
-703.572	-157.546	0.596	-0.047
-702.558	-9.117	0.267	-0.237
-701.543	-45.017	0.458	0.301
-700.529	-66.080	0.459	-0.242
-699.514	29.969	0.225	-0.254
-698.499	-46.962	-0.055	-0.036
-697.485	212.987	-0.169	-0.355
-696.470	192.147	-0.208	-0.417
-695.456	-200.000	0.059	-0.409
-694.441	-117.192	0.438	0.105
-693.426	-98.650	-0.040	0.014
-692.412	-10.678	-0.227	0.199
-691.397	12.184	-0.146	-0.149
-690.383	-96.276	0.271	0.094
-689.368	78.625	0.300	-0.426
-688.354	463.792	-0.110	0.328
-687.339	-88.476	0.052	0.020
-686.324	25.591	-0.222	-0.244
-685.310	219.144	-0.040	-0.084
-684.295	-82.440	-0.321	0.137
-683.281	-141.815	-0.722	-0.095
-682.266	203.270	0.058	0.119
-681.251	107.972	0.119	-0.188
-680.237	-200.000	-0.027	0.272
-679.222	413.796	-0.220	0.623
-678.208	336.000	-0.110	0.284
-677.193	-1.658	-0.350	0.326
-676.178	-56.100	0.158	-0.093
-675.164	129.227	-0.123	0.208
-674.149	-45.209	0.368	-0.241
-673.135	-84.968	-0.208	-0.086
-672.120	800.000	-0.085	0.493
-671.105	140.393	-0.115	-0.201
-670.091	-82.505	0.641	-0.274
-669.076	366.676	0.106	-0.283
-668.062	800.000	-0.080	-0.323
-667.047	186.056	0.163	-0.322
-666.032	-200.000	0.041	-0.350
-665.018	20.201	-0.145	-0.155
-664.003	-89.341	-0.576	0.223
-662.989	-200.000	-0.037	-0.279
-661.974	41.706	-0.371	0.445
-660.959	-149.495	-0.403	-0.042
-659.945	237.129	0.111	-0.245
-658.930	800.000	-0.050	-0.221
-657.916	-17.255	-0.199	-0.166
-656.901	-152.593	0.273	-0.025
-655.886	-97.574	0.269	0.092
-654.872	-200.000	-0.029	0.434
-653.857	-104.009	0.061	-0.019
-652.843	285.986	-0.192	0.460
-651.828	-200.000	0.015	0.366
-650.814	-109.127	-0.164	0.046
-649.799	7.551	0.350	0.346
-648.784	17.637	0.320	-0.336
-647.770	70.235	-0.073	-0.100
-646.755	-95.006	-0.578	0.205
-645.741	-200.000	0.035	-0.286
-644.726	-27.193	-0.367	-0.283
-643.711	800.000	0.100	-0.368
-642.697	-200.000	-0.006	0.307
-641.682	359.715	0.145	-0.386
-640.668	-114.633	0.300	0.075
-639.653	244.336	0.154	-0.344
-638.638	244.108	0.138	-0.307
-637.624	14.968	0.232	-0.240
-636.609	-90.264	0.401	0.153
-635.595	65.207	0.137	0.184
-634.580	-200.000	0.039	0.394
-633.565	45.257	0.110	0.134
-632.551	-100.912	-0.493	-0.159
-631.536	36.785	-0.194	-0.227
-630.522	23.118	0.073	0.079
-629.507	265.338	-0.242	-0.561
-628.492	800.000	0.143	-0.576
-627.478	510.178	-0.040	0.124
-626.463	102.741	-0.184	0.285
-625.449	-200.000	-0.006	0.221
-624.434	4.852	-0.192	-0.187
-623.419	203.279	0.316	-0.648
-622.405	-82.753	-0.200	-0.085
-621.390	-118.688	0.285	-0.066
-620.376	-106.066	0.103	0.030
-619.361	-21.915	0.219	0.176
-618.346	800.000	0.009	0.048
-617.332	-6.122	-0.431	-0.389
-616.317	-126.607	0.354	-0.069
-615.303	-52.309	-0.309	-0.189
-614.288	202.407	-0.062	-0.127
-613.273	-164.321	-0.360	0.021
-612.259	-200.000	-0.023	-0.264
-611.244	-139.027	-0.158	-0.022
-610.230	-149.909	-0.858	-0.088
-609.215	-200.000	-0.025	-0.431
-608.201	-145.594	0.378	0.044
-607.186	-200.000	0.016	-0.676
-606.171	100.247	0.323	-0.496
-605.157	709.454	-0.025	-0.088
-604.142	-134.460	-0.315	0.050
-603.128	123.528	0.254	0.422
-602.113	-200.000	-0.008	0.388
-601.098	-200.000	-0.030	-0.187
-600.084	800.000	0.078	-0.368
-599.069	44.138	-0.052	-0.063
-598.055	-90.887	0.232	-0.088
-597.040	-78.755	0.462	-0.207
-596.025	800.000	-0.150	0.691
-595.011	-92.217	0.327	-0.121
-593.996	-133.075	-0.278	0.046
-592.982	581.219	0.044	0.143
-591.967	96.616	-0.086	-0.130
-590.952	221.887	0.083	0.176
-589.938	349.957	0.076	-0.198
-588.923	10.489	-0.453	0.456
-587.909	-111.328	-0.392	-0.105
-586.894	736.226	0.032	-0.112
-585.879	-139.307	-0.198	0.028
-584.865	232.153	-0.176	0.383
-583.850	-148.056	-0.467	-0.051
-582.836	-4.992	0.086	0.078
-581.821	-200.000	-0.024	-0.375
-580.806	35.947	0.201	-0.234
-579.792	-161.674	0.614	-0.041
-578.777	252.882	0.161	0.364
-577.763	52.969	0.229	0.289
-576.748	240.077	0.123	0.272
-575.733	-12.982	0.398	-0.341
-574.719	5.874	-0.304	-0.297
-573.704	-13.728	-0.460	-0.392
-572.690	-65.266	0.583	-0.309
-571.675	226.042	-0.101	-0.216
-570.661	133.850	-0.114	0.195
-569.646	-118.652	0.117	0.027
-568.631	-146.669	0.309	-0.035
-567.617	-111.145	0.500	-0.134
-566.602	-36.229	-0.079	0.056
-565.588	800.000	0.029	0.146
-564.573	-70.665	-0.355	-0.176
-563.558	-62.566	-0.552	-0.301
-562.544	247.400	0.065	0.146
-561.529	-13.977	-0.163	0.138
-560.515	-87.183	0.196	-0.078
-559.500	-95.529	-0.552	0.194
-558.485	58.385	0.135	0.174
-557.471	-49.616	0.169	0.106
-556.456	26.800	0.158	-0.174
-555.442	593.961	-0.093	-0.306
-554.427	-122.381	-0.275	0.059
-553.412	-2.726	0.059	0.055
-552.398	-18.145	-0.155	0.128
-551.383	-73.820	0.351	0.168
-550.369	0.730	-0.454	0.427
-549.354	57.627	-0.108	-0.140
-548.339	3.802	0.133	-0.128
-547.325	-40.717	-0.214	-0.146
-546.310	-200.000	0.024	0.295
-545.296	-20.531	-0.078	0.063
-544.281	-124.370	-0.632	-0.129
-543.266	10.708	0.376	0.378
-542.252	800.000	0.050	-0.218
-541.237	41.060	0.266	-0.317
-540.223	-90.295	0.253	0.096
-539.208	-200.000	-0.006	0.266
-538.193	-200.000	0.004	0.236
-537.179	-200.000	0.068	0.000
-536.164	85.680	0.082	0.119
-535.150	322.062	-0.109	0.274
-534.135	-161.436	0.392	0.026
-533.121	-131.926	0.142	0.024
-532.106	-30.330	-0.300	-0.224
-531.091	-37.739	0.463	0.324
-530.077	269.920	0.031	-0.073
-529.062	800.000	-0.077	0.331
-528.048	-69.447	-0.337	-0.170
-527.033	181.272	0.135	-0.263
-526.018	26.891	0.102	-0.112
-525.004	-77.639	0.235	0.107
-523.989	3.979	0.134	-0.129
-522.975	3.761	-0.324	-0.311
-521.960	-24.723	-0.321	-0.251
-520.945	-200.000	0.012	0.444
-519.931	65.422	0.160	0.213
-518.916	-141.468	0.153	-0.020
-517.902	-200.000	-0.048	0.333
-516.887	-159.402	-0.292	-0.021
-515.872	72.248	0.172	-0.236
-514.858	63.109	-0.135	0.178
-513.843	-3.299	0.398	0.365
-512.829	-77.245	0.294	-0.134
-511.814	-21.995	0.074	-0.059
-510.799	377.985	0.051	0.137
-509.785	407.420	-0.099	-0.277
-508.770	-74.147	-0.400	-0.190
-507.756	14.075	0.110	-0.112
-506.741	12.491	-0.155	-0.157
-505.726	61.527	0.090	-0.118
-504.712	-75.557	-0.008	0.004
-503.697	-102.842	-0.448	-0.139
-502.683	-68.282	-0.381	0.194
-501.668	-72.894	-0.369	-0.177
-500.653	-57.411	-0.248	0.143
-499.639	44.704	0.096	-0.116
-498.624	-118.657	0.470	0.108
-497.610	396.297	-0.043	-0.118
-496.595	238.400	-0.131	-0.288
-495.581	-200.000	-0.017	-0.194
-494.566	-116.805	0.661	0.158
-493.551	-132.140	0.190	0.032
-492.537	1.632	0.407	-0.385
-491.522	96.407	0.287	0.432
-490.508	10.031	-0.382	0.381
-489.493	-135.506	0.336	0.052
-488.478	246.313	-0.111	-0.247
-487.464	24.309	-0.170	0.184
-486.449	116.006	-0.296	0.478
-485.435	-33.385	-0.077	-0.056
-484.420	-23.030	0.194	-0.153
-483.405	-169.083	-0.779	-0.037
-482.391	9.988	-0.117	-0.117
-481.376	-58.851	0.380	0.215
-480.362	370.598	0.142	-0.381
-479.347	28.947	-0.301	-0.336
-478.332	800.000	0.105	0.521
-477.318	180.012	0.255	-0.493
-476.303	59.582	-0.198	-0.257
-475.289	586.486	-0.088	-0.287
-474.274	-200.000	0.063	-0.415
-473.259	-200.000	-0.018	-0.266
-472.245	-148.400	0.454	0.048
-471.230	218.485	-0.037	-0.078
-470.216	-143.722	-0.260	0.032
-469.201	-128.910	0.406	-0.074
-468.186	55.515	0.171	0.217
-467.172	-26.857	-0.411	0.315
-466.157	597.905	0.039	0.128
-465.143	40.843	-0.287	0.340
-464.128	800.000	-0.016	-0.094
-463.113	27.781	-0.264	0.293
-462.099	-9.275	-0.255	0.223
-461.084	-92.869	-0.357	-0.130
-460.070	-89.003	-0.182	0.070
-459.055	24.880	0.275	-0.300
-458.040	205.811	-0.045	-0.092
-457.026	-200.000	-0.047	0.346
-456.011	-132.821	0.042	-0.007
-454.997	67.664	-0.433	0.582
-453.982	-59.429	0.234	0.131
-452.968	85.504	0.243	0.351
-451.953	-2.127	-0.408	-0.376
-450.938	-15.274	-0.149	-0.125
-449.924	-57.605	-0.088	0.050
-448.909	-168.443	0.287	0.014
-447.895	-71.617	-0.329	-0.161
-446.880	64.841	0.123	0.163
-445.865	-0.543	-0.078	0.073
-444.851	800.000	-0.141	-0.543
-443.836	57.026	0.125	-0.160
-442.822	-33.015	0.117	-0.085
-441.807	-153.371	-0.319	-0.029
-440.792	800.000	-0.083	0.359
-439.778	-52.274	-0.372	-0.226
-438.763	303.897	-0.082	0.200
-437.749	139.140	0.191	0.331
-436.734	-16.143	-0.102	-0.085
-435.719	182.444	-0.143	0.278
-434.705	218.657	-0.303	0.637
-433.690	223.617	-0.009	0.020
-432.676	91.481	0.146	0.215
-431.661	-107.664	-0.122	0.035
-430.646	247.260	-0.067	0.148
-429.632	-63.537	-0.151	0.081
-428.617	-87.706	0.362	0.143
-427.603	440.146	-0.098	0.283
-426.588	217.731	-0.050	-0.105
-425.573	-22.872	0.159	0.125
-424.559	800.000	0.203	0.838
-423.544	-110.560	-0.208	-0.056
-422.530	-13.434	-0.034	-0.029
-421.515	-52.143	-0.275	0.167
-420.500	-136.103	-0.307	-0.047
-419.486	-78.154	0.599	-0.269
-418.471	-33.434	0.040	-0.029
-417.457	-106.955	0.163	-0.047
-416.442	-81.879	-0.395	-0.169
-415.428	-200.000	-0.067	-0.450
-414.413	168.106	-0.116	-0.218
-413.398	204.156	0.215	0.437
-412.384	-163.796	0.401	0.024
-411.369	184.851	-0.087	-0.170
-410.355	-166.391	-0.327	-0.018
-409.340	-89.173	-0.141	0.054
-408.325	-48.570	0.156	-0.098
-407.311	777.790	-0.043	0.156
-406.296	457.523	-0.064	-0.188
-405.282	-13.332	-0.169	0.144
-404.267	800.000	0.049	-0.206
-403.252	-128.451	0.249	0.046
-402.238	-117.703	0.064	-0.015
-401.223	-84.554	0.317	-0.130
-400.209	-19.502	0.146	-0.118
-399.194	571.960	-0.121	-0.390
-398.179	-0.716	0.275	0.255
-397.165	-18.640	0.189	-0.154
-396.150	111.150	0.220	-0.348
-395.136	-114.002	0.174	-0.044
-394.121	-36.428	-0.289	0.204
-393.106	-56.750	0.128	-0.074
-392.092	-124.076	0.106	-0.022
-391.077	-200.000	-0.023	-0.356
-390.063	292.466	0.130	-0.311
-389.048	402.880	0.084	0.233
-388.033	-133.380	-0.431	-0.070
-387.019	-188.069	0.196	-0.003
-386.004	-103.702	-0.297	0.091
-384.990	-110.799	0.113	-0.030
-383.975	-200.000	-0.057	0.407
-382.960	410.923	0.105	-0.294
-381.946	205.200	-0.118	0.242
-380.931	16.305	0.360	0.372
-379.917	-58.897	-0.421	0.237
-378.902	800.000	-0.091	0.405
-377.888	-61.476	-0.206	-0.113
-376.873	-76.134	-0.172	0.079
-375.858	215.723	-0.136	0.284
-374.844	703.963	0.123	0.426
-373.829	9.294	-0.258	-0.255
-372.815	-135.252	-0.463	-0.072
-371.800	-104.322	0.131	0.040
-370.785	-200.000	0.045	-0.386
-369.771	202.885	-0.057	-0.115
-368.756	800.000	0.054	-0.251
-367.742	-155.752	-0.562	-0.046
-366.727	-115.878	0.581	0.141
-365.712	-86.576	0.146	-0.058
-364.698	-9.553	-0.123	0.107
-363.683	-72.312	-0.385	0.186
-362.669	-128.511	0.352	-0.065
-361.654	-23.551	0.226	0.177
-360.639	-74.485	-0.281	-0.132
-359.625	800.000	0.014	-0.057
-358.610	-124.508	0.143	-0.029
-357.596	-167.317	0.151	-0.008
-356.581	-138.482	-0.330	-0.047
-355.566	-21.071	-0.622	-0.497
-354.552	-73.743	0.472	0.224
-353.537	96.490	0.210	0.315
-352.523	3.418	-0.130	0.124
-351.508	-128.196	0.380	0.070
-350.493	141.868	-0.049	-0.085
-349.479	800.000	0.062	0.274
-348.464	800.000	-0.101	-0.375
-347.450	800.000	-0.090	0.374
-346.435	321.117	-0.090	0.225
-345.420	44.189	0.087	-0.105
-344.406	-200.000	-0.003	-0.128
-343.391	10.559	0.277	-0.276
-342.377	-200.000	-0.018	-0.158
-341.362	22.711	-0.211	-0.226
-340.348	17.378	-0.146	-0.151
-339.333	1.316	0.145	0.136
-338.318	-133.584	0.089	-0.014
-337.304	98.076	-0.206	0.310
-336.289	680.162	0.053	-0.180
-335.275	-22.585	-0.089	-0.070
-334.260	70.000	-0.331	-0.447
-333.245	51.991	-0.324	-0.404
-332.231	253.406	0.046	-0.103
-331.216	-200.000	-0.015	0.278
-330.202	800.000	0.092	-0.380
-329.187	6.540	-0.301	-0.292
-328.172	-200.000	0.041	-0.307
-327.158	169.097	0.089	-0.166
-326.143	426.550	0.187	-0.530
-325.129	155.024	-0.137	-0.246
-324.114	-200.000	0.073	-0.539
-323.099	-74.244	-0.205	-0.097
-322.085	45.538	0.087	0.105
-321.070	228.736	0.170	0.364
-320.056	800.000	-0.050	0.190
-319.041	-143.473	-0.232	0.029
-318.026	-200.000	0.049	0.504
-317.012	-97.616	-0.437	0.147
-315.997	-112.462	-0.550	0.142
-314.983	-200.000	0.026	-0.250
-313.968	128.347	-0.182	0.302
-312.953	-128.907	0.246	-0.045
-311.939	-154.134	0.150	-0.013
-310.924	32.847	0.308	0.348
-309.910	-75.257	-0.152	0.071
-308.895	-54.447	-0.464	-0.274
-307.880	-23.628	-0.068	-0.053
-306.866	-140.334	0.086	0.012
-305.851	-200.000	-0.004	-0.213
-304.837	66.524	0.207	-0.275
-303.822	107.463	-0.096	-0.149
-302.807	-95.680	-0.433	-0.150
-301.793	-106.677	0.332	0.096
-300.778	459.980	0.048	-0.140
-299.764	-171.124	-0.532	0.023
-298.749	575.954	-0.132	-0.423
-297.735	-87.318	-0.535	0.211
-296.720	-200.000	0.016	-0.141
-295.705	705.428	-0.055	-0.191
-294.691	-200.000	-0.001	-0.092
-293.676	-93.955	-0.263	0.094
-292.662	-1.196	0.224	0.206
-291.647	15.203	0.269	0.275
-290.632	-123.619	-0.180	0.037
-289.618	-39.241	0.087	0.059
-288.603	-3.629	0.265	0.240
-287.589	-119.942	0.287	0.064
-286.574	168.982	0.095	-0.177
-285.559	-23.319	-0.227	0.177
-284.545	157.748	-0.132	0.240
-283.530	-200.000	-0.020	0.145
-282.516	124.575	-0.137	0.225
-281.501	168.825	0.204	-0.381
-280.486	718.534	-0.052	0.182
-279.472	-91.550	-0.636	-0.235
-278.457	-24.040	-0.432	-0.336
-277.443	-131.345	0.546	0.093
-276.428	800.000	-0.051	-0.280
-275.413	-75.349	-0.413	0.191
-274.399	77.376	0.375	0.521
-273.384	1.449	-0.266	0.249
-272.370	309.844	-0.140	-0.343
-271.355	800.000	0.050	0.190
-270.340	37.276	0.178	-0.206
-269.326	-74.550	0.548	-0.256
-268.311	-139.007	0.139	0.019
-267.297	-66.443	-0.313	-0.161
-266.282	-143.350	-0.019	0.002
-265.267	-130.661	0.645	0.112
-264.253	-200.000	0.028	-0.166
-263.238	0.111	0.225	-0.209
-262.224	205.084	0.080	0.162
-261.209	-6.625	0.310	-0.275
-260.195	-134.205	0.131	-0.021
-259.180	218.992	0.036	0.076
-258.165	-157.296	0.311	-0.024
-257.151	-20.402	0.576	-0.461
-256.136	204.133	0.207	0.420
-255.122	-148.650	-0.260	0.027
-254.107	180.061	-0.009	0.017
-253.092	488.961	-0.061	-0.183
-252.078	51.322	-0.026	-0.032
-251.063	105.257	0.166	-0.255
-250.049	-48.922	-0.217	-0.135
-249.034	10.565	-0.251	0.249
-248.019	272.722	-0.178	-0.410
-247.005	800.000	0.065	-0.238
-245.990	-200.000	0.025	-0.373
-244.976	371.836	-0.119	0.317
-243.961	-134.925	-0.344	-0.054
-242.946	-111.810	0.146	0.038
-241.932	-93.930	-0.539	0.192
-240.917	-6.162	0.354	0.314
-239.903	-60.105	0.312	0.173
-238.888	-147.387	-0.312	-0.034
-237.873	105.189	0.193	-0.297
-236.859	-73.882	0.392	0.185
-235.844	-200.000	0.003	-0.566
-234.830	-110.712	-0.120	-0.032
-233.815	762.214	0.131	0.465
-232.800	-57.790	0.179	0.102
-231.786	12.834	-0.155	-0.156
-230.771	595.129	-0.100	-0.324
-229.757	-71.500	-0.196	-0.095
-228.742	-120.652	0.184	0.040
-227.727	800.000	0.127	0.491
-226.713	-70.810	0.244	0.119
-225.698	-81.139	-0.197	0.084
-224.684	-22.845	0.198	0.155
-223.669	-200.000	0.010	0.190
-222.655	558.388	0.068	0.216
-221.640	-47.337	0.089	-0.056
-220.625	476.262	-0.027	0.078
-219.611	-79.321	0.429	-0.188
-218.596	777.504	-0.129	0.461
-217.582	-61.672	0.350	0.190
-216.567	-53.328	0.332	0.197
-215.552	132.194	0.243	0.409
-214.538	198.697	0.123	-0.246
-213.523	-200.000	-0.022	0.372
-212.509	-61.728	-0.479	-0.260
-211.494	-157.670	0.195	-0.015
-210.479	-150.555	-0.184	-0.018
-209.465	-124.984	0.552	-0.109
-208.450	-62.349	-0.336	0.181
-207.436	-120.343	0.099	0.022
-206.421	800.000	0.055	0.272
-205.406	-200.000	0.032	0.239
-204.392	800.000	0.154	0.586
-203.377	-129.567	0.306	0.055
-202.363	-200.000	-0.085	-0.590
-201.348	487.649	0.031	0.092
-200.333	-119.232	0.048	-0.011
-199.319	-98.578	0.459	0.151
-198.304	51.653	0.165	-0.205
-197.290	61.661	-0.258	-0.333
-196.275	42.868	0.144	0.170
-195.260	259.649	0.078	0.177
-194.246	-136.514	-0.119	-0.018
-193.231	-81.348	0.164	-0.070
-192.217	-15.102	0.172	-0.143
-191.202	377.974	0.086	0.231
-190.187	-200.000	-0.016	0.238
-189.173	-58.981	-0.393	0.220
-188.158	-200.000	0.005	0.535
-187.144	-122.367	-0.223	0.047
-186.129	166.832	-0.034	-0.064
-185.114	-80.001	0.446	-0.194
-184.100	-9.682	0.297	0.257
-183.085	-200.000	-0.052	-0.406
-182.071	-200.000	-0.011	-0.445
-181.056	800.000	0.087	0.338
-180.042	-4.634	-0.113	-0.101
-179.027	-1.522	-0.107	0.098
-178.012	206.132	0.048	-0.097
-176.998	439.031	-0.157	0.448
-175.983	-140.608	-0.195	-0.026
-174.969	-200.000	-0.002	0.035
-173.954	44.432	-0.030	-0.036
-172.939	-115.803	0.420	0.101
-171.925	-85.744	-0.306	0.123
-170.910	724.381	0.098	0.340
-169.896	364.928	-0.161	0.424
-168.881	778.138	0.158	0.564
-167.866	800.000	0.134	0.723
-166.852	535.012	-0.152	0.471
-165.837	-35.641	0.264	-0.185
-164.823	-23.659	0.360	-0.280
-163.808	433.174	-0.071	0.200
-162.793	-150.531	-0.139	-0.014
-161.779	-200.000	-0.006	-0.121
-160.764	800.000	0.119	-0.541
-159.750	-3.407	-0.142	-0.128
-158.735	800.000	0.085	0.439
-157.720	48.504	0.403	0.490
-156.706	26.495	0.090	0.098
-155.691	-157.583	0.369	0.028
-154.677	-1.546	-0.092	-0.084
-153.662	-158.497	-0.545	-0.040
-152.647	-20.876	0.473	-0.376
-151.633	-200.000	0.046	0.330
-150.618	-139.697	-0.518	-0.071
-149.604	-4.783	-0.527	0.471
-148.589	-99.337	-0.294	-0.096
-147.574	10.688	0.274	-0.271
-146.560	-200.000	-0.017	0.122
-145.545	-19.323	-0.290	-0.233
-144.531	-200.000	0.009	0.252
-143.516	474.055	-0.053	0.157
-142.502	-143.799	0.217	0.026
-141.487	83.433	0.298	0.421
-140.472	-20.836	0.135	-0.107
-139.458	-5.484	-0.337	0.300
-138.443	27.037	-0.122	-0.133
-137.429	-184.763	0.679	-0.014
-136.414	-116.607	-0.394	0.093
-135.399	800.000	0.066	-0.318
-134.385	11.742	-0.126	-0.126
-133.370	-86.332	0.449	0.178
-132.356	558.765	0.212	-0.667
-131.341	499.010	-0.103	-0.308
-130.326	347.203	-0.192	0.493
-129.312	-200.000	-0.009	-0.062
-128.297	-162.999	0.304	0.019
-127.283	540.694	-0.038	0.117
-126.268	-81.413	-0.172	-0.073
-125.253	-124.215	-0.699	-0.141
-124.239	394.842	-0.117	0.318
-123.224	778.804	-0.054	-0.193
-122.210	-66.209	-0.163	0.084
-121.195	-158.228	0.244	-0.018
