DTS Sentinel unit serial number:	SN409020Multiplexer serial number:	ORYXHardware model number:	OX4-SRSoftware version number:	ORYX F/W v3.00 Oryx Data Collector v3.7.2.0data status	okinstallation	HaddamTimeLapsedifferential loss correction	single-endedforward channel	channel 3reverse channel	N/Adate	2011/06/22time	04:21:17forward acquisition time	30.00reverse acquisition time	0.00gamma	498.7831k internal	0.1752k external	0.1752temperature offset calibration	1.0074default loss term (dB/km)	0.3790temperature slope calibration	1.3530multiplexer offset coefficient	1.0000multiplexer slope coefficient	1.0000fibre end	0.00T internal ref (°C)	22.62T ext. ref 1 (°C)	18.25T ext. ref 2 (°C)	0.10length (m)	temperature (°C)	Stokes	anti-Stokes-747.200	18.594	-0.347	-0.369
-746.185	-64.435	0.147	0.079
-745.171	800.000	-0.126	0.507
-744.156	21.770	-0.391	0.423
-743.142	244.510	-0.183	0.409
-742.127	-80.044	0.659	0.292
-741.112	-200.000	0.002	-0.414
-740.098	113.189	0.095	-0.154
-739.083	95.667	0.282	-0.427
-738.069	-121.067	-0.710	0.157
-737.054	-46.640	0.107	0.069
-736.039	26.583	-0.547	-0.608
-735.025	183.154	0.280	-0.551
-734.010	-86.703	0.248	0.100
-732.996	-37.142	-0.094	-0.066
-731.981	36.692	0.139	-0.162
-730.966	-200.000	0.021	0.212
-729.952	24.308	0.156	0.171
-728.937	-84.840	0.555	-0.230
-727.923	385.721	-0.089	-0.244
-726.908	-99.303	-0.545	0.181
-725.894	254.937	0.197	-0.450
-724.879	15.509	-0.173	0.180
-723.864	-105.655	0.014	0.004
-722.850	193.856	0.172	0.347
-721.835	74.262	-0.219	0.306
-720.821	39.778	0.282	-0.336
-719.806	-12.016	-0.484	-0.420
-718.791	-13.773	0.131	-0.112
-717.777	-53.871	-0.284	0.171
-716.762	418.469	-0.231	0.657
-715.748	-120.367	-0.492	0.110
-714.733	149.049	-0.152	-0.274
-713.718	236.848	-0.105	0.231
-712.704	-62.414	0.486	0.267
-711.689	-152.578	-0.305	-0.029
-710.675	-30.856	-0.190	0.142
-709.660	-96.248	-0.542	-0.189
-708.645	-200.000	0.003	0.260
-707.631	-200.000	0.027	-0.444
-706.616	-200.000	0.032	-0.571
-705.602	-142.077	-0.229	-0.030
-704.587	-102.662	0.390	0.123
-703.572	-38.917	0.369	-0.257
-702.558	38.374	-0.423	-0.500
-701.543	32.151	0.292	-0.333
-700.529	-37.654	0.075	-0.053
-699.514	-113.631	0.443	-0.114
-698.499	-62.791	0.468	-0.256
-697.485	800.000	-0.075	0.336
-696.470	-71.847	-0.572	-0.281
-695.456	-153.828	-0.418	-0.037
-694.441	800.000	-0.224	0.876
-693.426	-131.135	0.329	-0.058
-692.412	47.158	-0.301	0.371
-691.397	-17.593	-0.152	-0.127
-690.383	-98.500	0.311	0.105
-689.368	800.000	-0.087	0.328
-688.354	-156.622	-0.119	-0.010
-687.339	114.159	-0.076	0.123
-686.324	-79.244	0.172	0.077
-685.310	-200.000	0.073	-0.503
-684.295	52.296	0.394	-0.498
-683.281	-200.000	0.052	-0.498
-682.266	-145.641	-0.438	-0.051
-681.251	204.108	0.146	0.301
-680.237	95.998	0.344	0.522
-679.222	-138.618	0.545	-0.078
-678.208	800.000	-0.113	0.424
-677.193	119.282	-0.049	0.080
-676.178	141.554	-0.063	-0.111
-675.164	-109.599	-0.338	-0.094
-674.149	99.039	0.314	0.481
-673.135	-153.215	0.087	-0.008
-672.120	-48.867	0.281	0.178
-671.105	-79.718	0.477	0.212
-670.091	431.078	-0.041	0.119
-669.076	33.300	0.071	-0.082
-668.062	-114.670	0.270	-0.068
-667.047	-10.169	-0.267	0.234
-666.032	349.438	-0.093	0.245
-665.018	19.155	0.383	0.407
-664.003	484.292	-0.059	-0.180
-662.989	-105.748	-0.173	0.051
-661.974	-50.765	-0.254	-0.158
-660.959	-200.000	0.013	0.175
-659.945	-61.523	-0.171	0.095
-658.930	-36.657	-0.557	0.395
-657.916	-23.105	-0.286	0.227
-656.901	800.000	0.091	-0.366
-655.886	260.878	-0.212	-0.487
-654.872	-137.714	0.546	0.080
-653.857	-200.000	0.022	0.438
-652.843	251.816	-0.058	-0.132
-651.828	800.000	0.028	-0.155
-650.814	-149.720	-0.249	0.026
-649.799	46.228	-0.362	-0.445
-648.784	195.797	-0.186	-0.375
-647.770	-69.906	0.130	0.065
-646.755	512.887	-0.215	-0.665
-645.741	34.241	-0.124	0.143
-644.726	-132.693	-0.361	-0.061
-643.711	800.000	0.034	0.153
-642.697	-39.533	0.287	0.199
-641.682	-56.844	0.414	-0.241
-640.668	-36.065	-0.935	-0.666
-639.653	789.960	0.053	0.195
-638.638	132.641	0.038	-0.065
-637.624	-123.525	-0.481	-0.100
-636.609	-200.000	0.002	0.033
-635.595	-200.000	-0.023	0.165
-634.580	-145.040	0.380	-0.045
-633.565	183.475	-0.124	-0.243
-632.551	-200.000	0.022	0.141
-631.536	-132.376	0.084	-0.014
-630.522	33.796	0.139	0.160
-629.507	211.224	-0.246	-0.513
-628.492	-150.816	0.139	0.014
-627.478	-89.620	0.124	-0.048
-626.463	-46.158	0.345	-0.224
-625.449	-21.738	0.377	0.303
-624.434	800.000	0.039	0.195
-623.419	34.826	-0.236	-0.273
-622.405	-127.165	-0.284	-0.054
-621.390	466.921	0.074	-0.222
-620.376	800.000	-0.023	0.119
-619.361	-119.871	-0.360	-0.081
-618.346	800.000	-0.058	-0.228
-617.332	800.000	-0.092	-0.391
-616.317	800.000	-0.039	-0.185
-615.303	336.604	0.217	0.559
-614.288	-132.588	-0.419	-0.070
-613.273	-59.966	-0.233	-0.131
-612.259	800.000	-0.106	0.457
-611.244	150.440	0.121	0.218
-610.230	-50.541	-0.296	-0.184
-609.215	-44.138	0.197	-0.130
-608.201	-153.882	-0.195	0.017
-607.186	-200.000	-0.335	0.001
-606.171	56.143	-0.263	0.338
-605.157	150.837	-0.285	-0.513
-604.142	13.746	-0.258	-0.264
-603.128	5.480	-0.271	0.264
-602.113	-48.763	0.417	-0.264
-601.098	-200.000	0.014	-0.220
-600.084	-126.016	0.489	-0.096
-599.069	-3.784	0.235	0.215
-598.055	177.410	-0.207	0.398
-597.040	145.340	0.274	0.485
-596.025	53.205	-0.208	0.263
-595.011	337.238	0.061	-0.158
-593.996	-154.066	0.725	0.064
-592.982	-200.000	-0.045	-0.656
-591.967	800.000	0.063	-0.358
-590.952	-200.000	0.008	-0.246
-589.938	-32.035	-0.414	0.305
-588.923	-16.348	0.391	0.327
-587.909	800.000	0.078	0.397
-586.894	275.506	0.092	0.216
-585.879	529.101	0.165	0.515
-584.865	17.385	-0.034	0.036
-583.850	-200.000	-0.015	0.089
-582.836	-113.445	-0.507	0.130
-581.821	-148.318	-0.127	-0.014
-580.806	-112.904	-0.463	-0.120
-579.792	-109.546	0.174	-0.048
-578.777	-175.251	0.441	0.016
-577.763	-159.252	-0.272	0.020
-576.748	11.936	0.052	0.053
-575.733	800.000	0.109	-0.400
-574.719	-94.480	-0.324	-0.116
-573.704	153.483	0.025	0.045
-572.690	-58.624	-0.145	0.083
-571.675	107.957	-0.214	-0.337
-570.661	341.636	0.076	0.197
-569.646	-11.395	-0.299	0.259
-568.631	-27.417	-0.155	0.119
-567.617	182.093	-0.068	0.133
-566.602	-25.449	-0.261	0.203
-565.588	-200.000	-0.046	-0.512
-564.573	800.000	0.050	-0.213
-563.558	-197.132	-0.690	0.006
-562.544	-17.048	0.253	0.210
-561.529	186.906	-0.130	0.256
-560.515	-146.796	-0.062	0.007
-559.500	-140.139	-0.264	0.036
-558.485	664.267	-0.025	-0.084
-557.471	-120.868	0.709	0.156
-556.456	-200.000	-0.025	0.259
-555.442	546.049	0.134	-0.423
-554.427	-21.361	-0.418	0.336
-553.412	219.727	-0.185	0.391
-552.398	-200.000	0.028	0.618
-551.383	-70.284	-0.330	0.164
-550.369	800.000	-0.113	0.469
-549.354	800.000	0.110	0.521
-548.339	89.179	-0.388	-0.570
-547.325	-27.889	0.367	0.280
-546.310	269.875	0.119	-0.277
-545.296	-59.337	-0.715	-0.404
-544.281	-134.618	-0.245	0.039
-543.266	67.437	-0.272	-0.366
-542.252	-96.932	-0.339	-0.117
-541.237	569.142	-0.118	-0.380
-540.223	270.664	-0.091	-0.212
-539.208	84.958	-0.198	-0.286
-538.193	-80.955	-0.368	-0.160
-537.179	-148.038	-0.193	0.021
-536.164	-82.820	0.262	-0.111
-535.150	-82.231	0.279	-0.119
-534.135	800.000	0.145	0.606
-533.121	-116.246	0.145	0.035
-532.106	-94.843	-0.423	0.150
-531.091	-38.161	-0.213	-0.148
-530.077	-14.045	0.525	0.446
-529.062	-44.310	-0.612	0.402
-528.048	-125.103	-0.240	-0.048
-527.033	335.741	0.056	-0.144
-526.018	-104.867	-0.089	-0.027
-525.004	-29.527	0.291	-0.218
-523.989	-200.000	0.008	0.284
-522.975	131.409	0.177	0.301
-521.960	320.032	0.124	-0.311
-520.945	-45.317	-0.340	-0.222
-519.931	2.382	-0.100	0.095
-518.916	800.000	0.041	-0.189
-517.902	565.420	0.052	-0.168
-516.887	71.315	-0.099	0.135
-515.872	-71.285	-0.263	-0.129
-514.858	8.672	0.101	0.101
-513.843	43.226	0.113	0.135
-512.829	89.987	0.314	0.463
-511.814	39.767	0.364	-0.429
-510.799	-144.695	-0.120	0.014
-509.785	139.216	-0.252	-0.437
-508.770	-36.870	-0.035	0.024
-507.756	-66.483	-0.415	-0.216
-506.741	-39.635	-0.325	-0.223
-505.726	-108.204	0.212	-0.060
-504.712	-200.000	0.030	0.436
-503.697	-125.811	-0.040	0.008
-502.683	-28.504	-0.500	-0.379
-501.668	330.275	0.149	0.378
-500.653	541.942	-0.094	0.296
-499.639	-99.163	0.440	0.145
-498.624	607.135	0.086	0.284
-497.610	-31.220	-0.093	-0.069
-496.595	26.256	-0.310	-0.341
-495.581	-142.288	0.198	-0.025
-494.566	800.000	0.099	0.390
-493.551	-38.068	-0.263	0.183
-492.537	686.101	-0.066	-0.229
-491.522	-200.000	-0.011	0.395
-490.508	-19.328	-0.163	-0.133
-489.493	-200.000	0.017	-0.560
-488.478	-47.133	0.165	0.105
-487.464	-108.473	-0.296	-0.083
-486.449	-44.627	0.065	-0.043
-485.435	-131.852	0.240	0.041
-484.420	-68.024	0.046	0.023
-483.405	26.018	0.302	-0.331
-482.391	-92.337	-0.792	0.291
-481.376	213.620	0.134	-0.279
-480.362	145.753	0.202	0.357
-479.347	47.606	-0.342	-0.420
-478.332	-56.803	0.170	-0.099
-477.318	62.395	0.094	-0.124
-476.303	-200.000	-0.029	-0.201
-475.289	-100.686	0.386	-0.124
-474.274	-91.091	-0.057	-0.021
-473.259	572.821	-0.100	0.321
-472.245	22.864	-0.061	0.066
-471.230	-72.040	0.221	0.107
-470.216	32.726	0.034	-0.039
-469.201	-115.340	0.246	0.061
-468.186	132.993	0.129	0.219
-467.172	-143.906	-0.449	-0.055
-466.157	-200.000	-0.006	0.050
-465.143	38.144	-0.036	0.042
-464.128	111.694	0.052	0.082
-463.113	170.976	0.177	-0.334
-462.099	-200.000	0.035	-0.385
-461.084	-66.970	0.535	-0.276
-460.070	104.364	0.150	-0.233
-459.055	-71.884	0.110	-0.053
-458.040	-61.187	0.426	0.235
-457.026	-76.320	-0.628	-0.289
-456.011	-15.917	-0.540	-0.450
-454.997	27.824	0.180	-0.199
-453.982	-76.308	0.194	0.089
-452.968	31.502	-0.192	0.217
-451.953	107.735	-0.196	0.306
-450.938	-0.984	-0.138	-0.129
-449.924	-67.817	0.146	-0.075
-448.909	-7.710	0.250	-0.221
-447.895	39.235	0.032	-0.038
-446.880	279.371	-0.012	-0.029
-445.865	20.221	-0.226	0.239
-444.851	-66.712	-0.243	0.126
-443.836	137.920	-0.074	-0.128
-442.822	-181.095	0.529	0.014
-441.807	800.000	-0.111	-0.476
-440.792	-144.512	0.193	-0.023
-439.778	-62.818	0.141	-0.076
-438.763	-70.898	-0.614	0.302
-437.749	-90.072	0.386	0.147
-436.734	-143.948	-0.099	0.012
-435.719	-69.731	0.153	-0.076
-434.705	-200.000	-0.001	-0.282
-433.690	8.523	-0.142	0.140
-432.676	-102.988	-0.066	0.020
-431.661	-78.845	-0.118	-0.053
-430.646	42.235	-0.194	-0.231
-429.632	-200.000	0.017	-0.411
-428.617	-200.000	0.012	-0.349
-427.603	61.327	-0.175	0.228
-426.588	-155.526	0.549	-0.046
-425.573	-200.000	-0.010	0.344
-424.559	2.314	-0.570	-0.540
-423.544	168.412	-0.124	-0.231
-422.530	69.775	-0.225	0.304
-421.515	-88.576	0.616	-0.239
-420.500	180.550	0.158	-0.306
-419.486	-162.772	0.262	0.017
-418.471	800.000	0.059	-0.343
-417.457	15.757	-0.280	-0.289
-416.442	49.007	0.216	-0.266
-415.428	-75.963	-0.504	-0.233
-414.413	10.904	0.429	-0.429
-413.398	110.060	0.104	-0.164
-412.384	-128.482	-0.209	-0.039
-411.369	-150.222	-0.381	-0.038
-410.355	41.758	0.125	0.149
-409.340	-71.736	-0.306	-0.149
-408.325	175.318	-0.081	-0.155
-407.311	-13.580	-0.166	-0.141
-406.296	-200.000	0.043	0.595
-405.282	240.603	0.097	0.213
-404.267	-23.625	-0.135	0.106
-403.252	-84.742	0.400	0.164
-402.238	-173.480	-0.193	0.008
-401.223	-110.410	0.310	0.084
-400.209	-110.049	0.300	-0.082
-399.194	800.000	-0.109	-0.498
-398.179	800.000	0.150	-0.650
-397.165	146.714	0.069	0.122
-396.150	52.523	0.175	-0.220
-395.136	3.327	0.216	0.206
-394.121	268.585	-0.132	0.305
-393.106	-116.917	0.272	0.065
-392.092	56.568	0.225	0.287
-391.077	34.670	-0.292	0.335
-390.063	-200.000	0.020	0.458
-389.048	40.952	0.134	0.158
-388.033	108.718	-0.085	0.134
-387.019	78.040	-0.239	-0.334
-386.004	109.821	-0.164	-0.259
-384.990	-200.000	-0.000	0.029
-383.975	309.290	-0.053	0.131
-382.960	-68.665	0.361	-0.182
-381.946	24.802	-0.523	-0.568
-380.931	-72.723	-0.348	-0.167
-379.917	17.195	-0.534	0.554
-378.902	251.378	0.165	-0.369
-377.888	-200.000	-0.071	-0.435
-376.873	-73.386	-0.202	-0.096
-375.858	358.932	0.081	0.213
-374.844	-200.000	-0.112	0.800
-373.829	-182.293	-0.287	0.007
-372.815	-55.147	-0.149	0.087
-371.800	-24.862	0.433	0.336
-370.785	-49.103	-0.061	0.038
-369.771	-92.189	-0.097	-0.036
-368.756	-200.000	-0.089	-0.796
-367.742	-200.000	-0.021	-0.131
-366.727	197.213	-0.173	0.346
-365.712	-200.000	0.007	0.113
-364.698	-58.556	0.331	-0.188
-363.683	173.249	0.181	-0.342
-362.669	349.084	0.150	0.390
-361.654	-200.000	0.041	0.301
-360.639	-200.000	-0.013	0.426
-359.625	-197.976	0.551	-0.004
-358.610	800.000	-0.110	-0.610
-357.596	800.000	0.019	-0.085
-356.581	800.000	0.076	-0.338
-355.566	161.012	-0.155	0.284
-354.552	-43.211	-0.180	-0.119
-353.537	319.500	0.123	0.307
-352.523	590.652	0.064	-0.208
-351.508	103.073	-0.049	-0.075
-350.493	103.297	0.090	-0.138
-349.479	-100.645	-0.533	-0.171
-348.464	-115.823	0.397	0.096
-347.450	-143.115	-0.189	-0.024
-346.435	-82.798	-0.305	0.128
-345.420	-20.693	-0.362	0.290
-344.406	-152.975	0.175	0.016
-343.391	-164.188	-0.292	-0.017
-342.377	-164.000	0.156	0.009
-341.362	-32.440	0.114	-0.083
-340.348	384.386	0.177	0.480
-339.333	-31.348	0.460	0.338
-338.318	-153.812	0.454	-0.040
-337.304	342.326	0.116	-0.298
-336.289	-152.698	0.402	-0.037
-335.275	-200.000	-0.010	-0.434
-334.260	-106.286	0.280	-0.081
-333.245	-200.000	0.008	-0.314
-332.231	-2.564	-0.158	0.144
-331.216	221.845	0.080	-0.170
-330.202	-77.796	0.124	-0.056
-329.187	-171.365	-0.354	-0.015
-328.172	-112.704	0.261	-0.067
-327.158	-81.176	-0.237	-0.102
-326.143	800.000	-0.096	0.355
-325.129	-107.662	0.287	-0.081
-324.114	-111.495	0.445	0.117
-323.099	-21.126	0.180	0.143
-322.085	143.585	0.175	0.305
-321.070	-116.303	-0.294	-0.071
-320.056	259.610	-0.090	-0.203
-319.041	16.711	0.057	0.059
-318.026	800.000	0.057	0.302
-317.012	-56.707	-0.290	0.167
-315.997	613.589	0.065	0.212
-314.983	-50.797	0.480	0.294
-313.968	-67.946	-0.376	0.191
-312.953	-42.222	-0.332	0.221
-311.939	-200.000	-0.057	0.372
-310.924	800.000	-0.147	0.670
-309.910	-200.000	-0.002	-0.338
-308.895	-47.194	0.296	0.188
-307.880	-60.689	0.661	-0.365
-306.866	43.865	0.216	0.258
-305.851	36.970	0.189	-0.219
-304.837	-200.000	-0.008	0.167
-303.822	703.712	-0.052	0.180
-302.807	800.000	0.087	-0.360
-301.793	30.818	0.325	0.363
-300.778	59.672	0.254	0.327
-299.764	-200.000	0.264	-0.000
-298.749	-88.719	0.277	-0.107
-297.735	-82.414	0.317	-0.134
-296.720	-134.891	0.293	-0.046
-295.705	-78.738	-0.407	-0.180
-294.691	-200.000	0.012	-0.135
-293.676	-119.950	-0.214	0.048
-292.662	-63.994	-0.323	-0.172
-291.647	-200.000	0.014	-0.419
-290.632	251.704	0.051	-0.114
-289.618	36.222	-0.251	0.289
-288.603	86.788	0.250	0.360
-287.589	-57.226	-0.463	-0.265
-286.574	635.950	0.094	0.313
-285.559	-145.922	0.149	-0.017
-284.545	-155.003	0.560	0.047
-283.530	-24.947	0.408	-0.315
-282.516	-31.166	-0.143	-0.105
-281.501	-98.330	0.425	0.141
-280.486	-192.390	0.226	-0.003
-279.472	-68.335	0.243	-0.122
-278.457	-126.499	0.306	0.059
-277.443	111.578	-0.090	-0.142
-276.428	15.845	-0.114	0.117
-275.413	-200.000	0.279	-0.001
-274.399	-200.000	-0.004	-0.531
-273.384	-200.000	0.001	-0.100
-272.370	-143.694	-0.269	0.033
-271.355	-193.707	-0.130	0.001
-270.340	53.214	0.079	-0.098
-269.326	-37.119	-0.360	-0.251
-268.311	-92.278	0.317	0.116
-267.297	-94.618	-0.418	0.147
-266.282	-51.745	-0.388	-0.235
-265.267	8.851	0.286	0.281
-264.253	41.906	0.166	-0.196
-263.238	-148.429	-0.225	0.024
-262.224	190.213	0.186	0.364
-261.209	294.891	0.055	0.131
-260.195	-128.610	-0.374	0.068
-259.180	-136.844	-0.372	0.055
-258.165	6.249	0.314	0.303
-257.151	-43.014	0.300	-0.198
-256.136	667.973	0.117	-0.398
-255.122	-200.000	0.041	-0.571
-254.107	-200.000	0.019	0.178
-253.092	129.288	0.118	-0.196
-252.078	369.408	0.224	0.594
-251.063	527.222	0.148	-0.457
-250.049	-200.000	0.001	-0.090
-249.034	154.329	0.110	-0.197
-248.019	27.303	0.154	0.169
-247.005	4.648	-0.329	0.314
-245.990	800.000	-0.112	0.606
-244.976	-113.864	0.221	-0.056
-243.961	-122.370	0.108	-0.023
-242.946	-35.802	0.355	0.250
-241.932	-35.197	-0.361	0.256
-240.917	72.135	-0.194	0.263
-239.903	-22.558	0.297	0.234
-238.888	18.263	-0.146	-0.152
-237.873	-200.000	0.016	0.246
-236.859	-167.247	-0.129	0.007
-235.844	-200.000	0.312	0.002
-234.830	800.000	0.117	0.439
-233.815	-78.432	-0.285	0.126
-232.800	-55.684	0.326	0.189
-231.786	800.000	-0.040	0.216
-230.771	376.051	-0.169	0.450
-229.757	552.902	-0.093	0.291
-228.742	88.217	-0.138	0.200
-227.727	332.025	0.080	0.201
-226.713	83.717	-0.114	0.162
-225.698	800.000	0.047	-0.189
-224.684	110.642	-0.132	0.206
-223.669	-5.534	0.051	0.046
-222.655	-64.709	0.269	0.141
-221.640	-200.000	-0.068	-0.427
-220.625	282.493	0.204	-0.477
-219.611	10.832	-0.144	-0.143
-218.596	222.080	-0.196	-0.411
-217.582	-200.000	-0.008	-0.084
-216.567	158.929	-0.151	0.274
-215.552	-72.474	0.066	0.032
-214.538	-200.000	0.017	-0.166
-213.523	-109.657	0.534	-0.145
-212.509	-200.000	-0.015	-0.452
-211.494	800.000	-0.085	0.371
-210.479	-1.349	0.356	-0.326
-209.465	-161.888	0.359	-0.023
-208.450	-10.919	-0.441	0.378
-207.436	-103.844	-0.090	-0.027
-206.421	220.535	0.243	0.508
-205.406	800.000	-0.036	-0.189
-204.392	-155.520	-0.331	0.027
-203.377	24.345	0.054	0.058
-202.363	-59.699	0.326	0.181
-201.348	-6.201	0.117	0.104
-200.333	-134.900	-0.249	-0.039
-199.319	-19.917	-0.228	-0.183
-198.304	-200.000	-0.060	0.564
-197.290	-100.660	0.609	-0.194
-196.275	23.478	-0.049	-0.053
-195.260	-27.559	-0.139	-0.104
-194.246	-1.009	0.162	-0.148
-193.231	-52.000	-0.184	-0.111
-192.217	800.000	0.075	0.282
-191.202	800.000	0.143	0.552
-190.187	-116.265	0.169	-0.040
-189.173	-150.962	-0.873	-0.085
-188.158	-64.145	-0.082	-0.044
-187.144	-120.757	-0.059	-0.013
-186.129	108.901	0.116	-0.181
-185.114	-76.533	0.497	0.226
-184.100	-88.505	0.398	-0.153
-183.085	-66.030	0.203	0.105
-182.071	164.144	0.205	0.377
-181.056	-140.712	-0.442	-0.059
-180.042	-72.363	0.540	-0.258
-179.027	434.193	-0.136	0.386
-178.012	98.741	-0.160	0.240
-176.998	23.658	0.281	-0.300
-175.983	800.000	0.178	0.681
-174.969	-200.000	-0.001	0.116
-173.954	-104.971	-0.483	0.143
-172.939	191.028	-0.261	-0.512
-171.925	-200.000	0.008	-0.167
-170.910	-143.303	0.239	-0.029
-169.896	-113.588	0.648	-0.163
-168.881	-80.620	-0.198	-0.085
-167.866	153.854	0.136	-0.242
-166.852	-64.334	0.196	0.103
-165.837	37.402	0.082	0.094
-164.823	-18.498	-0.072	-0.058
-163.808	71.820	-0.177	-0.239
-162.793	-200.000	-0.034	0.466
-161.779	-101.193	-0.188	0.059
-160.764	21.796	0.104	-0.110
-159.750	65.088	-0.059	-0.077
-158.735	686.012	0.011	0.037
-157.720	-12.866	-0.277	0.234
-156.706	-71.463	0.466	-0.225
-155.691	-56.652	0.312	0.179
-154.677	-200.000	-0.048	0.300
-153.662	-2.012	0.376	-0.342
-152.647	32.744	-0.063	-0.070
-151.633	-200.000	0.004	0.297
-150.618	-89.246	-0.195	-0.074
-149.604	800.000	-0.036	0.142
-148.589	-7.310	0.135	0.118
-147.574	-40.196	0.156	0.105
-146.560	29.416	0.219	0.241
-145.545	209.579	0.128	-0.262
-144.531	-200.000	0.021	0.204
-143.516	-75.521	0.240	0.110
-142.502	15.884	0.504	-0.514
-141.487	-27.762	0.221	-0.166
-140.472	-200.000	0.004	-0.043
-139.458	57.587	0.342	-0.434
-138.443	211.999	-0.070	0.143
-137.429	-25.231	-0.346	-0.265
-136.414	-200.000	-0.018	0.371
-135.399	-12.657	-0.302	0.255
-134.385	-20.540	-0.051	-0.041
-133.370	-143.003	-0.387	-0.048
-132.356	-26.144	-0.248	0.189
-131.341	-125.827	-0.517	-0.100
-130.326	200.749	-0.259	-0.518
-129.312	-160.597	0.163	-0.011
-128.297	106.440	0.204	0.315
-127.283	800.000	0.121	0.443
-126.268	800.000	-0.055	-0.239
-125.253	-115.186	-0.109	0.026
-124.239	-200.000	0.025	-0.303
-123.224	-144.282	-0.471	0.056
-122.210	155.153	0.017	0.030
-121.195	800.000	0.057	0.324
