DTS Sentinel unit serial number:	SN409020Multiplexer serial number:	ORYXHardware model number:	OX4-SRSoftware version number:	ORYX F/W v3.00 Oryx Data Collector v3.7.2.0data status	okinstallation	HaddamTimeLapsedifferential loss correction	single-endedforward channel	channel 3reverse channel	N/Adate	2011/06/21time	21:56:18forward acquisition time	30.00reverse acquisition time	0.00gamma	498.7831k internal	0.1759k external	0.1759temperature offset calibration	1.0074default loss term (dB/km)	0.3790temperature slope calibration	1.3530multiplexer offset coefficient	1.0000multiplexer slope coefficient	1.0000fibre end	0.00T internal ref (°C)	25.16T ext. ref 1 (°C)	19.16T ext. ref 2 (°C)	0.03length (m)	temperature (°C)	Stokes	anti-Stokes-747.200	-92.701	0.519	-0.191
-746.185	174.024	-0.024	-0.045
-745.171	47.510	-0.150	0.184
-744.156	-4.934	0.452	0.411
-743.142	-24.897	-0.420	0.329
-742.127	-3.863	0.397	0.364
-741.112	462.848	0.118	0.350
-740.098	175.859	-0.256	0.493
-739.083	-47.708	-0.261	0.167
-738.069	-73.633	-0.164	-0.079
-737.054	496.274	0.069	0.212
-736.039	225.716	-0.152	0.326
-735.025	246.753	-0.035	-0.079
-734.010	68.697	-0.229	0.310
-732.996	-21.235	0.119	0.096
-731.981	-200.000	-0.001	-0.070
-730.966	800.000	0.077	0.338
-729.952	-200.000	0.028	-0.266
-728.937	-129.466	-0.124	0.023
-727.923	-150.929	0.353	-0.035
-726.908	-13.594	0.063	-0.054
-725.894	465.259	-0.043	-0.127
-724.879	76.541	-0.081	0.114
-723.864	134.191	-0.141	-0.242
-722.850	-32.933	0.103	0.075
-721.835	-111.687	0.265	-0.071
-720.821	-41.267	-0.312	0.212
-719.806	553.891	0.104	0.332
-718.791	-53.445	0.171	0.103
-717.777	-185.574	-0.090	0.002
-716.762	-36.322	-0.171	0.121
-715.748	-121.255	0.146	-0.032
-714.733	231.732	0.282	0.612
-713.718	90.975	-0.227	0.337
-712.704	100.330	0.238	-0.365
-711.689	-121.854	-0.353	-0.076
-710.675	-101.926	-0.475	0.151
-709.660	-152.415	-0.409	0.038
-708.645	-138.833	-0.133	0.019
-707.631	-20.684	-0.318	0.257
-706.616	370.903	-0.153	-0.412
-705.602	800.000	-0.119	-0.551
-704.587	800.000	-0.029	-0.138
-703.572	29.197	-0.259	0.290
-702.558	-163.038	-0.207	0.013
-701.543	-154.577	-0.380	-0.033
-700.529	-150.249	0.513	0.052
-699.514	-76.342	-0.076	0.035
-698.499	-133.075	-0.239	-0.040
-697.485	-98.426	-0.157	0.053
-696.470	-91.900	-0.231	-0.086
-695.456	-200.000	0.062	0.463
-694.441	800.000	0.132	0.625
-693.426	-9.262	-0.455	0.401
-692.412	-52.112	0.274	0.167
-691.397	209.656	0.101	0.210
-690.383	141.935	0.240	0.421
-689.368	-8.182	-0.129	-0.114
-688.354	427.835	0.033	0.095
-687.339	-0.648	-0.162	-0.151
-686.324	-18.240	0.046	0.038
-685.310	658.362	0.044	-0.151
-684.295	-157.151	-0.377	-0.030
-683.281	-20.380	-0.192	0.156
-682.266	-62.116	-0.190	0.104
-681.251	12.267	-0.177	0.180
-680.237	-58.078	0.627	0.360
-679.222	47.610	-0.407	-0.501
-678.208	-79.584	-0.233	0.103
-677.193	-200.000	0.032	-0.496
-676.178	24.921	-0.344	-0.376
-675.164	498.246	0.191	-0.584
-674.149	-200.000	-0.547	-0.000
-673.135	-58.360	-0.492	-0.281
-672.120	43.500	-0.138	-0.166
-671.105	-65.053	0.217	0.115
-670.091	214.665	0.179	-0.376
-669.076	34.432	0.216	-0.249
-668.062	-108.733	-0.322	0.090
-667.047	88.562	-0.173	-0.254
-666.032	33.403	-0.397	0.455
-665.018	800.000	0.039	0.201
-664.003	-89.201	0.238	-0.092
-662.989	-200.000	-0.026	0.314
-661.974	-38.412	-0.348	-0.242
-660.959	-135.227	-0.363	0.057
-659.945	78.022	0.088	-0.124
-658.930	800.000	0.082	0.413
-657.916	-156.379	0.229	0.019
-656.901	-200.000	-0.022	-0.256
-655.886	-96.652	0.527	-0.182
-654.872	25.382	0.145	0.159
-653.857	456.108	0.119	-0.351
-652.843	800.000	-0.067	-0.335
-651.828	-33.128	-0.087	-0.064
-650.814	-84.654	0.189	0.078
-649.799	263.788	0.074	0.170
-648.784	-133.391	0.322	0.053
-647.770	-15.153	-0.134	0.112
-646.755	-195.594	0.505	0.005
-645.741	-99.602	0.378	0.124
-644.726	-134.442	-0.184	-0.029
-643.711	13.382	0.191	-0.195
-642.697	174.178	-0.168	-0.320
-641.682	-42.570	-0.440	0.294
-640.668	331.986	0.069	-0.176
-639.653	-95.557	-0.025	-0.009
-638.638	-4.045	0.184	-0.168
-637.624	-40.976	-0.049	-0.033
-636.609	-200.000	-0.013	0.204
-635.595	-13.683	-0.200	0.170
-634.580	-116.902	0.063	-0.015
-633.565	10.561	-0.344	0.345
-632.551	465.245	-0.150	0.444
-631.536	800.000	-0.012	0.066
-630.522	74.965	0.271	-0.376
-629.507	66.302	-0.198	0.265
-628.492	-101.815	-0.098	0.031
-627.478	-60.038	0.280	0.157
-626.463	125.961	0.153	0.254
-625.449	-141.751	-0.559	-0.073
-624.434	-85.828	0.140	0.057
-623.419	-59.028	-0.121	0.068
-622.405	265.718	-0.063	0.146
-621.390	-94.854	-0.322	-0.114
-620.376	16.849	-0.026	0.027
-619.361	-51.995	0.141	-0.086
-618.346	-200.000	-0.036	-0.289
-617.332	-200.000	0.001	-0.028
-616.317	-104.930	-0.539	-0.161
-615.303	-91.819	0.394	0.146
-614.288	-164.006	0.148	-0.009
-613.273	-138.153	0.508	-0.073
-612.259	800.000	0.036	-0.188
-611.244	225.069	-0.169	-0.362
-610.230	-125.059	-0.365	-0.073
-609.215	222.858	-0.212	-0.452
-608.201	45.374	-0.224	-0.272
-607.186	-120.763	0.693	0.153
-606.171	-31.475	0.296	0.218
-605.157	-9.765	0.753	0.658
-604.142	-157.250	-0.251	0.020
-603.128	-28.762	-0.515	0.389
-602.113	-121.677	0.521	-0.112
-601.098	-98.259	0.340	0.114
-600.084	-105.774	-0.688	0.203
-599.069	-51.397	-0.174	-0.107
-598.055	800.000	-0.031	0.151
-597.040	-85.266	0.353	0.144
-596.025	257.444	0.097	0.220
-595.011	800.000	0.008	0.040
-593.996	-52.804	0.141	-0.085
-592.982	-159.204	-0.169	-0.012
-591.967	-91.816	0.417	0.155
-590.952	-34.189	0.340	0.245
-589.938	-181.054	0.065	-0.002
-588.923	-62.985	0.411	-0.222
-587.909	-159.331	0.232	-0.017
-586.894	-21.782	-0.268	-0.214
-585.879	115.309	0.100	0.161
-584.865	-71.263	-0.361	-0.177
-583.850	-67.937	0.489	0.250
-582.836	-132.246	0.378	-0.064
-581.821	-98.231	0.342	0.115
-580.806	-130.516	0.663	-0.117
-579.792	-114.882	-0.315	0.078
-578.777	800.000	0.155	-0.596
-577.763	-86.633	-0.176	-0.070
-576.748	-76.061	-0.499	-0.231
-575.733	800.000	0.088	0.395
-574.719	800.000	-0.045	-0.236
-573.704	36.629	-0.075	0.087
-572.690	-151.834	0.436	-0.042
-571.675	-10.401	-0.366	-0.318
-570.661	-200.000	-0.001	0.096
-569.646	-14.082	0.139	-0.117
-568.631	-180.720	-0.357	0.009
-567.617	762.609	0.084	0.302
-566.602	153.095	0.127	-0.229
-565.588	-19.057	0.283	0.231
-564.573	-117.086	0.279	-0.066
-563.558	56.266	0.141	0.179
-562.544	-36.275	0.257	-0.182
-561.529	-82.251	0.116	-0.049
-560.515	180.748	0.241	-0.467
-559.500	196.049	-0.194	0.389
-558.485	-53.686	-0.239	0.143
-557.471	96.168	0.204	-0.306
-556.456	-142.471	-0.230	-0.029
-555.442	-200.000	0.001	-0.071
-554.427	-200.000	0.012	-0.390
-553.412	-200.000	0.019	0.149
-552.398	191.536	0.225	-0.447
-551.383	107.841	0.060	-0.094
-550.369	415.510	0.092	-0.259
-549.354	-126.739	0.112	-0.022
-548.339	31.076	0.091	0.102
-547.325	-34.415	-0.059	-0.043
-546.310	73.202	-0.034	0.047
-545.296	-8.044	-0.202	-0.178
-544.281	-55.906	-0.446	0.260
-543.266	45.213	-0.185	0.223
-542.252	800.000	-0.122	0.577
-541.237	-40.788	-0.153	-0.103
-540.223	225.277	0.291	-0.619
-539.208	143.081	0.145	0.253
-538.193	18.523	-0.253	-0.265
-537.179	-91.748	-0.207	0.077
-536.164	-118.568	0.322	0.074
-535.150	-40.241	-0.244	0.166
-534.135	16.414	0.390	0.403
-533.121	-90.030	-0.316	-0.120
-532.106	-115.589	0.238	-0.058
-531.091	800.000	-0.028	0.149
-530.077	-41.928	-0.109	-0.073
-529.062	26.812	0.243	-0.267
-528.048	-122.440	-0.328	0.069
-527.033	-93.228	-0.696	-0.252
-526.018	800.000	0.042	0.156
-525.004	167.388	0.108	0.201
-523.989	-200.000	0.001	0.127
-522.975	-200.000	-0.085	0.718
-521.960	201.179	0.201	0.407
-520.945	87.157	0.161	0.233
-519.931	-85.816	0.112	-0.045
-518.916	122.803	0.187	0.308
-517.902	86.573	0.359	-0.519
-516.887	-80.761	-0.168	-0.073
-515.872	800.000	0.035	0.145
-514.858	-119.170	0.366	-0.083
-513.843	-200.000	-0.010	0.149
-512.829	-104.976	0.279	-0.083
-511.814	-63.266	-0.244	0.131
-510.799	-146.573	-0.025	-0.003
-509.785	-200.000	0.007	-0.127
-508.770	-135.200	0.312	0.049
-507.756	105.919	-0.082	0.128
-506.741	-63.701	0.293	0.157
-505.726	-72.118	-0.486	0.235
-504.712	756.611	0.082	0.293
-503.697	146.354	-0.167	-0.295
-502.683	699.224	-0.146	-0.505
-501.668	9.958	-0.192	0.191
-500.653	590.489	-0.131	0.427
-499.639	-80.145	0.289	-0.126
-498.624	21.064	-0.426	-0.453
-497.610	67.134	-0.190	0.254
-496.595	-1.331	-0.534	0.493
-495.581	-200.000	0.008	0.104
-494.566	-191.580	0.299	-0.004
-493.551	65.522	0.023	0.031
-492.537	-43.275	0.234	0.155
-491.522	-96.542	0.213	-0.073
-490.508	-129.330	0.044	0.008
-489.493	195.952	-0.297	-0.593
-488.478	-103.984	-0.400	-0.121
-487.464	-69.083	-0.157	-0.079
-486.449	258.078	-0.110	-0.249
-485.435	-112.322	-0.455	0.118
-484.420	171.598	0.117	-0.221
-483.405	569.812	-0.075	0.239
-482.391	-200.000	-0.049	0.303
-481.376	-101.389	0.466	-0.148
-480.362	-48.679	0.183	-0.115
-479.347	800.000	0.103	0.404
-478.332	-155.944	0.666	0.055
-477.318	800.000	-0.026	-0.104
-476.303	-40.834	-0.608	-0.410
-475.289	142.538	0.102	0.178
-474.274	-11.486	0.343	-0.295
-473.259	-85.758	0.338	-0.136
-472.245	-56.921	-0.174	-0.100
-471.230	-30.737	0.068	0.050
-470.216	-200.000	0.063	0.493
-469.201	402.324	0.041	-0.115
-468.186	-163.766	-0.093	-0.006
-467.172	29.671	-0.081	-0.091
-466.157	42.209	0.197	-0.234
-465.143	-18.352	-0.311	-0.254
-464.128	800.000	0.033	-0.168
-463.113	0.136	0.277	0.258
-462.099	75.543	-0.223	0.309
-461.084	-92.133	0.512	-0.188
-460.070	-200.000	0.041	-0.366
-459.055	-114.515	-0.089	-0.022
-458.040	-132.389	0.189	-0.031
-457.026	229.201	0.207	0.444
-456.011	-40.167	-0.166	0.113
-454.997	401.678	-0.068	-0.187
-453.982	207.391	-0.121	-0.247
-452.968	-108.631	-0.272	0.076
-451.953	198.625	0.113	-0.226
-450.938	-90.150	-0.194	0.073
-449.924	-153.119	0.391	-0.035
-448.909	467.628	0.048	-0.142
-447.895	-44.912	-0.330	-0.214
-446.880	-20.701	-0.121	0.097
-445.865	52.984	-0.465	-0.582
-444.851	800.000	0.085	-0.313
-443.836	-43.220	0.344	-0.227
-442.822	800.000	-0.103	0.495
-441.807	-97.048	-0.232	0.079
-440.792	336.139	-0.118	-0.301
-439.778	152.379	0.091	-0.163
-438.763	418.293	0.125	0.351
-437.749	-44.740	0.275	0.179
-436.734	212.957	0.107	0.222
-435.719	-79.290	0.434	0.191
-434.705	-105.575	-0.146	0.043
-433.690	-30.492	0.388	0.287
-432.676	185.288	0.077	-0.150
-431.661	34.484	-0.322	-0.367
-430.646	-125.996	-0.167	-0.032
-429.632	187.774	0.053	-0.104
-428.617	-22.673	-0.212	0.167
-427.603	-15.016	0.537	0.448
-426.588	-151.218	0.423	-0.041
-425.573	800.000	-0.089	0.396
-424.559	-127.540	0.263	-0.049
-423.544	132.267	0.318	0.536
-422.530	-58.045	-0.242	0.137
-421.515	-68.257	0.255	0.129
-420.500	-7.457	-0.207	0.182
-419.486	-40.552	-0.083	0.056
-418.471	-68.489	-0.076	0.039
-417.457	126.207	0.204	-0.337
-416.442	-149.383	0.190	0.019
-415.428	-200.000	0.029	0.495
-414.413	-126.220	-0.636	0.123
-413.398	-150.830	-0.524	-0.051
-412.384	167.556	-0.197	0.367
-411.369	-138.706	-0.077	-0.011
-410.355	-34.869	-0.360	0.256
-409.340	92.941	-0.186	0.275
-408.325	7.945	-0.090	0.088
-407.311	-103.188	-0.269	-0.082
-406.296	-115.454	0.155	0.038
-405.282	49.848	0.330	-0.406
-404.267	800.000	-0.144	-0.526
-403.252	47.068	-0.311	0.378
-402.238	-200.000	0.086	0.587
-401.223	800.000	-0.073	0.353
-400.209	-7.135	-0.065	0.058
-399.194	800.000	0.131	0.563
-398.179	-102.942	0.531	-0.163
-397.165	-52.727	0.330	-0.198
-396.150	-40.371	-0.221	-0.150
-395.136	103.139	-0.427	-0.654
-394.121	-127.584	0.332	-0.062
-393.106	3.390	-0.136	-0.129
-392.092	57.115	0.138	0.175
-391.077	-46.022	-0.182	-0.116
-390.063	-135.947	-0.069	-0.011
-389.048	328.489	-0.057	0.143
-388.033	112.808	0.069	-0.109
-387.019	10.377	-0.333	-0.330
-386.004	26.738	-0.075	-0.082
-384.990	-0.928	0.496	-0.457
-383.975	-117.604	-0.281	-0.066
-382.960	-116.386	-0.308	0.074
-381.946	800.000	-0.017	-0.099
-380.931	406.161	0.157	0.434
-379.917	-122.861	-0.124	0.026
-378.902	9.645	0.136	-0.135
-377.888	-130.168	-0.151	0.027
-376.873	-9.627	-0.574	-0.498
-375.858	-2.698	0.048	0.044
-374.844	-200.000	0.019	-0.238
-373.829	428.866	0.018	0.052
-372.815	50.719	-0.053	-0.066
-371.800	321.633	-0.049	-0.121
-370.785	-36.725	0.198	-0.138
-369.771	123.694	0.159	-0.260
-368.756	45.366	-0.155	-0.187
-367.742	-76.959	0.331	0.150
-366.727	176.796	0.070	-0.133
-365.712	144.684	-0.123	0.215
-364.698	-5.835	-0.144	0.128
-363.683	159.738	0.212	-0.385
-362.669	-129.373	0.341	-0.061
-361.654	-38.420	-0.126	-0.087
-360.639	-26.788	0.236	-0.179
-359.625	-200.000	-0.030	0.350
-358.610	-200.000	-0.073	0.437
-357.596	-187.709	-0.697	-0.012
-356.581	39.383	-0.130	0.152
-355.566	20.579	0.213	-0.225
-354.552	72.647	0.034	-0.046
-353.537	13.978	-0.063	0.064
-352.523	409.968	-0.206	0.570
-351.508	-8.417	-0.180	0.157
-350.493	31.550	0.116	0.130
-349.479	5.509	0.138	-0.133
-348.464	-166.810	0.213	-0.011
-347.450	71.519	-0.192	0.259
-346.435	800.000	0.019	-0.077
-345.420	800.000	-0.058	-0.225
-344.406	-110.389	-0.244	-0.066
-343.391	35.879	-0.068	-0.078
-342.377	-200.000	0.017	0.154
-341.362	63.466	-0.251	-0.327
-340.348	-54.912	-0.314	-0.184
-339.333	-91.653	0.361	0.133
-338.318	-67.651	0.264	0.134
-337.304	209.527	-0.242	0.496
-336.289	-126.546	-0.329	-0.063
-335.275	-77.058	0.311	0.141
-334.260	-97.763	-0.253	0.085
-333.245	-67.323	-0.378	0.192
-332.231	-157.407	0.224	-0.017
-331.216	-79.957	0.124	0.054
-330.202	800.000	0.042	0.174
-329.187	-40.184	-0.285	-0.193
-328.172	58.538	-0.044	0.056
-327.158	800.000	-0.085	-0.319
-326.143	-159.301	0.374	-0.027
-325.129	176.058	-0.113	-0.214
-324.114	-69.615	-0.282	-0.140
-323.099	-84.539	-0.250	0.102
-322.085	-167.961	0.144	0.007
-321.070	-107.392	0.194	-0.055
-320.056	-65.549	-0.430	0.223
-319.041	62.229	-0.162	0.210
-318.026	-12.458	-0.209	0.177
-317.012	-82.580	0.113	-0.048
-315.997	-193.283	-0.403	-0.004
-314.983	-200.000	-0.007	0.084
-313.968	-51.659	-0.218	0.132
-312.953	84.179	-0.231	0.329
-311.939	-75.258	-0.515	0.238
-310.924	-5.497	0.198	0.177
-309.910	102.263	-0.215	-0.327
-308.895	-200.000	0.036	-0.401
-307.880	-67.109	-0.352	-0.179
-306.866	-84.380	-0.581	-0.238
-305.851	-49.499	0.334	0.206
-304.837	-94.810	-0.393	0.138
-303.822	97.405	-0.286	-0.428
-302.807	68.095	0.299	-0.398
-301.793	149.918	0.144	-0.255
-300.778	311.794	-0.087	-0.213
-299.764	-129.331	0.242	0.043
-298.749	163.237	0.018	-0.034
-297.735	62.947	0.077	-0.101
-296.720	101.657	0.081	-0.123
-295.705	160.328	0.065	0.117
-294.691	-200.000	-0.033	0.239
-293.676	54.340	0.279	-0.349
-292.662	135.396	-0.125	0.212
-291.647	-84.693	0.289	-0.117
-290.632	198.481	-0.079	0.157
-289.618	53.560	0.123	0.154
-288.603	800.000	0.100	0.370
-287.589	46.515	0.113	-0.137
-286.574	-200.000	-0.030	-0.201
-285.559	-67.100	-0.233	0.119
-284.545	33.482	0.184	0.207
-283.530	133.877	-0.068	-0.114
-282.516	-115.363	-0.514	-0.125
-281.501	2.796	-0.115	-0.108
-280.486	-1.780	0.225	-0.206
-279.472	-38.997	-0.209	-0.142
-278.457	-73.629	-0.267	-0.126
-277.443	-154.394	-0.147	0.013
-276.428	87.767	-0.108	-0.156
-275.413	800.000	-0.069	0.346
-274.399	-149.284	0.008	0.001
-273.384	-67.074	-0.252	0.129
-272.370	800.000	-0.121	0.585
-271.355	-85.935	-0.364	-0.145
-270.340	-60.361	-0.213	-0.117
-269.326	-177.203	-0.212	0.007
-268.311	-83.939	0.385	-0.158
-267.297	371.114	-0.076	-0.201
-266.282	-50.617	-0.289	-0.176
-265.267	24.025	0.208	0.223
-264.253	-52.410	-0.169	0.101
-263.238	-57.590	-0.217	-0.123
-262.224	-200.000	-0.114	-0.683
-261.209	-64.514	0.266	-0.140
-260.195	-33.777	0.345	0.246
-259.180	47.340	-0.245	0.297
-258.165	-200.000	-0.030	0.440
-257.151	13.531	0.155	0.156
-256.136	800.000	-0.040	0.199
-255.122	-200.000	-0.081	-0.522
-254.107	41.639	-0.277	-0.326
-253.092	-162.713	-0.367	0.023
-252.078	0.309	-0.031	0.028
-251.063	-50.141	-0.132	0.081
-250.049	110.906	0.133	0.208
-249.034	-105.548	-0.287	0.084
-248.019	217.873	0.112	0.232
-247.005	-200.000	-0.099	-0.001
-245.990	195.156	0.172	0.340
-244.976	-108.823	0.158	0.043
-243.961	292.615	0.197	0.467
-242.946	-71.560	0.186	0.090
-241.932	353.537	-0.014	-0.037
-240.917	-112.857	0.682	0.174
-239.903	-107.788	-0.161	0.045
-238.888	-152.874	0.140	-0.013
-237.873	103.023	-0.120	0.183
-236.859	-46.923	0.241	-0.152
-235.844	142.337	0.106	-0.182
-234.830	-90.896	0.424	-0.157
-233.815	21.058	0.306	-0.321
-232.800	-70.274	0.447	0.219
-231.786	505.287	-0.158	-0.478
-230.771	-200.000	-0.026	-0.151
-229.757	-5.659	-0.028	-0.025
-228.742	-119.281	0.307	0.069
-227.727	-200.000	-0.012	-0.238
-226.713	-110.948	-0.150	-0.040
-225.698	-35.655	0.117	-0.082
-224.684	800.000	-0.042	-0.184
-223.669	-92.846	0.327	-0.118
-222.655	-200.000	0.045	0.524
-221.640	-70.654	0.396	0.193
-220.625	58.388	-0.171	-0.217
-219.611	18.616	0.138	0.143
-218.596	-151.092	0.318	0.031
-217.582	77.034	-0.264	-0.364
-216.567	-146.792	-0.120	-0.013
-215.552	-2.545	-0.200	-0.181
-214.538	800.000	-0.051	-0.204
-213.523	537.351	0.089	-0.275
-212.509	82.043	-0.143	-0.202
-211.494	-3.534	-0.110	0.099
-210.479	-121.089	-0.515	-0.111
-209.465	763.647	-0.040	-0.140
-208.450	-12.484	0.456	0.385
-207.436	234.960	-0.106	0.228
-206.421	-200.000	0.010	0.635
-205.406	481.877	0.135	0.400
-204.392	268.611	0.025	-0.056
-203.377	-115.757	-0.404	0.097
-202.363	357.770	-0.088	0.229
-201.348	800.000	-0.054	-0.212
-200.333	-65.587	0.165	-0.085
-199.319	-145.582	0.270	-0.031
-198.304	-200.000	-0.032	0.247
-197.290	189.176	-0.146	-0.283
-196.275	-58.609	-0.103	-0.058
-195.260	756.365	-0.053	-0.186
-194.246	-55.108	0.153	0.089
-193.231	-99.823	0.379	-0.122
-192.217	-79.798	-0.095	0.041
-191.202	-183.892	0.447	0.010
-190.187	-0.886	0.390	-0.357
-189.173	-44.190	-0.108	0.070
-188.158	-168.212	0.079	0.004
-187.144	-31.561	0.297	-0.215
-186.129	-89.508	0.251	-0.095
-185.114	800.000	-0.049	-0.265
-184.100	21.000	-0.206	-0.216
-183.085	-200.000	-0.042	0.389
-182.071	205.388	-0.045	0.091
-181.056	276.131	0.138	0.317
-180.042	-65.105	-0.463	0.241
-179.027	122.889	-0.292	-0.474
-178.012	-200.000	-0.019	-0.188
-176.998	76.753	-0.076	-0.104
-175.983	800.000	-0.019	0.092
-174.969	-158.110	0.167	0.013
-173.954	68.447	0.172	-0.228
-172.939	-169.376	0.159	-0.007
-171.925	-95.982	-0.336	0.115
-170.910	-176.755	-0.250	-0.008
-169.896	223.240	-0.194	-0.405
-168.881	-138.365	0.359	0.051
-167.866	84.634	-0.329	-0.466
-166.852	-22.842	-0.412	-0.321
-165.837	-11.482	0.246	-0.209
-164.823	306.887	-0.294	0.711
-163.808	20.680	0.175	0.183
-162.793	800.000	0.122	-0.564
-161.779	105.829	0.105	-0.160
-160.764	-47.909	0.272	0.170
-159.750	800.000	-0.177	-0.733
-158.735	-200.000	0.037	-0.276
-157.720	-103.051	0.223	0.068
-156.706	-5.736	0.282	0.249
-155.691	-65.686	0.373	-0.192
-154.677	-73.519	0.180	0.084
-153.662	800.000	-0.028	0.144
-152.647	59.549	0.099	0.127
-151.633	91.163	0.060	0.087
-150.618	68.556	-0.287	0.380
-149.604	-119.889	-0.356	-0.078
-148.589	45.171	-0.159	0.190
-147.574	257.212	0.312	0.695
-146.560	-200.000	0.013	-0.128
-145.545	244.698	0.122	-0.265
-144.531	87.627	-0.252	-0.361
-143.516	355.568	-0.109	0.282
-142.502	-99.285	-0.422	0.137
-141.487	-99.677	-0.251	-0.081
-140.472	-57.047	-0.369	-0.210
-139.458	-174.084	-0.595	-0.022
-138.443	-174.401	0.167	0.006
-137.429	-125.567	0.174	0.034
-136.414	-91.268	-0.221	0.081
-135.399	221.697	-0.154	-0.320
-134.385	-33.110	-0.145	-0.104
-133.370	8.005	-0.565	0.547
-132.356	-200.000	-0.013	0.664
-131.341	368.944	-0.146	0.384
-130.326	-200.000	0.034	0.574
-129.312	-76.173	0.214	0.097
-128.297	-200.000	0.001	0.073
-127.283	525.183	0.147	-0.450
-126.268	-65.759	-0.634	-0.326
-125.253	166.200	-0.192	0.351
-124.239	800.000	0.132	0.476
-123.224	-121.134	0.228	-0.049
-122.210	44.433	-0.144	-0.170
-121.195	120.267	0.051	0.082
