DTS Sentinel unit serial number:	SN409020Multiplexer serial number:	ORYXHardware model number:	OX4-SRSoftware version number:	ORYX F/W v3.00 Oryx Data Collector v3.7.2.0data status	okinstallation	HaddamTimeLapsedifferential loss correction	single-endedforward channel	channel 3reverse channel	N/Adate	2011/06/22time	09:06:17forward acquisition time	30.00reverse acquisition time	0.00gamma	498.7831k internal	0.1797k external	0.1797temperature offset calibration	1.0074default loss term (dB/km)	0.3790temperature slope calibration	1.3530multiplexer offset coefficient	1.0000multiplexer slope coefficient	1.0000fibre end	0.00T internal ref (°C)	27.66T ext. ref 1 (°C)	24.08T ext. ref 2 (°C)	0.17length (m)	temperature (°C)	Stokes	anti-Stokes-747.200	-96.450	0.292	0.099
-746.185	-31.064	0.168	0.122
-745.171	-84.243	-0.564	-0.230
-744.156	-200.000	0.036	0.474
-743.142	-200.000	-0.017	-0.360
-742.127	112.469	0.342	0.536
-741.112	82.375	0.077	0.108
-740.098	12.128	-0.256	0.255
-739.083	417.928	-0.129	-0.359
-738.069	226.277	0.076	0.161
-737.054	-92.906	0.255	0.092
-736.039	-111.467	-0.007	0.002
-735.025	-200.000	-0.012	-0.186
-734.010	-1.553	-0.088	-0.081
-732.996	-200.000	0.018	0.104
-731.981	-10.763	-0.327	0.279
-730.966	137.465	-0.225	-0.382
-729.952	300.763	0.162	-0.389
-728.937	5.483	-0.107	0.102
-727.923	375.749	-0.062	0.165
-726.908	-186.220	-0.482	-0.009
-725.894	800.000	-0.127	-0.479
-724.879	190.041	0.053	0.103
-723.864	29.242	-0.377	0.414
-722.850	-97.930	-0.407	0.135
-721.835	-200.000	-0.006	-0.226
-720.821	800.000	-0.030	0.109
-719.806	172.401	0.081	-0.150
-718.791	43.823	-0.194	-0.230
-717.777	499.481	-0.109	-0.326
-716.762	-48.231	-0.305	0.190
-715.748	391.968	0.089	0.241
-714.733	-99.922	0.201	-0.064
-713.718	-14.047	-0.275	0.229
-712.704	-169.845	-0.624	0.029
-711.689	172.705	-0.031	-0.058
-710.675	-130.745	-0.225	0.039
-709.660	-68.813	-0.193	0.096
-708.645	-131.952	-0.329	-0.055
-707.631	-42.754	-0.513	-0.336
-706.616	362.998	-0.115	-0.299
-705.602	80.526	0.181	0.252
-704.587	-44.338	0.293	-0.189
-703.572	351.023	0.177	-0.454
-702.558	-70.964	0.269	0.130
-701.543	-200.000	-0.130	0.000
-700.529	-130.608	0.556	-0.096
-699.514	138.313	0.143	0.243
-698.499	-148.023	-0.730	0.077
-697.485	-137.577	-0.625	-0.090
-696.470	130.198	0.156	-0.258
-695.456	-82.685	0.249	-0.104
-694.441	-125.300	0.309	0.060
-693.426	800.000	0.128	0.520
-692.412	-200.000	0.060	-0.502
-691.397	-132.652	-0.093	-0.015
-690.383	-26.774	0.192	-0.145
-689.368	103.237	-0.052	0.080
-688.354	-73.703	-0.474	-0.222
-687.339	502.879	0.155	-0.466
-686.324	-193.809	0.324	-0.003
-685.310	-100.707	-0.243	0.077
-684.295	-165.893	0.408	0.022
-683.281	208.137	-0.255	0.515
-682.266	412.273	-0.057	0.157
-681.251	-200.000	-0.041	-0.269
-680.237	684.474	-0.121	-0.410
-679.222	759.745	0.079	-0.277
-678.208	-8.709	0.406	0.352
-677.193	-200.000	0.050	-0.351
-676.178	-200.000	-0.018	-0.695
-675.164	-200.000	-0.391	-0.000
-674.149	-37.495	-0.536	0.368
-673.135	-72.917	0.434	-0.205
-672.120	648.077	0.121	0.403
-671.105	65.489	0.259	0.338
-670.091	-100.595	0.134	-0.042
-669.076	-200.000	0.062	-0.501
-668.062	-200.000	-0.109	-0.001
-667.047	118.516	0.167	-0.266
-666.032	6.782	-0.532	-0.511
-665.018	209.093	-0.134	-0.272
-664.003	-61.819	0.225	0.121
-662.989	95.482	0.169	-0.248
-661.974	-60.975	-0.186	0.101
-660.959	-63.967	0.127	0.067
-659.945	-50.373	0.037	0.022
-658.930	161.109	-0.079	0.142
-657.916	-200.000	0.007	-0.096
-656.901	99.248	-0.140	0.210
-655.886	277.492	0.102	0.236
-654.872	73.349	-0.288	0.388
-653.857	-6.540	-0.397	-0.348
-652.843	800.000	-0.074	-0.346
-651.828	-107.687	-0.084	-0.024
-650.814	-141.350	-0.812	0.105
-649.799	330.716	0.148	-0.370
-648.784	800.000	-0.040	0.192
-647.770	-49.714	0.117	-0.072
-646.755	-37.778	-0.041	0.028
-645.741	-196.738	0.195	-0.002
-644.726	-92.701	-0.344	-0.123
-643.711	-152.430	0.067	0.006
-642.697	171.912	0.098	-0.182
-641.682	-200.000	-0.013	-0.292
-640.668	-157.660	0.493	-0.037
-639.653	-85.728	-0.225	-0.090
-638.638	-123.326	-0.360	0.073
-637.624	-21.587	0.338	-0.265
-636.609	-135.288	0.169	-0.026
-635.595	-109.185	0.464	-0.126
-634.580	-100.273	-0.286	-0.091
-633.565	-82.561	-0.248	-0.103
-632.551	-5.128	-0.286	0.253
-631.536	-181.643	-0.223	0.005
-630.522	800.000	0.049	-0.245
-629.507	-31.646	-0.146	0.105
-628.492	-56.905	-0.398	-0.226
-627.478	40.666	-0.284	0.329
-626.463	800.000	0.066	-0.353
-625.449	142.402	0.119	-0.205
-624.434	111.396	-0.136	0.212
-623.419	-27.372	-0.352	0.263
-622.405	134.993	-0.084	0.140
-621.390	-169.208	0.242	-0.011
-620.376	-105.884	-0.470	0.136
-619.361	29.192	0.268	-0.293
-618.346	-20.076	0.341	-0.270
-617.332	-120.240	0.282	-0.061
-616.317	-101.029	0.323	0.101
-615.303	-200.000	0.009	0.251
-614.288	50.471	-0.033	0.040
-613.273	-141.879	-0.471	0.060
-612.259	-200.000	-0.000	-0.030
-611.244	-81.285	-0.292	0.123
-610.230	-133.923	0.276	-0.044
-609.215	-65.297	-0.266	0.137
-608.201	-118.670	-0.355	-0.080
-607.186	364.773	-0.102	0.265
-606.171	-1.777	0.122	0.111
-605.157	-137.782	-0.381	0.054
-604.142	-41.522	-0.437	0.288
-603.128	-200.000	-0.004	-0.085
-602.113	277.958	-0.242	-0.557
-601.098	121.112	-0.272	0.437
-600.084	56.606	0.196	0.245
-599.069	613.339	0.127	-0.411
-598.055	19.139	-0.263	-0.272
-597.040	-131.302	0.195	-0.033
-596.025	800.000	-0.054	-0.265
-595.011	-153.396	-0.214	-0.019
-593.996	-153.488	0.588	0.052
-592.982	65.518	0.302	0.394
-591.967	-0.926	-0.070	0.064
-590.952	89.869	-0.051	-0.073
-589.938	558.609	0.095	0.297
-588.923	298.901	0.118	-0.281
-587.909	61.094	-0.385	0.492
-586.894	800.000	0.051	-0.218
-585.879	118.225	-0.157	-0.250
-584.865	-200.000	-0.066	-0.435
-583.850	-56.614	-0.040	-0.023
-582.836	26.756	0.273	0.294
-581.821	-98.962	0.475	0.154
-580.806	-200.000	0.006	0.070
-579.792	100.308	-0.140	0.210
-578.777	77.889	0.158	-0.217
-577.763	127.388	-0.126	0.206
-576.748	-73.963	0.213	0.099
-575.733	-130.020	-0.360	-0.063
-574.719	52.283	0.075	0.092
-573.704	-83.522	-0.633	0.259
-572.690	29.838	0.154	0.169
-571.675	-57.703	0.497	0.279
-570.661	338.958	-0.165	-0.415
-569.646	-200.000	-0.023	-0.159
-568.631	299.216	-0.098	0.232
-567.617	163.312	-0.086	0.155
-566.602	-28.146	-0.259	0.192
-565.588	38.678	-0.517	0.593
-564.573	-132.795	-0.265	0.043
-563.558	-136.833	0.170	-0.025
-562.544	188.182	0.166	-0.319
-561.529	45.990	-0.185	0.221
-560.515	-175.387	-0.792	0.027
-559.500	800.000	-0.047	0.197
-558.485	800.000	0.077	0.331
-557.471	74.534	0.192	0.260
-556.456	-171.332	-0.359	0.015
-555.442	-40.925	-0.352	-0.234
-554.427	61.465	-0.059	-0.076
-553.412	47.716	0.215	0.258
-552.398	-80.901	0.068	-0.029
-551.383	-127.970	0.395	-0.072
-550.369	-18.081	-0.183	0.147
-549.354	-15.652	-0.145	0.119
-548.339	-200.000	0.060	-0.366
-547.325	800.000	-0.070	-0.270
-546.310	-200.000	0.023	-0.224
-545.296	569.230	-0.040	0.124
-544.281	-102.963	-0.335	-0.101
-543.266	800.000	-0.145	-0.616
-542.252	-200.000	-0.007	-0.290
-541.237	-200.000	-0.042	-0.289
-540.223	-79.299	-0.333	-0.144
-539.208	-81.576	-0.167	0.070
-538.193	475.248	0.054	-0.157
-537.179	-1.099	0.378	-0.343
-536.164	512.893	-0.182	-0.546
-535.150	522.592	0.058	0.176
-534.135	-185.855	0.201	-0.004
-533.121	800.000	0.033	0.121
-532.106	-24.834	0.362	0.275
-531.091	-200.000	-0.019	0.483
-530.077	-37.632	-0.564	0.385
-529.062	-137.384	0.412	-0.059
-528.048	-80.705	-0.016	0.007
-527.033	-165.881	0.641	0.035
-526.018	-144.164	0.053	-0.006
-525.004	26.507	0.235	0.253
-523.989	11.424	0.201	-0.197
-522.975	204.101	-0.269	-0.537
-521.960	-0.984	0.188	-0.171
-520.945	27.188	-0.327	-0.353
-519.931	-15.886	-0.378	0.308
-518.916	193.823	0.032	-0.062
-517.902	800.000	-0.056	0.308
-516.887	-200.000	-0.046	0.285
-515.872	-125.277	0.307	-0.060
-514.858	-43.489	0.277	0.179
-513.843	-60.456	-0.348	0.189
-512.829	-76.046	-0.194	-0.087
-511.814	-84.200	-0.284	0.115
-510.799	-200.000	0.026	0.232
-509.785	431.650	0.136	-0.380
-508.770	173.198	-0.088	0.163
-507.756	233.559	0.248	-0.525
-506.741	-122.151	0.580	0.121
-505.726	-200.000	0.009	-0.115
-504.712	-109.844	-0.321	0.086
-503.697	-200.000	-0.003	-0.423
-502.683	-52.091	0.146	0.087
-501.668	-142.315	-0.259	0.032
-500.653	365.814	0.049	-0.127
-499.639	40.305	0.304	0.351
-498.624	-200.000	0.047	-0.439
-497.610	-200.000	0.013	-0.148
-496.595	104.986	-0.120	-0.182
-495.581	800.000	-0.167	0.635
-494.566	153.601	-0.165	-0.291
-493.551	800.000	0.011	-0.041
-492.537	-200.000	-0.045	-0.751
-491.522	-43.530	0.213	-0.138
-490.508	393.354	0.137	-0.368
-489.493	-80.821	0.145	-0.062
-488.478	51.786	-0.242	0.296
-487.464	800.000	-0.029	-0.118
-486.449	530.809	-0.060	-0.183
-485.435	560.189	-0.083	-0.258
-484.420	800.000	-0.133	-0.754
-483.405	800.000	-0.029	-0.107
-482.391	-187.422	-0.275	0.005
-481.376	800.000	0.082	-0.318
-480.362	42.870	0.247	-0.288
-479.347	-147.437	0.208	0.022
-478.332	431.382	-0.215	-0.598
-477.318	182.304	0.137	0.260
-476.303	-96.140	-0.578	0.196
-475.289	-200.000	0.018	-0.396
-474.274	800.000	0.096	0.511
-473.259	-200.000	0.005	-0.434
-472.245	54.205	-0.241	0.297
-471.230	10.258	0.236	0.230
-470.216	-200.000	0.018	0.313
-469.201	3.578	0.346	0.323
-468.186	39.238	-0.144	0.165
-467.172	-200.000	-0.213	0.001
-466.157	-24.389	-0.101	0.077
-465.143	779.108	-0.120	0.422
-464.128	77.566	0.390	0.532
-463.113	-85.579	-0.078	-0.031
-462.099	336.065	0.093	-0.231
-461.084	171.756	-0.121	0.222
-460.070	-152.147	0.390	-0.036
-459.055	91.304	-0.201	0.289
-458.040	-93.268	0.452	0.160
-457.026	-101.868	-0.210	-0.065
-456.011	-79.690	0.300	0.129
-454.997	-170.061	-0.298	0.013
-453.982	-122.024	0.386	0.081
-452.968	-80.361	0.318	0.135
-451.953	34.479	0.231	0.258
-450.938	-31.658	0.426	0.305
-449.924	274.064	0.010	0.024
-448.909	-115.770	0.474	0.113
-447.895	485.513	0.040	0.117
-446.880	800.000	0.117	-0.572
-445.865	-200.000	-0.008	-0.484
-444.851	800.000	-0.064	-0.299
-443.836	418.769	-0.026	-0.072
-442.822	-8.732	-0.301	-0.258
-441.807	-48.106	-0.207	-0.127
-440.792	17.668	-0.294	0.299
-439.778	31.596	-0.087	0.095
-438.763	-200.000	0.042	0.266
-437.749	34.286	0.354	0.395
-436.734	552.201	-0.119	-0.367
-435.719	-155.266	-0.150	-0.012
-434.705	-118.501	-0.192	0.043
-433.690	-157.325	0.443	-0.034
-432.676	730.708	0.118	0.405
-431.661	56.237	-0.019	0.023
-430.646	-200.000	-0.013	0.293
-429.632	-200.000	-0.055	0.349
-428.617	-75.891	0.069	-0.031
-427.603	-181.330	-0.228	0.006
-426.588	-6.995	-0.133	-0.115
-425.573	536.589	0.179	0.545
-424.559	-39.337	0.245	-0.164
-423.544	-138.089	-0.193	-0.027
-422.530	31.966	-0.244	0.269
-421.515	-79.205	0.138	-0.059
-420.500	-156.595	0.177	-0.014
-419.486	-109.882	-0.194	-0.052
-418.471	416.185	-0.022	0.061
-417.457	-61.604	0.668	-0.357
-416.442	416.155	-0.019	-0.051
-415.428	-54.629	-0.306	0.176
-414.413	-200.000	0.027	-0.629
-413.398	-200.000	0.015	-0.299
-412.384	-200.000	0.029	0.198
-411.369	232.981	-0.098	-0.207
-410.355	38.412	0.121	0.138
-409.340	16.702	-0.176	0.177
-408.325	154.838	-0.056	0.099
-407.311	252.212	-0.092	0.201
-406.296	-159.005	0.133	-0.010
-405.282	-200.000	-0.019	0.119
-404.267	-102.100	0.278	-0.085
-403.252	209.357	-0.248	-0.498
-402.238	-128.164	0.241	-0.044
-401.223	-200.000	-0.005	0.056
-400.209	-53.971	-0.148	-0.086
-399.194	456.263	-0.020	-0.058
-398.179	-32.790	-0.213	0.151
-397.165	-162.183	0.325	0.020
-396.150	-25.325	0.507	-0.382
-395.136	-22.251	0.126	0.097
-394.121	-113.494	0.121	-0.030
-393.106	-67.817	0.476	0.237
-392.092	12.816	0.268	0.264
-391.077	-54.515	0.310	0.179
-390.063	-42.949	0.280	0.181
-389.048	-144.192	-0.155	0.018
-388.033	67.154	-0.179	-0.233
-387.019	-66.654	-0.376	-0.190
-386.004	-200.000	-0.004	-0.078
-384.990	-9.154	0.118	-0.100
-383.975	319.939	0.049	-0.120
-382.960	-200.000	0.349	-0.001
-381.946	581.348	0.154	0.484
-380.931	-200.000	-0.005	-0.483
-379.917	100.330	-0.091	-0.136
-378.902	243.247	-0.261	-0.561
-377.888	-50.587	-0.197	0.118
-376.873	233.831	0.187	-0.393
-375.858	191.002	-0.072	-0.138
-374.844	800.000	-0.048	0.241
-373.829	-200.000	-0.021	0.390
-372.815	190.524	-0.172	0.330
-371.800	69.777	0.105	-0.138
-370.785	-72.220	0.212	0.100
-369.771	-200.000	0.045	0.263
-368.756	271.537	-0.018	0.041
-367.742	-6.535	0.060	-0.052
-366.727	38.430	-0.504	-0.573
-365.712	36.570	-0.144	-0.162
-364.698	-99.502	-0.237	0.076
-363.683	-98.734	0.185	0.060
-362.669	-51.850	0.459	-0.272
-361.654	-33.401	0.111	-0.078
-360.639	-141.336	0.387	0.050
-359.625	-53.841	-0.057	-0.033
-358.610	117.162	0.147	0.230
-357.596	550.421	0.093	0.286
-356.581	-28.894	0.218	-0.159
-355.566	273.280	0.187	-0.422
-354.552	-48.459	0.380	-0.232
-353.537	0.671	-0.352	0.320
-352.523	-49.457	0.121	-0.073
-351.508	-145.410	0.266	0.030
-350.493	-26.561	-0.398	-0.296
-349.479	99.022	0.390	0.575
-348.464	-117.573	-0.136	0.031
-347.450	78.306	0.143	-0.195
-346.435	-53.289	0.224	-0.130
-345.420	-83.871	0.225	0.091
-344.406	518.066	0.010	0.030
-343.391	351.490	0.158	-0.400
-342.377	-134.405	-0.187	-0.029
-341.362	-18.553	0.066	0.053
-340.348	-117.141	-0.319	-0.073
-339.333	-164.068	-0.544	0.032
-338.318	-54.846	0.611	0.350
-337.304	-200.000	0.009	0.119
-336.289	-140.681	0.214	0.028
-335.275	34.163	-0.186	-0.207
-334.260	800.000	0.092	-0.337
-333.245	-90.142	0.743	0.274
-332.231	-45.338	0.143	-0.090
-331.216	17.927	0.280	0.284
-330.202	-97.857	0.847	0.277
-329.187	800.000	0.071	-0.276
-328.172	-15.710	-0.448	-0.363
-327.158	-68.918	0.188	-0.092
-326.143	-17.440	0.120	0.096
-325.129	-41.094	0.545	-0.357
-324.114	77.749	-0.312	-0.424
-323.099	-128.078	-0.718	-0.130
-322.085	73.639	-0.107	-0.143
-321.070	-37.354	0.312	-0.212
-320.056	800.000	-0.122	0.449
-319.041	189.897	0.033	0.064
-318.026	800.000	0.068	-0.249
-317.012	-200.000	0.033	-0.376
-315.997	-50.872	-0.190	0.113
-314.983	311.474	-0.090	0.217
-313.968	414.469	-0.132	0.358
-312.953	-12.862	0.083	0.069
-311.939	-200.000	0.005	-0.060
-310.924	-82.077	-0.321	-0.133
-309.910	-58.092	-0.158	0.087
-308.895	78.323	-0.155	-0.211
-307.880	-55.192	0.401	-0.229
-306.866	321.723	-0.141	-0.343
-305.851	-22.509	0.278	0.213
-304.837	-200.000	0.065	0.385
-303.822	-200.000	0.008	0.180
-302.807	-200.000	0.002	0.831
-301.793	-14.601	-0.421	0.344
-300.778	-200.000	-0.072	0.430
-299.764	-30.760	-0.188	0.135
-298.749	-140.307	-0.170	0.022
-297.735	105.251	0.243	0.365
-296.720	291.325	0.047	0.110
-295.705	33.291	0.234	-0.259
-294.691	6.238	-0.209	0.197
-293.676	-102.844	0.040	0.012
-292.662	279.499	0.182	0.415
-291.647	-200.000	0.018	-0.229
-290.632	-56.408	-0.203	0.114
-289.618	314.985	0.121	0.290
-288.603	-200.000	0.018	-0.299
-287.589	705.662	-0.029	0.097
-286.574	800.000	0.016	-0.068
-285.559	667.100	0.025	0.082
-284.545	-55.954	-0.268	-0.151
-283.530	800.000	-0.101	0.380
-282.516	-200.000	-0.021	-0.405
-281.501	662.671	-0.125	-0.411
-280.486	621.856	-0.101	-0.326
-279.472	-120.810	0.191	-0.041
-278.457	86.856	-0.010	0.014
-277.443	800.000	0.043	0.213
-276.428	-117.722	0.498	0.113
-275.413	-177.968	-0.271	-0.008
-274.399	321.293	0.068	-0.165
-273.384	-148.250	0.090	-0.009
-272.370	47.682	0.144	0.171
-271.355	259.918	0.078	0.172
-270.340	-152.263	-0.592	-0.054
-269.326	-151.992	-0.444	-0.041
-268.311	-200.000	0.268	-0.000
-267.297	-64.028	0.402	-0.208
-266.282	261.285	-0.072	0.158
-265.267	-200.000	-0.002	0.067
-264.253	-127.451	0.483	0.088
-263.238	-200.000	-0.029	-0.503
-262.224	-56.778	-0.293	0.164
-261.209	57.771	-0.319	0.396
-260.195	-101.879	-0.351	-0.107
-259.180	800.000	-0.112	0.450
-258.165	-93.569	0.447	0.156
-257.151	388.746	-0.055	-0.146
-256.136	-158.869	0.233	0.017
-255.122	-75.802	-0.230	-0.103
-254.107	636.570	0.102	0.332
-253.092	-97.235	0.283	-0.093
-252.078	-67.255	0.116	-0.058
-251.063	142.436	0.208	-0.351
-250.049	732.124	-0.112	-0.384
-249.034	86.462	0.187	-0.263
-248.019	-64.381	0.104	0.054
-247.005	-167.439	-0.565	-0.028
-245.990	48.266	-0.433	-0.515
-244.976	-125.312	-0.637	-0.122
-243.961	-75.049	0.359	-0.162
-242.946	-148.602	0.429	0.044
-241.932	-78.958	0.333	-0.143
-240.917	-177.506	-0.502	-0.015
-239.903	-18.544	-0.209	0.165
-238.888	65.822	-0.101	0.130
-237.873	-114.775	0.303	-0.073
-236.859	-165.240	0.433	-0.024
-235.844	-80.418	0.212	-0.089
-234.830	352.406	0.068	0.171
-233.815	-200.000	0.054	0.417
-232.800	800.000	0.116	0.623
-231.786	57.421	-0.332	-0.411
-230.771	-82.103	0.090	-0.037
-229.757	164.299	0.220	0.395
-228.742	-200.000	0.061	0.557
-227.727	167.428	-0.236	-0.426
-226.713	-200.000	-0.004	-0.522
-225.698	127.793	0.242	0.391
-224.684	-134.740	-0.215	-0.033
-223.669	-156.937	0.149	0.011
-222.655	-53.792	0.445	-0.257
-221.640	327.980	-0.071	0.173
-220.625	-163.612	0.131	-0.008
-219.611	238.029	0.048	-0.102
-218.596	-200.000	-0.165	0.001
-217.582	-60.516	-0.655	-0.351
-216.567	699.117	0.048	0.162
-215.552	139.244	0.118	-0.198
-214.538	-115.191	0.464	0.111
-213.523	-26.960	-0.278	0.206
-212.509	800.000	0.048	-0.260
-211.494	225.621	-0.064	0.131
-210.479	-17.921	0.393	0.311
-209.465	190.310	0.068	-0.129
-208.450	6.077	-0.246	-0.230
-207.436	-144.348	-0.473	-0.055
-206.421	72.471	-0.238	-0.315
-205.406	417.966	0.095	-0.258
-204.392	240.689	-0.137	-0.291
-203.377	1.216	-0.275	-0.250
-202.363	-200.000	0.232	-0.001
-201.348	11.213	-0.329	-0.319
-200.333	-0.647	-0.347	0.311
-199.319	-200.000	0.015	0.317
-198.304	-121.490	0.161	-0.034
-197.290	467.512	0.115	-0.328
-196.275	-110.037	-0.424	-0.111
-195.260	400.139	0.080	0.214
-194.246	-166.198	0.481	0.025
-193.231	-200.000	-0.072	0.687
-192.217	-39.274	-0.029	0.019
-191.202	58.703	-0.441	0.548
-190.187	800.000	0.029	-0.108
-189.173	-82.764	-0.428	0.174
-188.158	-93.458	-0.345	-0.120
-187.144	-200.000	0.093	-0.527
-186.129	120.828	-0.284	-0.449
-185.114	311.588	0.098	0.233
-184.100	-46.433	-0.498	0.309
-183.085	-40.892	-0.181	-0.119
-182.071	-200.000	0.014	0.147
-181.056	800.000	-0.135	0.552
-180.042	54.939	0.061	-0.074
-179.027	800.000	0.075	0.341
-178.012	-70.129	-0.091	-0.044
-176.998	-91.966	-0.181	-0.065
-175.983	-87.700	0.242	0.092
-174.969	-200.000	0.023	0.206
-173.954	-124.656	-0.424	-0.082
-172.939	-38.370	0.347	0.232
-171.925	-30.683	-0.318	0.228
-170.910	-92.154	0.327	-0.116
-169.896	283.909	-0.164	0.375
-168.881	800.000	-0.047	0.197
-167.866	-165.839	-0.342	0.018
-166.852	152.158	0.191	0.330
-165.837	-114.393	0.585	-0.141
-164.823	-51.154	0.352	0.208
-163.808	135.142	0.144	-0.237
-162.793	-35.454	-0.161	-0.111
-161.779	-21.432	0.120	0.093
-160.764	-200.000	-0.002	-0.372
-159.750	-58.599	-0.256	-0.140
-158.735	765.649	-0.127	-0.438
-157.720	195.789	-0.068	0.130
-156.706	-200.000	0.025	0.273
-155.691	-134.965	0.047	-0.007
-154.677	-43.190	-0.040	-0.025
-153.662	41.968	0.237	0.272
-152.647	-98.549	-0.216	-0.069
-151.633	800.000	-0.053	0.276
-150.618	-111.863	0.106	-0.027
-149.604	443.224	-0.185	0.515
-148.589	-200.000	0.078	-0.456
-147.574	-200.000	0.103	0.715
-146.560	800.000	0.069	0.325
-145.545	16.508	-0.071	-0.071
-144.531	-88.166	-0.128	-0.048
-143.516	47.825	-0.169	0.199
-142.502	45.036	-0.474	0.552
-141.487	800.000	-0.122	-0.482
-140.472	800.000	0.068	-0.318
-139.458	-8.574	-0.162	-0.137
-138.443	-5.947	0.230	-0.198
-137.429	259.374	-0.061	0.134
-136.414	-200.000	-0.038	-0.319
-135.399	-98.495	0.577	0.185
-134.385	-21.043	0.177	-0.136
-133.370	-162.008	-0.583	0.037
-132.356	-56.087	-0.094	0.053
-131.341	100.339	0.239	0.351
-130.326	113.514	0.364	-0.560
-129.312	800.000	0.050	-0.205
-128.297	71.866	-0.336	-0.442
-127.283	-70.115	-0.368	-0.176
-126.268	14.581	0.396	-0.391
-125.253	-175.735	-0.094	0.003
-124.239	-162.241	0.045	-0.003
-123.224	-69.820	-0.089	0.043
-122.210	-66.502	-0.090	0.045
