DTS Sentinel unit serial number:	SN409020Multiplexer serial number:	ORYXHardware model number:	OX4-SRSoftware version number:	ORYX F/W v3.00 Oryx Data Collector v3.7.2.0data status	okinstallation	HaddamTimeLapsedifferential loss correction	single-endedforward channel	channel 3reverse channel	N/Adate	2011/06/21time	15:41:16forward acquisition time	30.00reverse acquisition time	0.00gamma	498.7831k internal	0.1808k external	0.1808temperature offset calibration	1.0074default loss term (dB/km)	0.3790temperature slope calibration	1.3530multiplexer offset coefficient	1.0000multiplexer slope coefficient	1.0000fibre end	0.00T internal ref (°C)	36.87T ext. ref 1 (°C)	27.95T ext. ref 2 (°C)	0.23length (m)	temperature (°C)	Stokes	anti-Stokes-747.200	800.000	0.069	-0.265
-746.185	800.000	-0.137	0.503
-745.171	-61.817	-0.383	-0.205
-744.156	-101.711	-0.343	0.106
-743.142	11.642	0.262	0.259
-742.127	-4.921	0.286	0.254
-741.112	45.291	-0.193	0.229
-740.098	800.000	0.031	0.159
-739.083	10.466	-0.105	0.103
-738.069	-55.102	0.306	0.177
-737.054	-57.616	0.168	0.094
-736.039	10.121	-0.241	-0.236
-735.025	-56.421	-0.085	0.049
-734.010	41.073	-0.167	0.194
-732.996	-126.724	-0.092	-0.017
-731.981	800.000	-0.066	-0.249
-730.966	-7.099	-0.121	0.105
-729.952	-200.000	0.067	0.456
-728.937	-109.454	-0.414	0.112
-727.923	-157.081	-0.096	-0.007
-726.908	458.940	0.085	-0.245
-725.894	800.000	0.088	0.364
-724.879	-80.623	0.136	0.058
-723.864	164.501	-0.150	0.272
-722.850	-159.615	-0.217	0.015
-721.835	-200.000	-0.003	-0.038
-720.821	16.664	-0.189	-0.192
-719.806	126.793	-0.148	-0.242
-718.791	19.232	0.179	-0.185
-717.777	-102.118	0.371	0.114
-716.762	2.330	-0.230	0.213
-715.748	-21.156	0.271	-0.212
-714.733	-59.005	0.444	-0.245
-713.718	-127.759	0.394	-0.073
-712.704	-200.000	0.003	0.176
-711.689	139.703	0.113	-0.191
-710.675	800.000	0.055	0.263
-709.660	-135.019	0.270	-0.041
-708.645	530.508	-0.109	-0.334
-707.631	-196.994	0.219	0.002
-706.616	-121.645	-0.145	0.031
-705.602	-96.474	-0.259	-0.087
-704.587	-136.498	-0.228	-0.034
-703.572	-200.000	-0.026	0.380
-702.558	-150.969	0.357	0.034
-701.543	-111.325	0.225	0.058
-700.529	-83.235	0.166	-0.068
-699.514	272.192	-0.043	-0.098
-698.499	-96.867	0.276	-0.093
-697.485	698.252	-0.088	-0.300
-696.470	-199.465	-0.497	0.003
-695.456	549.297	-0.096	0.299
-694.441	-69.462	-0.053	-0.026
-693.426	-71.894	0.280	-0.133
-692.412	33.849	0.057	0.064
-691.397	-183.363	-0.369	-0.008
-690.383	-200.000	-0.000	0.279
-689.368	-58.218	-0.249	0.139
-688.354	-34.274	0.132	-0.093
-687.339	-200.000	0.024	0.185
-686.324	91.932	-0.253	0.366
-685.310	-200.000	-0.002	0.198
-684.295	181.475	0.224	-0.424
-683.281	-120.990	-0.122	0.026
-682.266	-200.000	-0.001	0.442
-681.251	-21.615	0.180	-0.141
-680.237	400.520	-0.176	-0.476
-679.222	269.278	0.295	-0.666
-678.208	190.273	0.229	0.444
-677.193	101.216	-0.048	-0.071
-676.178	-173.262	-0.513	0.020
-675.164	33.828	0.271	-0.303
-674.149	-200.000	-0.036	0.387
-673.135	-25.849	-0.179	-0.135
-672.120	113.463	-0.158	0.246
-671.105	90.137	-0.014	-0.021
-670.091	-38.588	0.489	-0.331
-669.076	-14.782	0.319	-0.262
-668.062	176.758	0.268	-0.502
-667.047	175.376	-0.175	0.325
-666.032	780.248	0.044	-0.154
-665.018	-5.144	-0.267	0.235
-664.003	-88.215	-0.217	0.083
-662.989	-78.832	-0.172	-0.075
-661.974	-200.000	0.022	0.133
-660.959	-164.273	-0.666	0.039
-659.945	-114.381	0.253	0.062
-658.930	143.061	-0.213	0.364
-657.916	-41.200	-0.387	0.256
-656.901	25.778	0.430	0.459
-655.886	-5.730	0.251	-0.220
-654.872	100.714	0.253	-0.378
-653.857	-40.774	-0.272	-0.180
-652.843	800.000	-0.013	0.068
-651.828	-200.000	0.008	0.514
-650.814	-135.533	-0.502	-0.076
-649.799	-200.000	-0.005	-0.451
-648.784	-200.000	0.065	-0.428
-647.770	-200.000	-0.067	0.450
-646.755	-95.498	0.049	-0.017
-645.741	79.131	0.083	-0.114
-644.726	-21.762	0.197	-0.154
-643.711	584.228	-0.073	-0.232
-642.697	50.923	0.101	-0.123
-641.682	-200.000	-0.001	0.069
-640.668	521.138	-0.054	0.163
-639.653	143.919	-0.146	0.250
-638.638	-9.618	0.255	0.217
-637.624	-200.000	0.002	-0.061
-636.609	-34.680	0.283	0.198
-635.595	619.558	-0.047	0.152
-634.580	800.000	-0.125	-0.552
-633.565	24.836	0.081	-0.086
-632.551	-98.298	-0.091	-0.030
-631.536	7.990	-0.245	0.235
-630.522	-200.000	-0.015	0.492
-629.507	800.000	0.078	0.295
-628.492	755.496	0.089	0.312
-627.478	-57.561	0.199	0.111
-626.463	480.812	0.048	-0.140
-625.449	-200.000	-0.075	-0.426
-624.434	-27.268	-0.322	-0.240
-623.419	-26.203	0.367	-0.275
-622.405	95.527	-0.115	0.168
-621.390	-40.283	-0.362	-0.241
-620.376	-118.701	0.319	0.071
-619.361	-50.884	0.154	-0.092
-618.346	-2.760	-0.291	-0.260
-617.332	630.663	-0.111	0.362
-616.317	-10.904	0.219	-0.185
-615.303	-200.000	0.029	-0.701
-614.288	81.225	0.152	0.211
-613.273	-38.712	0.175	0.118
-612.259	2.975	0.146	-0.136
-611.244	800.000	-0.038	0.144
-610.230	-103.080	-0.295	-0.089
-609.215	800.000	-0.076	-0.419
-608.201	-62.134	-0.233	-0.124
-607.186	-200.000	0.079	-0.530
-606.171	-200.000	-0.640	-0.000
-605.157	-17.166	0.110	0.088
-604.142	26.902	0.343	-0.368
-603.128	85.606	-0.333	0.468
-602.113	108.160	0.177	-0.270
-601.098	-69.446	-0.182	-0.089
-600.084	287.842	-0.173	-0.401
-599.069	-84.583	0.468	0.188
-598.055	-53.937	0.330	0.192
-597.040	-200.000	0.009	-0.060
-596.025	-120.985	-0.610	0.130
-595.011	490.740	-0.089	-0.262
-593.996	189.398	0.164	-0.315
-592.982	-56.482	0.056	-0.032
-591.967	-200.000	-0.017	-0.146
-590.952	-63.040	-0.099	0.052
-589.938	85.705	0.126	-0.177
-588.923	661.168	-0.066	0.218
-587.909	204.293	0.170	0.337
-586.894	-50.486	-0.264	-0.159
-585.879	-140.615	0.432	0.057
-584.865	-76.468	-0.238	-0.107
-583.850	528.223	-0.189	-0.572
-582.836	202.066	0.021	-0.042
-581.821	-200.000	0.022	-0.395
-580.806	22.381	-0.156	-0.163
-579.792	-200.000	-0.013	0.441
-578.777	41.159	-0.350	0.405
-577.763	-168.147	-0.301	-0.015
-576.748	800.000	0.084	0.440
-575.733	-138.575	0.307	0.043
-574.719	-133.005	-0.158	-0.025
-573.704	-200.000	-0.033	-0.280
-572.690	800.000	-0.091	-0.354
-571.675	137.537	-0.215	0.361
-570.661	-200.000	-0.007	-0.217
-569.646	-178.434	0.197	0.006
-568.631	-125.707	-0.453	-0.087
-567.617	275.617	0.068	-0.155
-566.602	30.033	0.121	0.131
-565.588	112.247	-0.147	0.228
-564.573	-25.243	-0.330	-0.249
-563.558	3.554	-0.112	0.104
-562.544	74.736	-0.116	0.156
-561.529	536.865	-0.079	-0.240
-560.515	-200.000	0.016	-0.093
-559.500	-150.341	-0.443	-0.043
-558.485	-200.000	-0.050	0.292
-557.471	800.000	0.097	0.366
-556.456	109.652	0.276	-0.423
-555.442	456.556	-0.029	-0.082
-554.427	-120.835	0.522	-0.111
-553.412	-101.852	-0.080	0.025
-552.398	-200.000	-0.005	0.073
-551.383	-126.570	-0.866	0.163
-550.369	-4.392	-0.287	-0.253
-549.354	-160.992	0.623	0.041
-548.339	11.668	0.228	-0.223
-547.325	800.000	0.085	-0.310
-546.310	-52.493	-0.180	0.106
-545.296	-168.177	-0.280	0.014
-544.281	3.400	-0.259	-0.241
-543.266	-148.353	-0.407	-0.042
-542.252	14.092	0.062	0.062
-541.237	-34.904	-0.055	0.038
-540.223	-63.325	0.717	-0.375
-539.208	-122.033	0.375	0.078
-538.193	800.000	-0.054	-0.261
-537.179	-88.719	0.141	0.053
-536.164	-61.203	-0.479	0.257
-535.150	-137.499	0.447	-0.064
-534.135	-171.771	-0.205	-0.008
-533.121	-34.576	0.425	0.296
-532.106	-200.000	0.038	0.265
-531.091	-108.173	-0.277	-0.076
-530.077	-0.587	0.175	0.158
-529.062	-15.723	-0.135	-0.109
-528.048	16.416	-0.351	0.354
-527.033	287.143	0.042	0.098
-526.018	800.000	-0.081	0.356
-525.004	-6.094	-0.101	0.088
-523.989	-7.867	-0.203	-0.174
-522.975	398.221	0.123	-0.329
-521.960	-120.050	-0.511	-0.111
-520.945	134.610	0.148	-0.246
-519.931	526.763	0.050	0.151
-518.916	-39.403	-0.350	-0.234
-517.902	-200.000	0.032	-0.235
-516.887	110.853	-0.374	-0.575
-515.872	-144.319	0.464	0.054
-514.858	32.612	0.390	0.430
-513.843	-166.398	0.520	-0.027
-512.829	620.559	-0.100	-0.323
-511.814	2.161	-0.285	-0.262
-510.799	-200.000	-0.020	0.307
-509.785	-146.817	0.234	-0.025
-508.770	-39.824	0.245	-0.163
-507.756	91.637	0.033	-0.047
-506.741	-65.424	-0.583	-0.297
-505.726	216.749	0.135	0.274
-504.712	800.000	0.032	0.115
-503.697	-47.567	-0.455	-0.281
-502.683	-67.001	-0.136	0.068
-501.668	154.916	-0.112	-0.196
-500.653	72.933	-0.159	0.212
-499.639	-200.000	0.001	0.348
-498.624	-95.300	-0.188	-0.064
-497.610	-177.835	-0.431	0.013
-496.595	-66.703	-0.393	0.198
-495.581	-200.000	0.008	-0.144
-494.566	34.226	-0.150	0.166
-493.551	-69.617	0.163	0.079
-492.537	-94.448	0.211	0.073
-491.522	194.737	-0.060	-0.117
-490.508	559.081	0.103	0.320
-489.493	-200.000	0.001	-0.310
-488.478	800.000	-0.100	-0.381
-487.464	-52.829	0.394	0.231
-486.449	-97.426	0.131	-0.043
-485.435	-93.585	0.492	0.172
-484.420	-200.000	-0.036	0.394
-483.405	59.009	0.190	-0.239
-482.391	-136.309	0.457	0.067
-481.376	-91.600	0.329	-0.119
-480.362	800.000	-0.038	-0.166
-479.347	-97.409	-0.302	-0.099
-478.332	-7.597	-0.182	-0.157
-477.318	-189.569	0.324	-0.005
-476.303	-18.398	0.250	0.198
-475.289	-41.430	0.119	-0.078
-474.274	182.013	0.272	0.511
-473.259	-0.022	-0.112	0.102
-472.245	-158.071	-0.294	0.022
-471.230	46.794	-0.310	0.367
-470.216	-200.000	-0.066	0.386
-469.201	28.909	-0.110	0.119
-468.186	154.186	0.194	0.340
-467.172	-75.093	-0.505	0.229
-466.157	800.000	0.053	0.250
-465.143	174.688	-0.116	-0.215
-464.128	-94.052	0.074	-0.026
-463.113	-103.633	-0.261	-0.077
-462.099	-26.127	-0.092	-0.069
-461.084	164.173	-0.162	-0.291
-460.070	800.000	-0.179	-0.929
-459.055	62.679	-0.282	-0.360
-458.040	183.923	-0.086	-0.162
-457.026	421.889	-0.128	0.351
-456.011	-6.082	-0.194	-0.168
-454.997	181.994	-0.096	-0.180
-453.982	800.000	0.071	0.349
-452.968	-200.000	0.009	-0.156
-451.953	156.983	-0.062	0.109
-450.938	635.969	0.024	0.077
-449.924	34.999	-0.030	0.034
-448.909	-83.231	0.462	-0.188
-447.895	800.000	-0.025	-0.107
-446.880	-27.001	0.292	0.216
-445.865	-200.000	0.005	-0.115
-444.851	-47.665	-0.358	0.220
-443.836	-98.158	-0.517	-0.168
-442.822	-69.482	-0.368	0.179
-441.807	-74.914	-0.552	0.250
-440.792	800.000	0.095	0.400
-439.778	-91.968	0.191	0.068
-438.763	120.137	0.305	0.482
-437.749	-24.388	0.108	0.081
-436.734	-119.101	0.430	0.095
-435.719	-97.781	0.225	0.074
-434.705	-200.000	-0.095	-0.743
-433.690	70.055	0.223	0.293
-432.676	-147.768	0.540	0.057
-431.661	-102.751	-0.382	0.115
-430.646	-200.000	0.009	-0.099
-429.632	-192.992	-0.514	0.006
-428.617	260.957	-0.170	0.375
-427.603	-51.799	0.186	-0.110
-426.588	-20.252	0.153	0.120
-425.573	-134.148	-0.083	-0.013
-424.559	18.920	-0.230	0.234
-423.544	157.190	-0.162	0.285
-422.530	-0.936	-0.322	0.289
-421.515	-125.096	-0.146	-0.028
-420.500	295.127	-0.088	0.206
-419.486	88.255	-0.213	-0.300
-418.471	-4.194	-0.115	-0.101
-417.457	-80.598	0.354	-0.149
-416.442	1.476	0.192	-0.176
-415.428	35.024	-0.278	0.310
-414.413	-66.749	-0.079	-0.040
-413.398	-91.371	-0.484	-0.175
-412.384	1.448	-0.237	-0.216
-411.369	800.000	0.084	-0.313
-410.355	-71.465	0.594	-0.281
-409.340	800.000	0.041	0.203
-408.325	-120.564	0.430	0.092
-407.311	224.224	-0.123	-0.253
-406.296	-168.341	-0.406	0.020
-405.282	-70.300	-0.300	-0.144
-404.267	104.111	-0.134	0.201
-403.252	-102.590	0.023	-0.007
-402.238	195.923	0.077	0.150
-401.223	30.144	-0.374	0.405
-400.209	-136.310	0.492	0.072
-399.194	-99.037	-0.247	-0.079
-398.179	-11.795	0.085	-0.071
-397.165	-48.154	0.445	0.272
-396.150	-200.000	0.052	-0.312
-395.136	-84.757	-0.184	-0.073
-394.121	-45.313	0.126	-0.079
-393.106	40.752	-0.270	-0.309
-392.092	-200.000	-0.055	0.384
-391.077	-158.883	-0.154	0.011
-390.063	800.000	0.116	0.575
-389.048	207.975	0.071	-0.141
-388.033	-153.670	0.185	0.016
-387.019	77.579	0.191	0.258
-386.004	-37.770	-0.153	0.103
-384.990	-96.382	0.489	0.163
-383.975	6.656	-0.269	0.253
-382.960	-99.081	0.276	0.088
-381.946	-134.849	0.161	0.024
-380.931	-155.639	-0.510	0.041
-379.917	329.652	-0.054	-0.133
-378.902	-107.248	0.648	-0.180
-377.888	-62.993	-0.419	0.219
-376.873	52.812	-0.287	0.348
-375.858	-10.165	-0.288	0.242
-374.844	800.000	-0.092	-0.352
-373.829	34.368	0.273	-0.303
-372.815	-17.905	-0.322	0.256
-371.800	-200.000	0.037	-0.807
-370.785	-200.000	-0.011	-0.201
-369.771	28.117	-0.246	-0.263
-368.756	276.174	0.111	0.252
-367.742	-178.912	-0.622	-0.018
-366.727	-23.719	0.061	-0.046
-365.712	-24.134	0.243	0.184
-364.698	-200.000	-0.012	-0.624
-363.683	272.599	0.123	-0.277
-362.669	800.000	-0.086	0.342
-361.654	-13.966	0.160	0.131
-360.639	-200.000	-0.106	-0.925
-359.625	-99.327	0.798	-0.253
-358.610	292.602	0.160	0.371
-357.596	-1.345	0.192	-0.172
-356.581	-200.000	-0.044	-0.249
-355.566	30.800	0.239	0.260
-354.552	800.000	0.064	-0.254
-353.537	-200.000	0.002	-0.028
-352.523	10.097	0.378	0.363
-351.508	-200.000	-0.020	0.153
-350.493	26.092	0.400	-0.423
-349.479	800.000	-0.078	-0.332
-348.464	-200.000	-0.052	0.477
-347.450	-88.045	0.422	-0.159
-346.435	-126.361	0.124	0.023
-345.420	-200.000	-0.015	-0.277
-344.406	-134.369	-0.113	-0.017
-343.391	190.946	0.097	0.185
-342.377	-142.221	-0.397	-0.049
-341.362	371.912	-0.215	-0.555
-340.348	-23.135	0.284	0.216
-339.333	-4.150	0.274	-0.240
-338.318	148.531	-0.089	0.153
-337.304	-104.241	0.517	-0.151
-336.289	800.000	0.140	0.515
-335.275	-116.947	-0.399	0.092
-334.260	-89.192	-0.151	-0.056
-333.245	-44.969	0.323	0.203
-332.231	-43.804	-0.343	0.218
-331.216	5.360	0.149	0.139
-330.202	800.000	0.114	0.499
-329.187	-149.096	-0.061	-0.006
-328.172	-200.000	-0.001	-0.173
-327.158	-200.000	-0.117	0.000
-326.143	-128.409	0.179	0.032
-325.129	800.000	0.034	-0.191
-324.114	-200.000	0.016	0.113
-323.099	800.000	0.101	-0.430
-322.085	-200.000	-0.011	0.088
-321.070	-152.519	-0.623	-0.056
-320.056	-128.392	-0.261	-0.046
-319.041	104.293	0.067	0.100
-318.026	278.969	-0.005	-0.012
-317.012	-200.000	-0.052	-0.305
-315.997	-79.962	-0.342	0.145
-314.983	-200.000	0.115	0.774
-313.968	-200.000	0.104	0.654
-312.953	-184.024	-0.058	-0.001
-311.939	545.943	0.089	-0.270
-310.924	107.132	0.218	-0.329
-309.910	-73.325	-0.197	-0.091
-308.895	-15.109	0.249	0.201
-307.880	-83.280	-0.163	0.066
-306.866	-39.773	0.205	-0.135
-305.851	16.535	0.291	-0.291
-304.837	800.000	0.062	-0.333
-303.822	-100.565	0.396	-0.123
-302.807	-96.053	0.350	0.117
-301.793	-12.134	0.392	-0.324
-300.778	369.205	-0.029	0.075
-299.764	10.434	-0.020	-0.020
-298.749	12.582	0.433	0.423
-297.735	280.312	-0.203	-0.460
-296.720	19.397	-0.142	-0.145
-295.705	-200.000	0.021	0.280
-294.691	530.148	0.170	0.512
-293.676	-150.340	0.427	-0.041
-292.662	442.912	-0.061	-0.170
-291.647	-5.205	-0.414	0.359
-290.632	-143.713	-0.180	0.021
-289.618	480.294	0.101	-0.291
-288.603	800.000	0.063	0.303
-287.589	-33.358	-0.267	0.186
-286.574	2.332	0.267	0.244
-285.559	-200.000	-0.048	0.292
-284.545	-106.131	-0.441	0.124
-283.530	-32.350	0.245	0.173
-282.516	9.562	0.369	0.353
-281.501	-155.043	-0.228	-0.019
-280.486	-11.423	0.014	-0.012
-279.472	221.400	-0.182	0.370
-278.457	800.000	0.070	-0.304
-277.443	-70.671	-0.038	0.018
-276.428	119.190	-0.081	0.127
-275.413	221.390	0.046	-0.093
-274.399	-53.809	0.328	-0.189
-273.384	-97.148	0.465	-0.153
-272.370	-184.052	-0.186	-0.004
-271.355	-83.297	0.104	0.042
-270.340	-39.142	0.188	0.124
-269.326	256.521	0.150	-0.327
-268.311	9.610	0.243	0.232
-267.297	80.708	0.228	0.310
-266.282	-200.000	0.006	-0.071
-265.267	-200.000	-0.057	0.345
-264.253	25.684	-0.088	-0.093
-263.238	334.375	-0.040	-0.098
-262.224	800.000	0.034	0.130
-261.209	-200.000	0.002	0.253
-260.195	-110.080	0.253	-0.066
-259.180	800.000	0.057	-0.281
-258.165	-173.650	0.232	-0.009
-257.151	-75.898	-0.431	-0.192
-256.136	-107.410	-0.188	0.052
-255.122	-45.604	0.458	0.286
-254.107	145.298	-0.293	-0.496
-253.092	-149.868	0.455	0.044
-252.078	-129.516	-0.129	0.022
-251.063	129.457	-0.116	0.188
-250.049	-200.000	0.044	0.258
-249.034	322.058	-0.184	-0.443
-248.019	53.761	0.171	-0.207
-247.005	-90.740	0.347	0.125
-245.990	-137.494	-0.048	-0.007
-244.976	42.241	-0.126	-0.145
-243.961	800.000	0.136	0.674
-242.946	329.463	-0.109	0.265
-241.932	-18.484	0.099	0.078
-240.917	90.619	-0.170	0.241
-239.903	-164.692	0.130	-0.007
-238.888	-97.825	-0.127	0.041
-237.873	800.000	-0.036	-0.161
-236.859	-101.989	0.269	-0.081
-235.844	166.942	0.083	-0.149
-234.830	-106.181	0.625	0.176
-233.815	454.531	-0.132	-0.372
-232.800	-74.125	-0.168	-0.076
-231.786	-98.546	0.038	0.012
-230.771	29.338	0.311	0.333
-229.757	-92.950	-0.236	0.083
-228.742	-98.391	-0.601	-0.193
-227.727	-8.605	-0.691	0.584
-226.713	418.313	-0.047	0.127
-225.698	-24.937	0.053	-0.039
-224.684	-100.800	0.334	0.103
-223.669	139.696	0.213	0.354
-222.655	-200.000	0.066	-0.516
-221.640	-200.000	0.029	0.214
-220.625	-34.594	0.208	0.143
-219.611	160.990	-0.042	-0.075
-218.596	800.000	0.041	0.207
-217.582	-110.724	-0.784	-0.202
-216.567	-7.495	0.358	-0.305
-215.552	135.785	0.275	-0.452
-214.538	-139.608	0.371	0.049
-213.523	800.000	-0.120	0.553
-212.509	-200.000	-0.003	0.376
-211.494	-120.619	-0.476	-0.101
-210.479	280.331	0.071	0.161
-209.465	-6.210	0.059	-0.051
-208.450	71.476	-0.246	-0.322
-207.436	184.011	-0.313	0.584
-206.421	-95.972	0.131	0.044
-205.406	-200.000	-0.009	-0.057
-204.392	-67.057	0.221	-0.109
-203.377	77.584	-0.014	-0.019
-202.363	-110.688	-0.125	0.032
-201.348	93.691	0.208	0.297
-200.333	-47.742	-0.400	0.244
-199.319	43.029	-0.387	0.445
-198.304	91.622	0.109	0.155
-197.290	-129.535	0.510	-0.088
-196.275	271.919	0.146	0.325
-195.260	98.221	0.150	-0.218
-194.246	-66.380	-0.147	-0.073
-193.231	-139.337	0.546	0.073
-192.217	178.501	0.086	0.159
-191.202	-130.176	-0.430	-0.073
-190.187	-148.066	-0.578	-0.060
-189.173	-110.902	-0.148	0.038
-188.158	-87.559	0.592	0.224
-187.144	800.000	-0.071	0.380
-186.129	290.735	-0.285	0.654
-185.114	-82.550	-0.334	-0.136
-184.100	-165.124	0.825	-0.045
-183.085	-86.713	0.470	0.180
-182.071	800.000	-0.056	-0.262
-181.056	181.171	0.061	-0.114
-180.042	66.703	0.294	-0.377
-179.027	-200.000	0.042	-0.274
-178.012	-35.553	-0.223	-0.152
-176.998	61.681	0.191	-0.240
-175.983	131.461	0.325	-0.527
-174.969	785.610	-0.042	-0.145
-173.954	451.829	0.028	0.077
-172.939	-106.130	-0.207	0.058
-171.925	-45.154	0.195	-0.121
-170.910	-96.794	0.293	0.096
-169.896	-94.045	-0.194	-0.066
-168.881	68.020	-0.328	-0.423
-167.866	-200.000	0.005	-0.341
-166.852	116.897	-0.360	-0.558
-165.837	-51.371	-0.428	-0.251
-164.823	310.628	-0.181	0.429
-163.808	-94.894	0.392	-0.133
-162.793	-142.732	-0.187	0.023
-161.779	7.783	0.251	0.236
-160.764	79.191	-0.221	-0.298
-159.750	-150.551	-0.012	-0.001
-158.735	288.607	0.028	0.064
-157.720	-200.000	-0.047	-0.280
-156.706	-45.448	-0.271	0.168
-155.691	-110.030	0.408	-0.106
-154.677	190.598	0.152	0.287
-153.662	-200.000	-0.033	-0.247
-152.647	-158.922	0.436	0.031
-151.633	-156.501	-0.371	0.029
-150.618	-63.831	0.356	-0.183
-149.604	-52.216	0.356	0.207
-148.589	81.441	-0.212	0.289
-147.574	329.999	-0.059	-0.144
-146.560	-8.184	-0.420	0.355
-145.545	-200.000	-0.364	-0.000
-144.531	-200.000	-0.072	-0.639
-143.516	-156.482	-0.557	-0.043
-142.502	-85.267	-0.209	0.081
-141.487	41.972	-0.365	-0.416
-140.472	-29.364	-0.290	-0.208
-139.458	109.668	-0.075	0.113
-138.443	247.863	0.074	0.159
-137.429	644.283	0.108	0.348
-136.414	-134.774	0.167	0.025
-135.399	-75.943	0.636	-0.282
-134.385	-56.164	-0.184	-0.102
-133.370	18.206	0.168	-0.169
-132.356	-143.065	0.183	-0.022
-131.341	89.734	-0.015	0.021
-130.326	-86.161	0.166	-0.064
-129.312	57.325	-0.258	0.316
-128.297	64.750	-0.118	0.149
-127.283	59.817	0.205	-0.254
-126.268	294.715	0.247	0.570
-125.253	-200.000	0.018	0.413
-124.239	-127.784	0.289	0.052
-123.224	800.000	0.115	-0.441
-122.210	78.561	0.232	-0.312
-121.195	10.852	0.418	0.401
