DTS Sentinel unit serial number:	SN409020Multiplexer serial number:	ORYXHardware model number:	OX4-SRSoftware version number:	ORYX F/W v3.00 Oryx Data Collector v3.7.2.0data status	okinstallation	HaddamTimeLapsedifferential loss correction	single-endedforward channel	channel 3reverse channel	N/Adate	2011/06/21time	21:51:16forward acquisition time	30.00reverse acquisition time	0.00gamma	498.7831k internal	0.1760k external	0.1760temperature offset calibration	1.0074default loss term (dB/km)	0.3790temperature slope calibration	1.3530multiplexer offset coefficient	1.0000multiplexer slope coefficient	1.0000fibre end	0.00T internal ref (°C)	25.31T ext. ref 1 (°C)	19.27T ext. ref 2 (°C)	0.03length (m)	temperature (°C)	Stokes	anti-Stokes-747.200	-111.561	0.142	0.038
-746.185	63.991	-0.292	0.389
-745.171	-200.000	0.005	-0.429
-744.156	800.000	0.068	0.346
-743.142	139.641	0.145	-0.253
-742.127	-66.248	0.516	0.270
-741.112	-66.649	0.393	0.205
-740.098	58.280	-0.024	0.031
-739.083	-200.000	0.016	0.278
-738.069	-16.495	-0.050	0.042
-737.054	225.515	-0.158	-0.339
-736.039	102.624	0.071	0.110
-735.025	-160.758	-0.468	-0.032
-734.010	-183.982	-0.217	-0.005
-732.996	-112.990	-0.165	-0.043
-731.981	-111.683	-0.078	-0.021
-730.966	800.000	0.165	0.787
-729.952	17.229	0.127	-0.134
-728.937	-102.877	0.477	-0.149
-727.923	203.512	0.263	-0.539
-726.908	96.318	-0.065	0.098
-725.894	-66.952	0.047	0.024
-724.879	-121.301	0.575	0.126
-723.864	-178.208	-0.363	0.011
-722.850	26.164	-0.262	-0.289
-721.835	-125.990	-0.367	0.072
-720.821	72.894	0.198	-0.274
-719.806	403.705	-0.159	-0.445
-718.791	-200.000	-0.014	-0.241
-717.777	-56.832	0.504	-0.293
-716.762	-150.511	0.299	0.030
-715.748	108.459	0.279	0.440
-714.733	-82.747	-0.120	-0.051
-713.718	-147.066	0.200	-0.022
-712.704	-36.685	0.306	-0.217
-711.689	-151.394	-0.205	-0.020
-710.675	-111.006	-0.323	0.087
-709.660	-125.242	0.299	-0.060
-708.645	-200.000	0.019	-0.359
-707.631	-118.089	-0.528	0.124
-706.616	257.484	-0.110	-0.252
-705.602	-103.004	0.371	-0.115
-704.587	-100.106	0.503	0.164
-703.572	12.066	0.076	0.077
-702.558	-57.456	0.196	0.113
-701.543	45.944	-0.036	0.044
-700.529	-200.000	0.055	-0.456
-699.514	-200.000	0.008	0.109
-698.499	84.524	-0.235	-0.340
-697.485	21.346	0.181	-0.194
-696.470	-200.000	0.004	-0.156
-695.456	800.000	-0.131	0.522
-694.441	-200.000	0.022	0.619
-693.426	186.018	0.074	-0.145
-692.412	9.228	-0.170	-0.169
-691.397	-144.178	-0.249	-0.030
-690.383	240.646	0.187	-0.413
-689.368	152.789	0.217	-0.392
-688.354	800.000	0.015	0.066
-687.339	-179.021	0.386	0.011
-686.324	-49.647	-0.247	0.154
-685.310	83.221	0.252	-0.363
-684.295	-114.695	-0.311	0.078
-683.281	138.667	-0.090	0.157
-682.266	800.000	-0.087	-0.378
-681.251	284.581	0.177	0.423
-680.237	-59.694	0.213	0.120
-679.222	248.702	-0.077	-0.173
-678.208	97.831	0.110	0.167
-677.193	-200.000	0.014	-0.138
-676.178	52.716	-0.291	0.367
-675.164	-200.000	-0.071	0.684
-674.149	-103.395	-0.391	0.121
-673.135	659.091	-0.122	-0.418
-672.120	214.527	0.180	-0.376
-671.105	52.769	0.308	-0.388
-670.091	800.000	0.026	0.118
-669.076	94.328	0.264	0.396
-668.062	384.422	-0.214	-0.584
-667.047	-200.000	-0.018	-0.160
-666.032	-160.014	-0.631	0.045
-665.018	138.336	0.352	-0.610
-664.003	-33.829	0.217	-0.157
-662.989	98.899	-0.245	0.374
-661.974	308.653	0.044	-0.108
-660.959	52.570	-0.117	-0.147
-659.945	19.517	0.436	-0.462
-658.930	-166.092	0.333	-0.018
-657.916	45.497	-0.244	0.297
-656.901	46.291	0.453	-0.554
-655.886	441.820	0.060	0.175
-654.872	-89.054	0.202	-0.078
-653.857	-200.000	0.005	0.166
-652.843	315.608	0.086	0.214
-651.828	-80.533	-0.186	-0.081
-650.814	-9.838	-0.296	-0.260
-649.799	-78.516	-0.092	-0.041
-648.784	520.777	0.122	-0.379
-647.770	19.195	-0.466	-0.493
-646.755	-142.935	-0.251	-0.032
-645.741	-81.325	0.416	-0.180
-644.726	-200.000	-0.025	-0.349
-643.711	-200.000	-0.011	0.654
-642.697	-4.392	0.275	0.251
-641.682	-88.313	-0.270	0.106
-640.668	233.281	0.127	-0.276
-639.653	143.240	-0.091	-0.159
-638.638	-112.112	0.257	-0.068
-637.624	125.564	-0.319	-0.531
-636.609	101.606	0.221	-0.339
-635.595	-200.000	-0.091	-0.535
-634.580	74.249	0.184	-0.254
-633.565	-91.828	-0.467	-0.173
-632.551	-65.440	0.170	-0.090
-631.536	-200.000	0.019	0.324
-630.522	-153.258	0.454	0.041
-629.507	-79.342	-0.619	0.274
-628.492	-149.873	-0.334	0.034
-627.478	-40.440	-0.401	-0.273
-626.463	-122.668	0.518	0.110
-625.449	246.038	-0.159	0.354
-624.434	23.454	-0.151	-0.163
-623.419	-110.223	-0.177	0.048
-622.405	-139.518	0.223	0.031
-621.390	-122.000	0.348	-0.075
-620.376	108.424	-0.033	0.052
-619.361	15.471	-0.205	-0.212
-618.346	118.899	-0.085	-0.138
-617.332	-200.000	0.058	0.361
-616.317	-133.816	-0.098	0.016
-615.303	-58.374	-0.384	-0.219
-614.288	166.914	-0.058	-0.108
-613.273	-52.962	-0.265	0.160
-612.259	277.766	-0.167	0.393
-611.244	108.493	0.064	0.100
-610.230	-161.555	-0.170	-0.011
-609.215	-119.497	0.267	0.060
-608.201	-19.556	0.167	0.135
-607.186	-200.000	-0.019	-0.473
-606.171	-27.790	0.400	0.305
-605.157	-171.161	0.391	0.017
-604.142	-60.449	-0.349	-0.194
-603.128	224.988	-0.048	-0.102
-602.113	-131.107	-0.072	0.012
-601.098	-200.000	0.023	-0.382
-600.084	-200.000	0.048	0.292
-599.069	-164.676	0.246	-0.014
-598.055	-17.973	0.155	0.128
-597.040	112.195	-0.245	-0.390
-596.025	-76.490	-0.301	0.138
-595.011	-82.787	-0.525	-0.222
-593.996	-103.025	0.719	0.223
-592.982	-99.764	-0.254	-0.083
-591.967	-87.229	-0.120	-0.048
-590.952	-143.540	0.529	0.066
-589.938	-52.856	0.503	-0.303
-588.923	14.113	0.039	0.039
-587.909	800.000	0.053	-0.235
-586.894	-65.575	-0.431	0.226
-585.879	-96.303	-0.063	-0.022
-584.865	46.665	0.214	-0.261
-583.850	-89.025	-0.286	-0.111
-582.836	-98.619	0.238	-0.079
-581.821	-142.673	-0.427	0.054
-580.806	-15.867	-0.061	0.051
-579.792	-200.000	0.068	-0.401
-578.777	-200.000	-0.080	-0.543
-577.763	-200.000	0.018	-0.191
-576.748	-1.666	0.098	-0.091
-575.733	-104.327	0.170	0.051
-574.719	-96.241	-0.200	0.069
-573.704	-54.987	-0.264	-0.156
-572.690	-83.013	0.118	-0.050
-571.675	-115.042	-0.133	0.033
-570.661	-187.248	-0.351	-0.006
-569.646	-94.865	0.476	-0.168
-568.631	-78.038	0.335	-0.151
-567.617	70.827	-0.263	0.358
-566.602	-38.748	-0.368	-0.254
-565.588	657.679	-0.029	-0.098
-564.573	-26.647	0.328	-0.252
-563.558	13.305	-0.271	0.276
-562.544	-41.284	0.213	-0.144
-561.529	316.464	0.116	0.288
-560.515	-200.000	0.009	-0.143
-559.500	-65.871	0.055	0.029
-558.485	41.692	0.152	-0.181
-557.471	-144.279	0.201	0.024
-556.456	-70.156	0.395	-0.196
-555.442	800.000	-0.012	0.062
-554.427	-59.164	-0.414	-0.233
-553.412	15.356	-0.435	-0.448
-552.398	24.792	-0.142	0.154
-551.383	-119.144	0.120	-0.027
-550.369	800.000	-0.083	0.406
-549.354	-27.276	0.226	0.173
-548.339	-161.706	0.261	0.017
-547.325	-81.869	-0.244	-0.104
-546.310	-39.299	0.123	0.085
-545.296	-151.366	0.277	0.027
-544.281	-38.006	-0.111	0.077
-543.266	307.073	-0.117	0.286
-542.252	-104.508	-0.133	-0.040
-541.237	34.222	-0.067	-0.076
-540.223	-33.496	0.400	-0.290
-539.208	61.998	-0.249	-0.326
-538.193	-61.275	-0.307	0.169
-537.179	-119.849	-0.208	-0.047
-536.164	-107.340	0.238	0.068
-535.150	-1.248	-0.318	-0.294
-534.135	51.061	0.251	0.313
-533.121	104.029	0.156	-0.241
-532.106	-38.340	-0.249	-0.173
-531.091	-118.028	0.533	-0.124
-530.077	142.928	0.165	-0.288
-529.062	-171.226	-0.157	0.007
-528.048	680.902	-0.035	-0.120
-527.033	-200.000	0.058	-0.357
-526.018	-100.166	0.288	-0.093
-525.004	800.000	0.067	-0.276
-523.989	104.914	0.161	0.249
-522.975	299.179	0.160	0.388
-521.960	157.221	-0.103	-0.187
-520.945	79.683	-0.113	-0.159
-519.931	800.000	-0.034	0.193
-518.916	-184.109	-0.144	-0.003
-517.902	-91.968	-0.397	0.147
-516.887	-124.978	-0.482	0.096
-515.872	163.685	-0.130	0.240
-514.858	-181.340	0.382	-0.010
-513.843	176.770	0.177	0.338
-512.829	660.361	0.122	0.413
-511.814	-171.142	0.358	0.016
-510.799	-30.801	0.191	-0.141
-509.785	-157.823	-0.385	-0.030
-508.770	-51.668	-0.064	0.039
-507.756	153.141	-0.119	0.213
-506.741	-27.115	-0.454	-0.346
-505.726	-21.346	0.101	0.081
-504.712	-74.885	-0.403	-0.188
-503.697	-200.000	0.016	-0.203
-502.683	-200.000	0.010	0.127
-501.668	27.476	0.290	0.319
-500.653	-25.723	0.678	-0.523
-499.639	32.197	-0.066	0.075
-498.624	-200.000	0.041	0.332
-497.610	141.193	-0.090	0.157
-496.595	193.884	0.151	-0.300
-495.581	800.000	0.059	-0.284
-494.566	-200.000	0.049	0.330
-493.551	308.969	-0.033	-0.081
-492.537	-121.653	-0.271	0.058
-491.522	800.000	-0.110	0.436
-490.508	-139.911	-0.658	-0.090
-489.493	-75.504	0.288	0.134
-488.478	-175.670	0.127	-0.004
-487.464	559.971	0.158	-0.502
-486.449	173.892	-0.075	0.142
-485.435	-145.999	0.098	-0.011
-484.420	-200.000	0.029	0.205
-483.405	262.881	0.089	0.202
-482.391	-200.000	-0.021	-0.168
-481.376	800.000	-0.057	0.215
-480.362	423.932	-0.123	-0.347
-479.347	-46.206	0.087	-0.056
-478.332	-77.143	0.097	-0.044
-477.318	-104.033	0.102	-0.031
-476.303	12.027	-0.320	0.322
-475.289	-34.331	-0.478	-0.342
-474.274	52.120	-0.272	0.340
-473.259	100.143	0.188	0.286
-472.245	529.159	0.083	0.258
-471.230	-23.272	-0.096	0.075
-470.216	-18.907	-0.179	0.146
-469.201	-200.000	0.007	-0.420
-468.186	-76.252	-0.185	-0.085
-467.172	-133.948	-0.141	-0.023
-466.157	30.454	0.249	0.278
-465.143	800.000	0.088	-0.421
-464.128	-85.807	-0.136	-0.055
-463.113	57.369	0.067	0.086
-462.099	238.903	-0.069	-0.150
-461.084	114.208	-0.078	-0.125
-460.070	-53.822	-0.536	0.318
-459.055	6.961	-0.143	0.139
-458.040	-200.000	-0.087	-0.563
-457.026	-200.000	-0.025	-0.338
-456.011	-200.000	0.015	-0.249
-454.997	800.000	-0.034	-0.146
-453.982	-101.019	0.236	0.075
-452.968	185.564	0.338	-0.658
-451.953	-5.239	-0.220	-0.197
-450.938	319.382	-0.116	-0.289
-449.924	-28.265	0.144	0.109
-448.909	-141.451	0.305	-0.040
-447.895	-186.871	0.299	0.005
-446.880	139.987	-0.219	0.378
-445.865	-82.572	-0.349	-0.147
-444.851	217.839	-0.241	-0.505
-443.836	-173.783	-0.515	0.020
-442.822	94.825	0.185	0.275
-441.807	-102.314	0.054	-0.017
-440.792	154.196	0.044	-0.079
-439.778	-102.961	0.351	-0.108
-438.763	-9.119	0.307	0.268
-437.749	-16.987	0.112	0.092
-436.734	-200.000	-0.027	0.293
-435.719	800.000	-0.029	-0.121
-434.705	241.822	0.053	0.117
-433.690	-92.206	0.916	0.336
-432.676	-8.999	0.217	-0.190
-431.661	-200.000	0.018	0.183
-430.646	21.963	0.180	-0.192
-429.632	66.050	0.272	-0.360
-428.617	52.942	0.142	0.177
-427.603	-51.593	-0.382	-0.232
-426.588	-44.429	-0.593	0.387
-425.573	-85.196	0.286	-0.116
-424.559	-97.295	0.175	0.059
-423.544	-200.000	0.013	-0.499
-422.530	800.000	0.064	-0.285
-421.515	-200.000	-0.006	-0.201
-420.500	441.894	-0.070	-0.201
-419.486	20.466	0.114	-0.120
-418.471	-105.424	-0.334	0.098
-417.457	-175.196	0.215	0.008
-416.442	18.497	0.517	-0.539
-415.428	13.881	-0.145	0.147
-414.413	-160.290	-0.463	-0.032
-413.398	-151.306	0.134	0.013
-412.384	-23.288	-0.200	0.157
-411.369	800.000	-0.088	-0.339
-410.355	800.000	-0.047	-0.226
-409.340	258.782	0.191	0.432
-408.325	-130.802	-0.353	0.061
-407.311	-45.284	0.114	-0.074
-406.296	-200.000	0.033	0.236
-405.282	387.100	-0.229	0.620
-404.267	-200.000	-0.104	0.693
-403.252	-200.000	-0.014	0.232
-402.238	138.633	-0.153	-0.263
-401.223	-158.924	-0.368	0.027
-400.209	252.010	-0.131	-0.293
-399.194	-30.617	-0.304	-0.224
-398.179	-69.531	0.098	-0.049
-397.165	-200.000	-0.054	0.459
-396.150	420.667	-0.136	-0.383
-395.136	-200.000	-0.005	-0.075
-394.121	107.158	-0.338	0.525
-393.106	-93.753	0.108	0.039
-392.092	-8.122	-0.144	-0.127
-391.077	-49.708	0.463	-0.286
-390.063	-97.143	0.382	-0.129
-389.048	-200.000	0.088	0.563
-388.033	114.608	-0.039	-0.062
-387.019	274.279	-0.036	-0.084
-386.004	-17.082	0.385	-0.316
-384.990	-182.162	-0.339	0.008
-383.975	371.009	0.048	0.129
-382.960	-88.808	0.260	0.100
-381.946	-78.004	-0.304	-0.136
-380.931	-32.543	-0.313	0.227
-379.917	28.368	0.040	0.044
-378.902	-200.000	-0.036	0.405
-377.888	-111.569	-0.366	-0.096
-376.873	-9.893	0.142	-0.123
-375.858	-62.100	0.138	-0.075
-374.844	-200.000	-0.069	0.526
-373.829	27.407	0.211	0.232
-372.815	88.483	-0.190	-0.275
-371.800	445.327	-0.015	-0.044
-370.785	-32.922	-0.157	0.113
-369.771	-166.884	-0.282	-0.015
-368.756	-200.000	-0.015	-0.114
-367.742	-200.000	0.015	0.170
-366.727	377.785	-0.135	0.362
-365.712	-90.499	-0.351	-0.132
-364.698	-88.559	0.277	0.107
-363.683	-120.476	-0.336	0.074
-362.669	-88.971	-0.603	-0.231
-361.654	174.165	0.214	-0.404
-360.639	-173.007	-0.186	-0.007
-359.625	800.000	0.035	-0.136
-358.610	-12.418	-0.340	-0.289
-357.596	-200.000	0.036	0.577
-356.581	-46.898	-0.072	-0.046
-355.566	271.377	0.056	-0.130
-354.552	80.351	-0.113	0.159
-353.537	-155.862	0.114	0.009
-352.523	96.688	0.232	-0.347
-351.508	211.119	-0.163	0.335
-350.493	-82.598	-0.237	0.100
-349.479	-28.394	-0.289	0.217
-348.464	255.786	-0.173	-0.387
-347.450	580.174	0.182	0.583
-346.435	24.972	-0.266	-0.287
-345.420	-200.000	0.043	-0.547
-344.406	164.151	-0.132	0.243
-343.391	129.465	0.326	0.543
-342.377	-143.677	-0.330	0.040
-341.362	800.000	0.059	0.234
-340.348	755.734	-0.179	-0.635
-339.333	-114.452	0.186	0.046
-338.318	154.821	0.174	0.312
-337.304	-123.788	0.488	0.099
-336.289	-62.567	-0.456	-0.246
-335.275	159.955	-0.200	0.363
-334.260	471.938	-0.053	0.155
-333.245	-121.464	-0.437	0.094
-332.231	800.000	0.187	0.684
-331.216	-158.006	-0.088	-0.007
-330.202	-158.029	-0.317	0.024
-329.187	-98.158	-0.399	-0.133
-328.172	260.431	-0.061	0.137
-327.158	111.134	-0.210	-0.330
-326.143	38.851	0.301	-0.350
-325.129	78.592	0.152	-0.212
-324.114	-111.872	0.500	-0.130
-323.099	202.521	-0.155	-0.312
-322.085	745.312	0.114	-0.401
-321.070	-101.674	-0.224	0.070
-320.056	68.577	0.193	-0.258
-319.041	142.474	-0.037	-0.063
-318.026	800.000	-0.080	0.325
-317.012	-123.559	0.051	0.011
-315.997	90.133	-0.183	-0.267
-314.983	24.614	0.348	0.374
-313.968	-107.779	-0.249	-0.070
-312.953	-44.308	-0.027	-0.018
-311.939	583.417	0.072	0.230
-310.924	-12.344	0.228	0.193
-309.910	-80.340	0.321	-0.139
-308.895	124.240	0.053	0.087
-307.880	229.709	-0.182	-0.388
-306.866	-10.313	0.249	-0.214
-305.851	-200.000	0.007	0.363
-304.837	-150.259	-0.262	0.026
-303.822	-191.889	-0.071	0.001
-302.807	-135.655	0.680	0.104
-301.793	148.359	0.246	-0.432
-300.778	47.900	-0.143	0.174
-299.764	-200.000	0.011	-0.103
-298.749	17.094	0.350	-0.360
-297.735	-185.242	-0.081	-0.002
-296.720	-200.000	0.056	0.365
-295.705	38.812	-0.156	0.181
-294.691	148.633	0.287	0.506
-293.676	-200.000	0.012	0.509
-292.662	-116.476	-0.249	-0.059
-291.647	27.176	0.446	0.486
-290.632	56.678	0.228	0.288
-289.618	-137.507	0.335	0.049
-288.603	-200.000	-0.047	-0.391
-287.589	-92.781	0.260	-0.094
-286.574	-92.791	-0.444	0.161
-285.559	800.000	0.087	0.340
-284.545	-77.763	-0.386	0.172
-283.530	-200.000	0.004	0.098
-282.516	-80.877	0.159	-0.068
-281.501	418.296	0.103	0.288
-280.486	-148.932	0.408	-0.042
-279.472	-59.589	0.178	0.099
-278.457	116.760	0.081	0.129
-277.443	-0.585	-0.076	-0.070
-276.428	17.854	-0.337	0.348
-275.413	-200.000	-0.005	-0.354
-274.399	150.877	0.198	-0.350
-273.384	-81.936	0.194	-0.082
-272.370	33.605	0.247	0.279
-271.355	-113.601	-0.244	0.061
-270.340	-175.278	0.173	0.006
-269.326	-200.000	0.026	-0.468
-268.311	-200.000	0.185	0.000
-267.297	-134.410	0.427	0.067
-266.282	-135.632	0.102	0.016
-265.267	-200.000	0.011	0.320
-264.253	-107.494	-0.398	0.112
-263.238	526.850	-0.032	-0.098
-262.224	-105.352	0.313	-0.092
-261.209	125.523	-0.212	0.347
-260.195	-84.928	0.206	-0.084
-259.180	86.363	0.088	0.126
-258.165	-118.791	-0.487	0.110
-257.151	-156.197	0.125	0.010
-256.136	-105.673	0.161	0.047
-255.122	98.615	-0.240	-0.359
-254.107	-29.875	0.186	0.137
-253.092	58.207	0.308	-0.392
-252.078	-200.000	-0.015	-0.363
-251.063	-96.345	-0.395	0.135
-250.049	-104.630	0.196	-0.058
-249.034	800.000	0.019	0.106
-248.019	-55.352	0.398	0.231
-247.005	-75.642	0.121	0.055
-245.990	-21.946	-0.119	-0.094
-244.976	-64.284	-0.472	-0.248
-243.961	8.833	0.251	-0.245
-242.946	800.000	-0.066	-0.295
-241.932	-50.654	-0.447	0.272
-240.917	-102.893	-0.264	0.081
-239.903	-200.000	0.003	-0.058
-238.888	7.498	0.143	0.138
-237.873	74.667	-0.089	0.122
-236.859	94.100	0.084	0.124
-235.844	137.255	-0.066	-0.112
-234.830	277.896	-0.147	-0.340
-233.815	-200.000	0.044	-0.780
-232.800	-6.365	-0.122	-0.108
-231.786	-200.000	0.035	0.255
-230.771	36.179	0.350	-0.400
-229.757	-41.876	0.411	-0.272
-228.742	-142.490	-0.277	-0.035
-227.727	59.018	-0.301	0.384
-226.713	24.765	-0.326	0.350
-225.698	-83.974	0.281	-0.115
-224.684	59.601	0.348	-0.444
-223.669	68.615	0.039	0.051
-222.655	800.000	-0.133	0.693
-221.640	316.278	-0.189	0.465
-220.625	-22.230	0.244	0.191
-219.611	-32.047	-0.269	0.195
-218.596	486.348	-0.240	0.713
-217.582	-200.000	-0.013	0.564
-216.567	-88.511	0.073	0.028
-215.552	-124.657	-0.207	-0.041
-214.538	-44.536	-0.505	0.326
-213.523	-27.768	0.509	0.381
-212.509	-129.375	-0.094	-0.017
-211.494	800.000	0.133	-0.514
-210.479	-52.529	-0.369	0.220
-209.465	800.000	0.123	0.451
-208.450	-35.908	0.268	0.187
-207.436	-29.288	-0.337	0.250
-206.421	-200.000	0.021	-0.154
-205.406	235.072	0.222	-0.475
-204.392	189.203	-0.240	-0.466
-203.377	-200.000	-0.048	-0.439
-202.363	134.832	0.113	-0.190
-201.348	4.625	0.075	-0.072
-200.333	-99.970	0.194	0.062
-199.319	206.615	-0.097	-0.196
-198.304	171.575	-0.191	-0.357
-197.290	-78.126	-0.061	-0.027
-196.275	-87.925	0.310	-0.120
-195.260	-200.000	0.019	-0.298
-194.246	-166.646	0.210	0.011
-193.231	-38.433	0.243	0.166
-192.217	92.315	-0.124	0.181
-191.202	800.000	0.016	0.072
-190.187	0.289	0.085	0.079
-189.173	800.000	-0.093	-0.412
-188.158	-140.934	0.081	0.011
-187.144	-11.578	0.067	0.057
-186.129	86.816	-0.258	0.369
-185.114	381.480	0.323	0.861
-184.100	-66.091	0.188	-0.097
-183.085	-17.990	-0.168	0.136
-182.071	-59.525	0.515	-0.285
-181.056	19.995	0.242	0.252
-180.042	-59.954	0.411	0.226
-179.027	-111.407	0.208	0.054
-178.012	52.244	-0.068	0.084
-176.998	-67.719	-0.241	-0.122
-175.983	800.000	0.018	-0.093
-174.969	-131.622	0.303	-0.051
-173.954	557.943	-0.071	0.222
-172.939	-200.000	0.045	-0.414
-171.925	-109.349	0.534	0.145
-170.910	-156.408	0.133	-0.011
-169.896	310.086	0.168	0.408
-168.881	143.106	0.088	-0.151
-167.866	-182.353	0.388	0.009
-166.852	800.000	-0.063	0.332
-165.837	-57.353	-0.207	0.117
-164.823	503.593	0.021	0.063
-163.808	16.904	0.222	-0.228
-162.793	-64.423	0.453	0.237
-161.779	-86.872	0.323	-0.127
-160.764	45.728	-0.270	-0.323
-159.750	-9.263	-0.148	-0.128
-158.735	-200.000	0.070	0.496
-157.720	100.066	-0.302	0.453
-156.706	-0.396	-0.180	0.165
-155.691	780.878	0.040	0.144
-154.677	-200.000	-0.009	0.433
-153.662	-70.417	-0.350	0.171
-152.647	-200.000	-0.004	0.359
-151.633	-143.626	0.276	0.033
-150.618	29.789	-0.101	-0.112
-149.604	42.739	0.273	0.321
-148.589	800.000	0.014	-0.071
-147.574	-129.506	-0.281	0.050
-146.560	-54.296	0.090	-0.053
-145.545	-200.000	0.008	-0.250
-144.531	-200.000	-0.031	-0.295
-143.516	-109.680	0.413	-0.112
-142.502	-85.485	0.228	0.091
-141.487	-121.762	0.137	0.029
-140.472	-25.975	-0.287	-0.218
-139.458	502.310	0.184	0.550
-138.443	15.207	-0.255	0.258
-137.429	41.034	0.063	-0.073
-136.414	-102.618	0.214	-0.065
-135.399	-6.889	-0.093	-0.081
-134.385	-59.292	-0.446	0.247
-133.370	-40.398	0.133	0.089
-132.356	-172.152	0.331	-0.014
-131.341	108.482	0.161	0.248
-130.326	-38.462	0.205	0.140
-129.312	-18.112	0.201	0.162
-128.297	-20.941	0.548	0.433
-127.283	-191.523	0.243	-0.003
-126.268	268.698	0.159	0.361
-125.253	-108.747	-0.470	-0.129
-124.239	-174.984	-0.176	0.006
-123.224	41.784	0.223	0.260
-122.210	-6.497	0.089	-0.079
-121.195	14.089	-0.267	0.268
