DTS Sentinel unit serial number:	SN409020Multiplexer serial number:	ORYXHardware model number:	OX4-SRSoftware version number:	ORYX F/W v3.00 Oryx Data Collector v3.7.2.0data status	okinstallation	HaddamTimeLapsedifferential loss correction	single-endedforward channel	channel 3reverse channel	N/Adate	2011/06/21time	17:01:16forward acquisition time	30.00reverse acquisition time	0.00gamma	498.7831k internal	0.1787k external	0.1787temperature offset calibration	1.0074default loss term (dB/km)	0.3790temperature slope calibration	1.3530multiplexer offset coefficient	1.0000multiplexer slope coefficient	1.0000fibre end	0.00T internal ref (°C)	32.37T ext. ref 1 (°C)	27.68T ext. ref 2 (°C)	0.24length (m)	temperature (°C)	Stokes	anti-Stokes-747.200	-200.000	0.018	-0.275
-746.185	50.213	0.228	0.280
-745.171	-170.051	-0.149	-0.007
-744.156	147.849	0.068	-0.120
-743.142	-157.856	-0.310	-0.024
-742.127	85.181	-0.107	-0.153
-741.112	-155.112	-0.483	0.041
-740.098	-200.000	0.002	0.296
-739.083	-85.469	-0.124	0.050
-738.069	-200.000	-0.002	0.451
-737.054	-87.387	-0.344	0.135
-736.039	-14.419	-0.061	-0.051
-735.025	-39.583	-0.172	0.117
-734.010	-200.000	0.011	0.168
-732.996	8.166	0.328	0.320
-731.981	-96.292	-0.316	0.108
-730.966	138.040	-0.196	-0.336
-729.952	-60.703	-0.074	-0.041
-728.937	-200.000	0.012	-0.287
-727.923	43.469	0.251	0.299
-726.908	-137.043	-0.457	0.067
-725.894	602.436	0.116	-0.378
-724.879	51.594	-0.245	-0.303
-723.864	-28.081	-0.203	0.152
-722.850	-63.909	0.157	-0.083
-721.835	-56.168	-0.134	0.077
-720.821	70.459	0.078	-0.106
-719.806	238.944	-0.152	-0.329
-718.791	-148.793	0.240	0.025
-717.777	-3.567	-0.167	0.151
-716.762	-155.479	-0.369	0.031
-715.748	800.000	0.076	0.374
-714.733	197.296	0.051	0.101
-713.718	548.446	0.081	0.255
-712.704	-145.885	0.471	-0.054
-711.689	129.893	-0.196	0.326
-710.675	-39.558	0.075	-0.051
-709.660	-119.675	0.477	0.106
-708.645	230.500	-0.099	0.211
-707.631	7.101	-0.101	0.097
-706.616	-31.979	0.198	0.144
-705.602	383.336	0.097	0.260
-704.587	-123.866	-0.312	-0.063
-703.572	284.448	0.064	0.151
-702.558	-200.000	0.018	0.219
-701.543	382.162	-0.093	-0.248
-700.529	-115.341	-0.118	0.029
-699.514	-66.293	-0.428	0.220
-698.499	-176.392	-0.439	-0.015
-697.485	387.711	0.042	0.113
-696.470	454.716	-0.007	-0.021
-695.456	54.685	0.219	0.274
-694.441	-190.253	-0.103	0.001
-693.426	-127.647	0.143	-0.027
-692.412	64.194	-0.192	0.251
-691.397	562.540	0.021	-0.066
-690.383	313.856	-0.147	-0.360
-689.368	-96.507	-0.085	0.029
-688.354	-75.381	0.063	-0.029
-687.339	-110.695	-0.273	-0.073
-686.324	-200.000	0.033	0.284
-685.310	-164.853	0.548	0.031
-684.295	-106.859	0.220	-0.063
-683.281	-109.897	0.431	-0.116
-682.266	109.478	-0.084	-0.130
-681.251	23.347	0.556	-0.593
-680.237	175.050	0.199	0.376
-679.222	-183.517	-0.478	0.011
-678.208	-200.000	0.009	0.093
-677.193	-200.000	0.001	0.134
-676.178	319.739	-0.034	0.085
-675.164	-185.555	0.095	-0.002
-674.149	189.852	-0.312	0.610
-673.135	274.533	0.167	0.384
-672.120	-4.185	-0.176	0.158
-671.105	-124.856	0.235	0.047
-670.091	-199.409	0.479	-0.003
-669.076	-50.699	-0.337	-0.205
-668.062	-195.229	-0.117	0.001
-667.047	59.368	0.296	0.379
-666.032	50.974	0.062	0.077
-665.018	-12.483	-0.245	-0.207
-664.003	-43.738	0.068	-0.044
-662.989	-71.868	-0.496	0.239
-661.974	1.538	0.195	-0.182
-660.959	56.493	-0.194	-0.246
-659.945	-62.470	-0.257	-0.138
-658.930	-3.426	-0.573	0.517
-657.916	-98.996	-0.271	-0.088
-656.901	-148.178	-0.409	0.043
-655.886	-17.261	-0.309	-0.252
-654.872	-66.110	-0.294	0.152
-653.857	800.000	-0.049	-0.244
-652.843	-118.121	-0.172	-0.040
-651.828	-81.162	-0.179	0.076
-650.814	-123.218	-0.057	-0.012
-649.799	51.189	0.124	0.153
-648.784	164.526	0.095	-0.173
-647.770	800.000	-0.096	-0.352
-646.755	371.397	-0.179	-0.473
-645.741	67.859	0.165	-0.219
-644.726	-164.912	-0.256	0.015
-643.711	-197.400	0.203	0.002
-642.697	-41.950	0.354	0.235
-641.682	-144.013	-0.229	-0.028
-640.668	-200.000	-0.015	0.150
-639.653	800.000	0.070	-0.287
-638.638	-34.550	-0.411	-0.291
-637.624	-112.839	-0.352	0.090
-636.609	-65.857	-0.212	-0.110
-635.595	382.808	0.074	0.198
-634.580	800.000	0.084	0.380
-633.565	-36.297	0.503	0.351
-632.551	-80.709	-0.065	-0.028
-631.536	-43.412	0.357	-0.233
-630.522	183.163	-0.108	0.208
-629.507	15.181	-0.134	-0.136
-628.492	800.000	0.082	-0.414
-627.478	-125.116	-0.365	-0.072
-626.463	479.958	-0.116	-0.343
-625.449	-200.000	-0.001	0.292
-624.434	-119.451	-0.125	0.028
-623.419	-123.934	0.186	0.038
-622.405	9.846	0.232	0.228
-621.390	159.637	-0.114	-0.205
-620.376	-54.019	0.526	0.309
-619.361	-200.000	-0.041	0.290
-618.346	378.770	-0.218	0.581
-617.332	-55.447	0.112	-0.065
-616.317	-85.572	0.299	-0.120
-615.303	371.033	0.083	0.218
-614.288	-124.813	-0.116	-0.023
-613.273	-28.172	-0.178	0.133
-612.259	-71.445	-0.289	-0.139
-611.244	-73.602	-0.275	-0.129
-610.230	60.126	-0.344	-0.441
-609.215	-167.423	-0.176	0.009
-608.201	21.852	-0.153	0.161
-607.186	-127.341	0.323	-0.060
-606.171	362.004	0.094	0.244
-605.157	170.851	0.281	0.524
-604.142	-45.997	-0.150	0.096
-603.128	176.045	-0.163	0.306
-602.113	-55.481	0.275	-0.159
-601.098	-103.208	-0.534	0.162
-600.084	-200.000	0.016	0.308
-599.069	-200.000	-0.028	0.187
-598.055	176.175	0.362	-0.682
-597.040	-78.994	-0.346	0.151
-596.025	177.527	-0.148	0.280
-595.011	509.882	0.024	0.074
-593.996	694.858	0.099	-0.339
-592.982	-56.440	0.315	-0.180
-591.967	1.473	-0.112	-0.104
-590.952	-141.283	-0.377	-0.049
-589.938	-118.618	-0.580	0.131
-588.923	-135.897	0.128	-0.019
-587.909	-200.000	-0.040	0.396
-586.894	-68.394	-0.383	0.192
-585.879	153.151	-0.057	0.102
-584.865	-108.997	0.237	-0.065
-583.850	473.141	-0.054	-0.160
-582.836	-29.986	0.047	0.035
-581.821	-200.000	-0.011	0.185
-580.806	13.461	0.417	-0.418
-579.792	-60.512	0.289	-0.158
-578.777	502.423	0.249	-0.749
-577.763	-81.690	0.480	-0.203
-576.748	252.084	0.152	-0.337
-575.733	38.656	-0.161	-0.185
-574.719	29.130	0.292	-0.320
-573.704	-117.999	0.130	-0.030
-572.690	-28.261	0.092	0.068
-571.675	-110.782	0.572	0.151
-570.661	-132.666	0.389	0.064
-569.646	-106.064	0.324	-0.093
-568.631	-82.851	-0.277	-0.115
-567.617	-192.870	-0.242	0.003
-566.602	-44.847	-0.393	-0.252
-565.588	-13.835	-0.405	0.338
-564.573	565.693	-0.138	0.435
-563.558	-28.868	-0.299	0.222
-562.544	-65.978	-0.304	-0.156
-561.529	-83.680	-0.349	-0.143
-560.515	-200.000	0.002	0.081
-559.500	156.604	0.092	0.165
-558.485	-4.102	-0.699	-0.626
-557.471	92.064	-0.298	0.434
-556.456	-200.000	-0.006	0.072
-555.442	-9.393	-0.219	-0.189
-554.427	800.000	0.076	-0.276
-553.412	-123.987	-0.072	0.014
-552.398	-167.391	-0.183	0.009
-551.383	6.044	-0.040	-0.038
-550.369	-96.079	-0.387	-0.132
-549.354	-200.000	0.064	0.508
-548.339	-151.214	0.338	0.032
-547.325	-23.537	-0.213	0.165
-546.310	185.347	-0.304	-0.585
-545.296	800.000	0.100	-0.384
-544.281	-200.000	0.001	0.613
-543.266	-28.159	0.124	-0.092
-542.252	-30.881	-0.480	0.350
-541.237	-138.700	-0.468	0.065
-540.223	-200.000	0.068	0.439
-539.208	-104.589	0.063	-0.019
-538.193	-200.000	0.021	0.346
-537.179	164.852	0.122	-0.222
-536.164	-129.645	0.117	-0.021
-535.150	339.716	0.037	-0.093
-534.135	27.424	0.100	-0.108
-533.121	-105.580	0.155	-0.045
-532.106	-57.012	-0.181	-0.103
-531.091	-133.871	0.462	-0.073
-530.077	-11.120	0.155	0.132
-529.062	-54.839	-0.232	-0.135
-528.048	5.134	0.173	-0.164
-527.033	355.276	0.099	0.255
-526.018	800.000	-0.124	0.543
-525.004	8.722	0.180	0.175
-523.989	3.443	-0.384	-0.361
-522.975	226.821	-0.232	-0.489
-521.960	-200.000	0.024	0.454
-520.945	237.710	0.073	-0.156
-519.931	-42.851	0.208	0.136
-518.916	108.196	0.249	-0.383
-517.902	-87.380	-0.470	-0.183
-516.887	729.963	-0.178	0.616
-515.872	168.661	-0.221	-0.407
-514.858	-1.480	0.243	-0.221
-513.843	578.779	0.106	-0.335
-512.829	-123.704	-0.481	-0.097
-511.814	800.000	-0.081	-0.334
-510.799	-70.476	0.274	0.133
-509.785	-49.988	0.388	0.237
-508.770	-66.761	-0.227	-0.115
-507.756	0.068	0.299	-0.275
-506.741	-81.154	0.321	-0.136
-505.726	-93.632	0.159	-0.056
-504.712	-40.523	0.279	0.187
-503.697	-54.733	0.312	0.181
-502.683	8.934	0.302	0.294
-501.668	-8.371	0.105	0.091
-500.653	195.708	0.103	0.203
-499.639	-97.592	0.077	0.026
-498.624	-200.000	0.049	-0.285
-497.610	4.818	0.289	0.274
-496.595	-200.000	-0.001	0.648
-495.581	270.462	0.246	0.561
-494.566	466.886	0.161	0.467
-493.551	188.893	0.180	-0.349
-492.537	123.538	-0.125	-0.203
-491.522	-200.000	-0.008	0.431
-490.508	-200.000	-0.061	0.372
-489.493	361.726	-0.070	-0.182
-488.478	800.000	-0.045	0.248
-487.464	709.683	-0.126	-0.434
-486.449	306.104	0.180	-0.434
-485.435	-70.536	-0.244	-0.118
-484.420	-161.512	0.320	0.021
-483.405	-54.191	-0.095	0.056
-482.391	-149.364	-0.192	-0.019
-481.376	-200.000	0.007	-0.165
-480.362	-62.728	0.406	-0.216
-479.347	669.042	-0.005	0.015
-478.332	474.301	-0.040	-0.116
-477.318	800.000	-0.115	-0.539
-476.303	-117.025	-0.552	-0.129
-475.289	-134.365	-0.371	-0.058
-474.274	773.737	0.130	0.460
-473.259	-200.000	-0.019	-0.297
-472.245	-200.000	-0.010	0.186
-471.230	36.672	-0.417	-0.475
-470.216	-64.381	-0.313	-0.163
-469.201	-57.004	-0.264	0.150
-468.186	51.639	0.077	0.095
-467.172	24.697	0.178	-0.190
-466.157	51.483	0.222	-0.271
-465.143	-124.186	0.548	-0.110
-464.128	-82.590	0.506	0.210
-463.113	-110.738	-0.298	-0.079
-462.099	-75.720	0.346	0.158
-461.084	-68.597	0.223	0.111
-460.070	616.014	-0.103	-0.336
-459.055	-163.220	0.597	0.036
-458.040	157.072	0.149	0.266
-457.026	-20.639	0.360	-0.284
-456.011	800.000	0.074	-0.422
-454.997	124.627	0.124	0.201
-453.982	-148.094	0.345	0.036
-452.968	-136.596	0.333	0.049
-451.953	44.785	-0.457	-0.541
-450.938	4.535	-0.111	0.105
-449.924	-28.090	0.424	-0.315
-448.909	-51.452	-0.371	0.223
-447.895	32.870	0.128	0.142
-446.880	-68.613	-0.139	0.069
-445.865	-142.531	-0.061	-0.008
-444.851	-167.189	-0.076	0.004
-443.836	-39.126	-0.397	-0.268
-442.822	-47.737	-0.385	-0.239
-441.807	-200.000	0.021	-0.171
-440.792	800.000	-0.088	0.389
-439.778	100.301	-0.094	0.141
-438.763	305.978	0.133	0.319
-437.749	800.000	-0.092	0.368
-436.734	-200.000	-0.275	0.002
-435.719	252.599	-0.225	0.494
-434.705	-200.000	0.045	0.373
-433.690	-158.159	-0.301	0.022
-432.676	-85.636	-0.211	0.084
-431.661	-47.613	-0.091	0.056
-430.646	-64.028	0.223	-0.117
-429.632	23.037	-0.067	-0.071
-428.617	46.475	-0.197	-0.235
-427.603	-54.116	-0.324	-0.189
-426.588	-138.307	0.191	0.027
-425.573	-67.802	0.224	-0.112
-424.559	129.900	0.257	-0.424
-423.544	9.360	0.249	-0.242
-422.530	486.390	-0.024	-0.070
-421.515	-169.437	-0.292	-0.014
-420.500	-129.626	-0.359	0.063
-419.486	10.530	-0.109	0.107
-418.471	-144.889	0.459	0.053
-417.457	8.290	0.283	0.273
-416.442	-200.000	0.078	-0.581
-415.428	0.459	-0.345	-0.316
-414.413	-187.170	-0.468	0.008
-413.398	-186.675	0.113	-0.002
-412.384	92.085	0.108	0.157
-411.369	39.270	0.174	-0.200
-410.355	-177.739	-0.307	0.009
-409.340	-200.000	0.022	0.308
-408.325	51.498	0.219	0.268
-407.311	21.229	-0.120	-0.125
-406.296	-109.211	0.251	-0.068
-405.282	-89.667	0.422	0.158
-404.267	19.409	0.174	-0.180
-403.252	99.572	-0.141	0.210
-402.238	800.000	0.092	-0.367
-401.223	17.562	0.052	0.053
-400.209	169.198	-0.190	-0.350
-399.194	90.316	-0.278	-0.400
-398.179	800.000	-0.034	0.179
-397.165	26.521	-0.267	-0.286
-396.150	-200.000	-0.079	-0.517
-395.136	-68.739	0.116	0.058
-394.121	62.892	-0.201	0.259
-393.106	-200.000	-0.073	0.548
-392.092	800.000	-0.067	-0.339
-391.077	-13.103	0.352	0.293
-390.063	614.550	0.067	-0.218
-389.048	-31.726	-0.328	-0.236
-388.033	-12.741	0.210	-0.175
-387.019	800.000	-0.101	0.431
-386.004	303.548	0.157	0.374
-384.990	124.638	-0.177	-0.286
-383.975	-43.543	-0.283	-0.183
-382.960	-3.140	0.194	0.174
-381.946	293.081	-0.169	0.398
-380.931	139.244	0.022	-0.037
-379.917	-138.827	-0.273	-0.038
-378.902	67.272	0.219	0.287
-377.888	-115.688	0.266	-0.063
-376.873	-117.225	-0.316	0.073
-375.858	71.094	-0.347	0.462
-374.844	-18.349	0.177	0.142
-373.829	133.028	-0.239	-0.398
-372.815	160.604	0.229	-0.411
-371.800	583.074	0.075	-0.239
-370.785	95.278	0.109	0.159
-369.771	-92.407	-0.194	0.070
-368.756	-153.473	0.107	0.009
-367.742	-129.849	-0.226	0.039
-366.727	165.818	0.092	-0.167
-365.712	-200.000	0.069	0.432
-364.698	239.812	-0.234	-0.503
-363.683	-200.000	-0.005	-0.073
-362.669	18.151	0.292	0.299
-361.654	-200.000	0.027	0.192
-360.639	-110.228	0.322	0.085
-359.625	386.417	0.137	0.366
-358.610	0.930	0.240	-0.221
-357.596	70.355	0.274	-0.364
-356.581	-174.578	0.642	-0.023
-355.566	-200.000	0.048	0.297
-354.552	209.329	-0.145	0.291
-353.537	-58.567	0.229	0.127
-352.523	17.600	0.151	0.154
-351.508	-119.219	0.497	0.110
-350.493	-36.537	-0.499	0.344
-349.479	-10.177	-0.183	0.156
-348.464	800.000	-0.148	0.622
-347.450	562.934	-0.111	0.347
-346.435	426.470	-0.009	-0.025
-345.420	-17.307	-0.119	-0.096
-344.406	336.134	0.213	-0.531
-343.391	-56.200	0.455	0.259
-342.377	-112.575	0.051	-0.013
-341.362	800.000	0.098	-0.408
-340.348	74.058	0.119	-0.161
-339.333	-3.849	-0.323	0.287
-338.318	-140.365	-0.274	-0.036
-337.304	-85.837	0.222	0.088
-336.289	-200.000	0.013	-0.176
-335.275	-43.303	0.041	-0.026
-334.260	-149.120	-0.231	-0.023
-333.245	-88.763	0.225	-0.085
-332.231	800.000	0.151	-0.543
-331.216	-146.913	0.247	-0.027
-330.202	155.735	0.152	0.269
-329.187	33.873	0.505	-0.563
-328.172	-109.060	-0.114	-0.031
-327.158	34.480	0.303	0.339
-326.143	246.494	-0.054	0.118
-325.129	-52.337	0.317	-0.187
-324.114	-200.000	-0.026	-0.443
-323.099	-200.000	-0.023	0.388
-322.085	39.115	-0.435	-0.498
-321.070	-47.389	-0.261	-0.162
-320.056	783.463	-0.047	0.164
-319.041	-135.235	-0.626	-0.095
-318.026	-174.385	-0.378	-0.014
-317.012	-155.865	-0.485	-0.039
-315.997	-69.255	-0.489	0.240
-314.983	56.513	-0.055	0.068
-313.968	423.256	0.124	-0.343
-312.953	436.912	0.042	0.117
-311.939	-200.000	-0.017	-0.130
-310.924	-107.894	0.626	0.173
-309.910	-46.072	-0.397	-0.250
-308.895	-171.040	0.342	0.015
-307.880	147.064	0.023	0.040
-306.866	-62.970	0.284	-0.149
-305.851	-183.506	0.214	-0.005
-304.837	101.244	-0.167	-0.249
-303.822	-143.317	0.135	-0.016
-302.807	-133.955	-0.216	0.034
-301.793	800.000	0.045	-0.192
-300.778	-130.454	0.204	0.035
-299.764	214.131	0.189	0.385
-298.749	-200.000	0.047	-0.350
-297.735	800.000	-0.029	0.107
-296.720	559.818	0.128	0.398
-295.705	-200.000	-0.062	0.435
-294.691	11.764	-0.310	-0.304
-293.676	-167.244	-0.394	0.020
-292.662	-26.486	-0.188	0.141
-291.647	-87.642	0.074	0.028
-290.632	-130.273	0.594	0.102
-289.618	-132.425	0.260	-0.043
-288.603	-199.889	-0.099	0.001
-287.589	27.486	-0.127	-0.137
-286.574	18.037	-0.078	0.080
-285.559	197.170	-0.163	0.318
-284.545	144.054	0.195	0.333
-283.530	-120.145	-0.325	-0.071
-282.516	-147.593	-0.636	0.068
-281.501	178.249	0.107	0.201
-280.486	-142.505	0.376	-0.047
-279.472	800.000	-0.041	-0.154
-278.457	183.323	0.218	0.413
-277.443	254.646	0.266	0.585
-276.428	-47.253	0.251	0.156
-275.413	-69.565	0.312	0.152
-274.399	137.654	-0.138	0.232
-273.384	800.000	0.097	0.465
-272.370	-177.701	-0.180	-0.005
-271.355	57.509	0.078	-0.097
-270.340	100.138	0.088	-0.130
-269.326	300.024	0.189	-0.446
-268.311	446.790	-0.109	-0.307
-267.297	-135.291	0.284	0.043
-266.282	-200.000	0.031	0.581
-265.267	-71.409	0.245	-0.117
-264.253	-130.776	0.321	0.054
-263.238	-77.843	0.391	0.172
-262.224	-33.420	-0.448	-0.316
-261.209	-65.635	-0.167	0.085
-260.195	-17.706	-0.107	-0.086
-259.180	-164.800	0.550	0.031
-258.165	-120.840	-0.298	0.064
-257.151	-200.000	-0.071	0.444
-256.136	-126.877	-0.365	-0.068
-255.122	44.934	-0.156	0.183
-254.107	9.058	-0.252	-0.243
-253.092	-200.000	-0.061	-0.357
-252.078	-200.000	-0.011	0.259
-251.063	-77.709	0.103	0.045
-250.049	146.337	-0.234	0.403
-249.034	-162.588	0.138	0.009
-248.019	-102.504	-0.256	0.078
-247.005	-200.000	-0.094	-0.641
-245.990	800.000	0.036	0.169
-244.976	-128.194	0.395	0.071
-243.961	258.801	-0.031	0.069
-242.946	-113.276	0.095	0.024
-241.932	-35.872	0.238	0.164
-240.917	147.352	-0.096	-0.165
-239.903	-200.000	-0.020	-0.466
-238.888	-97.929	-0.298	-0.098
-237.873	-199.136	-0.290	0.002
-236.859	44.172	-0.490	0.573
-235.844	-47.486	0.311	-0.193
-234.830	-200.000	0.010	-0.424
-233.815	-54.489	-0.212	-0.122
-232.800	-200.000	0.013	0.206
-231.786	134.748	0.181	0.301
-230.771	-70.483	-0.168	-0.081
-229.757	36.034	0.447	0.503
-228.742	-77.113	0.203	-0.090
-227.727	800.000	-0.101	0.472
-226.713	-67.868	0.155	0.077
-225.698	83.345	0.151	-0.211
-224.684	-51.125	-0.503	0.300
-223.669	36.225	0.188	-0.211
-222.655	-92.956	0.531	-0.188
-221.640	-74.417	-0.018	-0.008
-220.625	31.076	-0.145	-0.158
-219.611	-200.000	0.015	0.129
-218.596	-117.311	0.325	0.075
-217.582	-107.982	-0.119	-0.033
-216.567	-31.640	-0.218	0.156
-215.552	121.453	0.294	0.467
-214.538	-200.000	-0.005	0.442
-213.523	800.000	0.132	0.615
-212.509	218.808	-0.233	-0.476
-211.494	800.000	0.170	-0.642
-210.479	-38.853	0.059	0.039
-209.465	15.271	0.193	0.193
-208.450	-15.731	0.285	0.232
-207.436	-200.000	-0.006	-0.037
-206.421	-91.195	-0.229	-0.083
-205.406	-200.000	0.056	-0.425
-204.392	636.153	0.060	-0.196
-203.377	148.648	-0.096	-0.165
-202.363	-192.585	-0.474	-0.005
-201.348	-132.043	-0.163	-0.027
-200.333	-200.000	0.004	-0.263
-199.319	-17.091	-0.152	-0.122
-198.304	-136.525	-0.300	-0.044
-197.290	-80.600	0.110	-0.046
-196.275	-200.000	0.034	-0.199
-195.260	-123.292	0.155	-0.031
-194.246	-73.269	0.323	-0.150
-193.231	-200.000	-0.020	-0.255
-192.217	5.264	-0.222	0.209
-191.202	-82.861	0.313	-0.128
-190.187	21.368	-0.090	0.093
-189.173	-99.142	0.081	0.026
-188.158	-36.474	-0.156	-0.107
-187.144	-200.000	-0.030	0.247
-186.129	-96.157	-0.228	-0.077
-185.114	258.411	-0.048	0.105
-184.100	-40.983	-0.215	-0.141
-183.085	-64.913	-0.499	-0.256
-182.071	-200.000	-0.040	0.230
-181.056	-69.507	0.228	0.111
-180.042	-130.674	-0.274	-0.046
-179.027	-200.000	0.054	0.333
-178.012	800.000	-0.082	-0.293
-176.998	-188.408	0.371	-0.006
-175.983	-61.033	0.411	-0.220
-174.969	-106.466	-0.216	-0.061
-173.954	-78.480	0.178	0.077
-172.939	273.189	0.170	-0.383
-171.925	-124.390	-0.050	-0.010
-170.910	289.651	0.162	-0.377
-169.896	-171.049	0.507	0.022
-168.881	800.000	-0.073	0.303
-167.866	500.780	-0.036	0.106
-166.852	-32.547	-0.192	-0.136
-165.837	-109.991	-0.465	-0.123
-164.823	91.490	-0.200	-0.286
-163.808	187.135	-0.055	-0.104
-162.793	-200.000	-0.010	0.205
-161.779	-190.392	0.338	0.005
-160.764	192.597	0.015	-0.028
-159.750	757.654	0.062	-0.216
-158.735	77.788	0.122	-0.165
-157.720	775.957	-0.116	-0.405
-156.706	-84.418	-0.449	0.179
-155.691	-7.831	-0.355	0.304
-154.677	102.091	-0.238	0.354
-153.662	-127.251	0.312	0.057
-152.647	-62.902	-0.044	0.023
-151.633	-121.168	-0.114	0.024
-150.618	800.000	0.040	-0.143
-149.604	-200.000	-0.106	0.633
-148.589	-200.000	0.008	-0.429
-147.574	-200.000	-0.000	-0.454
-146.560	-200.000	0.007	-0.506
-145.545	-168.293	-0.195	-0.009
-144.531	-34.299	-0.265	0.184
-143.516	-127.667	-0.343	0.063
-142.502	-18.439	0.258	-0.204
-141.487	454.524	0.107	-0.303
-140.472	0.723	0.540	-0.491
-139.458	74.728	0.436	0.585
-138.443	-124.765	0.132	0.026
-137.429	-200.000	0.003	-0.146
-136.414	-19.659	-0.112	0.088
-135.399	196.414	-0.103	-0.200
-134.385	90.940	-0.172	0.246
-133.370	-47.852	0.243	0.149
-132.356	-108.092	-0.360	0.098
-131.341	-130.459	0.013	-0.002
-130.326	-200.000	0.026	-0.364
-129.312	42.735	0.063	-0.073
-128.297	-200.000	-0.017	0.381
-127.283	-73.182	-0.306	0.142
-126.268	-130.682	0.071	-0.012
-125.253	-45.886	-0.316	0.198
-124.239	-71.920	-0.416	0.196
-123.224	-80.360	0.234	0.099
-122.210	49.014	0.244	0.291
