DTS Sentinel unit serial number:	SN409020Multiplexer serial number:	ORYXHardware model number:	OX4-SRSoftware version number:	ORYX F/W v3.00 Oryx Data Collector v3.7.2.0data status	okinstallation	HaddamTimeLapsedifferential loss correction	single-endedforward channel	channel 3reverse channel	N/Adate	2011/06/22time	09:51:17forward acquisition time	30.00reverse acquisition time	0.00gamma	498.7831k internal	0.1803k external	0.1803temperature offset calibration	1.0074default loss term (dB/km)	0.3790temperature slope calibration	1.3530multiplexer offset coefficient	1.0000multiplexer slope coefficient	1.0000fibre end	0.00T internal ref (°C)	28.31T ext. ref 1 (°C)	25.91T ext. ref 2 (°C)	0.19length (m)	temperature (°C)	Stokes	anti-Stokes-747.200	539.640	-0.144	-0.444
-746.185	-98.657	-0.235	-0.077
-745.171	-160.690	-0.276	-0.019
-744.156	56.662	-0.197	0.248
-743.142	-61.611	0.231	0.124
-742.127	-30.703	0.275	-0.200
-741.112	-77.147	-0.231	-0.103
-740.098	31.431	0.267	0.296
-739.083	22.908	0.114	-0.121
-738.069	-76.374	-0.407	0.184
-737.054	-127.698	0.163	-0.030
-736.039	800.000	0.106	0.523
-735.025	-5.908	0.158	0.139
-734.010	358.469	0.067	-0.174
-732.996	-133.495	-0.316	0.051
-731.981	-162.022	0.814	-0.052
-730.966	71.169	0.062	0.082
-729.952	-76.593	0.240	0.108
-728.937	-50.613	-0.249	-0.151
-727.923	800.000	-0.076	0.288
-726.908	-79.155	-0.485	0.211
-725.894	747.634	0.063	-0.222
-724.879	-51.358	0.195	-0.117
-723.864	152.088	-0.097	0.171
-722.850	52.528	-0.356	-0.439
-721.835	512.953	-0.064	-0.194
-720.821	-200.000	0.022	-0.314
-719.806	-85.287	-0.566	-0.227
-718.791	93.498	-0.280	-0.409
-717.777	800.000	-0.048	-0.175
-716.762	-12.510	-0.287	-0.241
-715.748	-76.374	0.492	0.222
-714.733	36.180	0.346	0.393
-713.718	-175.819	0.494	-0.017
-712.704	-200.000	0.045	-0.371
-711.689	-154.841	0.367	0.031
-710.675	-81.846	0.100	0.042
-709.660	19.959	-0.145	-0.150
-708.645	75.769	0.275	0.375
-707.631	-105.035	0.187	0.055
-706.616	-27.789	0.055	0.041
-705.602	69.010	-0.082	0.109
-704.587	22.780	-0.023	-0.024
-703.572	800.000	-0.168	0.638
-702.558	-91.079	-0.280	-0.103
-701.543	-12.093	0.214	-0.181
-700.529	352.684	0.080	-0.205
-699.514	189.159	0.045	0.086
-698.499	-176.830	0.288	-0.009
-697.485	-200.000	-0.008	-0.224
-696.470	-15.822	0.070	0.057
-695.456	800.000	0.067	-0.261
-694.441	20.191	0.235	-0.244
-693.426	-139.147	-0.337	-0.046
-692.412	233.652	0.256	-0.544
-691.397	43.520	0.140	-0.164
-690.383	800.000	0.013	-0.051
-689.368	-116.868	0.605	-0.142
-688.354	373.711	0.172	-0.453
-687.339	436.740	-0.120	-0.338
-686.324	-153.369	-0.575	0.051
-685.310	-137.121	-0.218	-0.032
-684.295	199.397	0.260	-0.516
-683.281	-23.967	-0.187	-0.144
-682.266	-38.887	-0.240	0.162
-681.251	-136.194	0.625	-0.093
-680.237	138.403	-0.079	0.133
-679.222	-155.639	0.591	-0.048
-678.208	-51.267	0.302	0.181
-677.193	220.091	-0.151	-0.313
-676.178	478.823	-0.043	0.127
-675.164	59.899	-0.236	0.300
-674.149	245.005	-0.099	-0.215
-673.135	103.660	-0.056	0.085
-672.120	8.485	0.210	0.203
-671.105	-200.000	-0.024	0.184
-670.091	-200.000	-0.028	-0.285
-669.076	-5.524	-0.130	-0.114
-668.062	-200.000	0.005	-0.070
-667.047	-23.143	-0.306	0.236
-666.032	-200.000	-0.007	-0.251
-665.018	-115.726	-0.398	0.095
-664.003	-36.649	-0.328	0.226
-662.989	-188.900	-0.425	0.006
-661.974	159.732	-0.069	-0.124
-660.959	-138.666	0.048	0.007
-659.945	-47.387	-0.072	-0.045
-658.930	727.141	0.046	0.159
-657.916	47.632	0.237	-0.284
-656.901	-116.760	-0.120	0.028
-655.886	50.158	0.080	0.097
-654.872	-191.112	-0.461	0.006
-653.857	-114.065	0.250	0.062
-652.843	-144.676	0.073	-0.009
-651.828	-84.719	0.333	0.134
-650.814	-200.000	0.013	-0.090
-649.799	-81.143	0.312	-0.132
-648.784	-51.267	0.215	-0.129
-647.770	-38.170	-0.380	-0.258
-646.755	-200.000	-0.026	0.174
-645.741	65.519	0.122	-0.159
-644.726	45.241	0.236	-0.280
-643.711	-159.579	0.478	-0.034
-642.697	-50.704	-0.339	0.205
-641.682	-180.458	-0.593	-0.016
-640.668	800.000	-0.046	0.238
-639.653	-24.870	-0.301	-0.229
-638.638	104.599	-0.152	-0.230
-637.624	-160.640	-0.113	-0.008
-636.609	-200.000	0.006	0.137
-635.595	-200.000	-0.030	0.275
-634.580	-66.762	-0.126	0.064
-633.565	0.691	-0.106	-0.097
-632.551	-81.395	-0.469	0.197
-631.536	692.664	0.121	-0.410
-630.522	-86.063	-0.267	-0.105
-629.507	-137.444	-0.590	-0.085
-628.492	-17.960	-0.329	-0.265
-627.478	-200.000	0.041	0.553
-626.463	-62.834	-0.137	-0.073
-625.449	-200.000	-0.080	-0.493
-624.434	720.308	-0.233	-0.799
-623.419	-103.217	0.354	-0.107
-622.405	-93.670	-0.486	-0.171
-621.390	21.388	-0.288	-0.300
-620.376	-157.566	-0.147	-0.011
-619.361	3.692	0.247	0.231
-618.346	22.185	0.329	-0.344
-617.332	-57.808	-0.173	-0.097
-616.317	-139.457	0.423	-0.058
-615.303	-20.396	0.165	0.130
-614.288	-200.000	0.004	0.141
-613.273	-57.012	0.305	-0.172
-612.259	270.186	0.031	0.071
-611.244	437.632	-0.105	0.294
-610.230	-38.470	-0.112	0.076
-609.215	-200.000	0.000	0.117
-608.201	304.955	-0.269	0.644
-607.186	-164.514	-0.656	0.038
-606.171	2.797	-0.131	-0.121
-605.157	800.000	0.060	0.267
-604.142	-46.350	-0.175	0.110
-603.128	73.111	0.128	-0.172
-602.113	-35.068	-0.184	0.129
-601.098	-150.421	0.182	0.018
-600.084	351.181	0.156	0.398
-599.069	12.635	-0.313	0.310
-598.055	-56.457	-0.212	-0.120
-597.040	314.524	0.088	-0.212
-596.025	-149.283	0.356	-0.036
-595.011	-98.162	0.399	0.131
-593.996	-200.000	-0.023	-0.294
-592.982	565.773	0.077	0.241
-591.967	-10.536	-0.210	0.178
-590.952	19.186	-0.295	-0.304
-589.938	126.634	0.229	0.372
-588.923	-200.000	0.017	0.233
-587.909	800.000	0.045	-0.186
-586.894	90.690	0.153	0.221
-585.879	267.916	0.183	0.413
-584.865	800.000	0.021	0.082
-583.850	241.911	-0.087	-0.187
-582.836	304.361	0.049	0.117
-581.821	-123.467	0.187	-0.038
-580.806	700.368	-0.081	-0.276
-579.792	83.039	0.322	-0.450
-578.777	-142.321	0.263	-0.033
-577.763	-200.000	-0.008	0.547
-576.748	-200.000	-0.009	0.124
-575.733	-63.135	-0.155	-0.081
-574.719	653.690	0.079	-0.263
-573.704	13.632	0.417	-0.414
-572.690	-200.000	0.028	0.483
-571.675	-200.000	0.074	0.634
-570.661	-130.327	0.135	0.023
-569.646	283.172	-0.060	-0.140
-568.631	-200.000	0.049	-0.567
-567.617	-83.969	-0.372	-0.151
-566.602	214.341	0.094	0.191
-565.588	-13.084	-0.051	-0.043
-564.573	800.000	-0.100	-0.388
-563.558	800.000	0.028	0.104
-562.544	-77.464	-0.455	0.201
-561.529	28.234	0.130	-0.141
-560.515	36.008	0.458	0.516
-559.500	118.005	0.224	0.354
-558.485	61.364	0.159	0.202
-557.471	-53.680	-0.200	-0.117
-556.456	43.172	0.027	-0.031
-555.442	3.030	-0.109	-0.101
-554.427	-108.612	0.226	-0.062
-553.412	-3.089	-0.314	-0.281
-552.398	-117.446	-0.368	-0.085
-551.383	-62.775	0.125	-0.066
-550.369	-1.673	0.381	-0.344
-549.354	-152.228	-0.473	0.043
-548.339	77.939	0.347	0.474
-547.325	-190.250	-0.366	-0.005
-546.310	-95.626	0.217	-0.074
-545.296	-99.831	-0.200	-0.064
-544.281	-114.252	-0.726	0.178
-543.266	-200.000	0.043	-0.635
-542.252	-151.169	0.478	-0.045
-541.237	-75.646	0.419	0.190
-540.223	123.750	-0.202	0.325
-539.208	-198.861	-0.033	0.000
-538.193	-74.097	-0.482	-0.222
-537.179	545.625	0.091	0.279
-536.164	47.316	-0.157	0.187
-535.150	-72.990	0.636	-0.297
-534.135	-92.884	0.217	0.077
-533.121	-58.857	-0.342	0.189
-532.106	-111.491	-0.337	-0.087
-531.091	-106.932	-0.370	0.104
-530.077	-74.006	0.402	-0.186
-529.062	-57.935	0.383	-0.213
-528.048	-19.028	-0.071	0.056
-527.033	87.498	-0.192	-0.272
-526.018	800.000	-0.070	0.320
-525.004	-200.000	0.025	-0.449
-523.989	-28.565	-0.286	0.210
-522.975	-47.584	-0.237	0.147
-521.960	20.989	0.169	-0.175
-520.945	-54.756	-0.332	-0.191
-519.931	-159.524	0.129	0.009
-518.916	30.115	-0.216	0.236
-517.902	-84.829	0.248	0.099
-516.887	-89.499	0.211	0.079
-515.872	172.277	-0.071	-0.130
-514.858	2.089	0.118	0.109
-513.843	-200.000	0.001	-0.064
-512.829	-167.548	-0.176	-0.009
-511.814	349.443	-0.168	0.425
-510.799	68.951	0.187	0.245
-509.785	800.000	0.039	0.160
-508.770	-98.459	0.468	0.152
-507.756	87.305	0.223	0.316
-506.741	2.278	-0.121	-0.112
-505.726	-62.333	0.017	0.009
-504.712	-69.610	-0.135	0.066
-503.697	-0.679	-0.236	-0.213
-502.683	137.944	0.120	-0.202
-501.668	-56.347	0.104	-0.059
-500.653	0.032	0.436	-0.397
-499.639	-121.796	-0.464	0.097
-498.624	-200.000	0.034	0.288
-497.610	157.072	-0.277	0.491
-496.595	800.000	0.096	0.357
-495.581	740.970	0.094	0.325
-494.566	-137.394	0.204	-0.029
-493.551	74.161	-0.026	0.035
-492.537	-141.481	0.243	-0.031
-491.522	-66.794	0.443	0.223
-490.508	262.041	-0.065	-0.144
-489.493	-169.028	-0.182	0.009
-488.478	-185.976	0.300	-0.006
-487.464	-76.171	0.113	0.051
-486.449	-200.000	0.057	-0.367
-485.435	140.441	-0.040	-0.068
-484.420	93.181	0.290	-0.419
-483.405	50.144	0.167	-0.201
-482.391	26.309	-0.051	-0.054
-481.376	800.000	0.053	-0.292
-480.362	142.403	0.058	0.098
-479.347	-134.597	0.242	0.037
-478.332	-76.730	-0.252	-0.112
-477.318	36.124	-0.119	-0.133
-476.303	-94.056	0.328	-0.114
-475.289	-114.753	-0.585	-0.142
-474.274	-66.179	0.145	0.073
-473.259	-200.000	-0.021	0.233
-472.245	-147.099	-0.317	0.034
-471.230	-95.382	0.151	0.052
-470.216	800.000	-0.088	0.454
-469.201	800.000	-0.086	0.445
-468.186	-200.000	0.010	0.386
-467.172	-134.250	0.286	-0.044
-466.157	28.939	0.168	-0.182
-465.143	-122.207	0.139	0.029
-464.128	-57.666	-0.423	-0.236
-463.113	-53.364	0.175	0.102
-462.099	-200.000	-0.026	0.415
-461.084	-200.000	0.026	-0.328
-460.070	2.014	-0.232	0.214
-459.055	-110.616	0.079	-0.021
-458.040	379.190	-0.078	0.205
-457.026	-118.843	-0.619	0.138
-456.011	368.682	0.098	0.254
-454.997	-200.000	0.072	0.469
-453.982	317.784	-0.116	0.281
-452.968	-100.490	0.395	0.124
-451.953	-35.817	0.211	-0.145
-450.938	-97.913	0.196	0.064
-449.924	293.306	0.200	-0.466
-448.909	-27.385	0.384	-0.284
-447.895	-17.628	-0.039	0.031
-446.880	-200.000	-0.057	-0.345
-445.865	694.263	0.162	-0.545
-444.851	259.686	0.061	-0.134
-443.836	23.391	0.369	0.386
-442.822	800.000	-0.110	0.407
-441.807	-62.589	0.206	-0.109
-440.792	-16.729	0.368	-0.296
-439.778	-52.189	0.060	0.035
-438.763	30.657	0.264	-0.288
-437.749	-109.234	-0.449	-0.121
-436.734	-13.811	-0.058	-0.048
-435.719	-42.828	-0.445	-0.287
-434.705	-70.296	0.211	0.102
-433.690	391.406	0.060	-0.159
-432.676	-73.911	-0.225	-0.103
-431.661	-79.445	-0.304	0.130
-430.646	-89.204	0.345	-0.129
-429.632	-200.000	0.126	-0.822
-428.617	-142.419	0.222	-0.028
-427.603	564.362	0.045	0.139
-426.588	800.000	-0.078	-0.430
-425.573	188.174	0.344	-0.656
-424.559	-8.851	-0.250	-0.213
-423.544	-200.000	-0.004	0.075
-422.530	-117.176	-0.306	-0.070
-421.515	-83.489	-0.262	0.106
-420.500	-48.323	0.068	-0.042
-419.486	56.977	0.219	-0.272
-418.471	-125.402	0.864	-0.166
-417.457	42.534	-0.361	0.419
-416.442	116.693	0.103	-0.161
-415.428	155.361	0.053	0.093
-414.413	-104.128	-0.129	0.038
-413.398	800.000	-0.059	-0.274
-412.384	-200.000	0.018	-0.254
-411.369	-200.000	-0.010	-0.393
-410.355	-1.620	-0.431	-0.387
-409.340	364.266	-0.080	0.207
-408.325	-150.774	0.419	-0.040
-407.311	55.115	0.209	0.257
-406.296	-48.346	-0.258	-0.158
-405.282	102.973	0.366	0.547
-404.267	-157.576	0.372	0.028
-403.252	-200.000	0.013	-0.200
-402.238	-126.054	-0.169	0.032
-401.223	33.080	0.182	0.201
-400.209	-200.000	-0.007	-0.066
-399.194	-41.109	-0.235	-0.154
-398.179	800.000	-0.050	0.188
-397.165	190.852	-0.126	0.242
-396.150	129.068	0.037	-0.061
-395.136	462.330	0.074	-0.211
-394.121	-200.000	-0.053	-0.315
-393.106	80.862	0.283	0.389
-392.092	-60.953	-0.284	-0.152
-391.077	159.206	0.075	0.133
-390.063	-92.048	0.188	0.067
-389.048	-200.000	0.010	0.109
-388.033	9.562	-0.198	-0.191
-387.019	-129.233	0.333	0.059
-386.004	-58.867	0.467	0.256
-384.990	-13.490	0.159	0.131
-383.975	-73.124	-0.337	0.156
-382.960	9.466	-0.076	-0.073
-381.946	-28.377	0.197	0.145
-380.931	-200.000	-0.066	0.565
-379.917	218.323	0.075	0.153
-378.902	-77.138	0.326	0.144
-377.888	-116.543	-0.217	-0.050
-376.873	-200.000	-0.042	0.442
-375.858	335.721	-0.103	0.255
-374.844	628.216	0.093	0.300
-373.829	-111.307	-0.276	0.071
-372.815	-135.594	0.451	0.067
-371.800	-86.803	0.253	0.098
-370.785	342.268	-0.023	-0.057
-369.771	-158.557	0.125	0.009
-368.756	800.000	0.087	-0.349
-367.742	-95.622	0.210	0.071
-366.727	-117.472	-0.168	-0.038
-365.712	-55.930	0.401	0.227
-364.698	-200.000	-0.002	0.073
-363.683	343.452	-0.277	0.693
-362.669	-49.323	-0.245	0.148
-361.654	-171.700	0.156	0.006
-360.639	-69.561	0.395	-0.192
-359.625	-200.000	0.026	-0.543
-358.610	18.305	0.386	0.391
-357.596	8.581	0.302	0.289
-356.581	-52.745	-0.114	-0.066
-355.566	529.367	0.175	-0.527
-354.552	-200.000	-0.028	-0.373
-353.537	-22.203	0.096	0.074
-352.523	-200.000	-0.019	0.248
-351.508	-200.000	-0.047	-0.469
-350.493	-34.723	-0.147	0.102
-349.479	-200.000	-0.012	0.358
-348.464	118.098	0.050	0.078
-347.450	-200.000	0.004	-0.110
-346.435	-200.000	0.012	-0.113
-345.420	-141.893	-0.327	-0.041
-344.406	169.159	-0.034	-0.061
-343.391	-83.921	-0.443	-0.178
-342.377	-100.630	-0.415	0.129
-341.362	-135.487	0.147	-0.022
-340.348	12.486	-0.214	0.210
-339.333	-200.000	-0.018	-0.422
-338.318	-200.000	0.039	-0.376
-337.304	-81.390	-0.189	0.079
-336.289	7.708	0.400	-0.380
-335.275	200.998	0.252	0.493
-334.260	97.715	0.200	-0.292
-333.245	-56.569	-0.232	-0.130
-332.231	96.670	-0.186	0.271
-331.216	540.808	-0.097	0.296
-330.202	730.802	-0.111	0.381
-329.187	-145.144	-0.220	-0.025
-328.172	-150.871	-0.414	-0.039
-327.158	-100.005	-0.411	-0.129
-326.143	-35.090	0.115	0.079
-325.129	-99.019	0.517	-0.165
-324.114	-122.106	0.098	0.020
-323.099	158.790	0.078	-0.137
-322.085	-50.557	0.254	0.152
-321.070	-200.000	-0.006	-0.160
-320.056	-171.478	0.102	-0.004
-319.041	-200.000	-0.000	-0.090
-318.026	0.683	-0.231	-0.209
-317.012	-200.000	0.017	-0.258
-315.997	-79.051	-0.568	-0.244
-314.983	68.367	-0.104	0.135
-313.968	-194.090	0.200	0.002
-312.953	-109.438	0.384	-0.102
-311.939	-90.460	0.171	0.062
-310.924	38.318	-0.281	-0.317
-309.910	706.780	0.078	0.264
-308.895	-75.574	-0.080	0.036
-307.880	800.000	0.068	-0.298
-306.866	-200.000	0.010	0.278
-305.851	-200.000	0.028	-0.238
-304.837	-14.352	0.099	-0.081
-303.822	-33.673	-0.107	-0.074
-302.807	-77.543	0.036	-0.016
-301.793	-200.000	-0.020	-0.283
-300.778	-200.000	-0.001	0.137
-299.764	-153.511	0.354	0.031
-298.749	280.363	0.112	-0.255
-297.735	-89.409	-0.419	-0.156
-296.720	-148.497	-0.120	0.012
-295.705	-123.498	0.378	0.075
-294.691	-0.793	0.493	0.443
-293.676	-178.448	-0.367	0.011
-292.662	-91.165	-0.484	-0.175
-291.647	-76.713	-0.296	0.131
-290.632	800.000	-0.069	0.353
-289.618	52.156	-0.081	-0.098
-288.603	-200.000	0.047	-0.299
-287.589	800.000	0.048	-0.215
-286.574	-20.540	0.221	-0.172
-285.559	-200.000	-0.008	-0.312
-284.545	600.548	0.026	0.081
-283.530	-71.128	0.139	-0.066
-282.516	259.152	0.202	0.442
-281.501	800.000	0.139	0.547
-280.486	-24.977	0.362	0.271
-279.472	-161.765	0.175	0.011
-278.457	8.626	-0.468	0.446
-277.443	-41.251	0.238	0.155
-276.428	122.398	-0.177	-0.280
-275.413	228.934	-0.088	-0.182
-274.399	-200.000	0.011	0.214
-273.384	-88.195	0.053	0.020
-272.370	-200.000	0.006	0.120
-271.355	-200.000	0.005	-0.180
-270.340	-200.000	-0.003	0.263
-269.326	-200.000	-0.098	-0.000
-268.311	-29.975	-0.554	0.399
-267.297	800.000	0.019	0.092
-266.282	151.088	-0.055	-0.095
-265.267	-105.039	0.556	0.160
-264.253	1.818	0.291	0.265
-263.238	-98.891	-0.111	0.036
-262.224	-105.129	-0.417	-0.120
-261.209	382.576	-0.157	-0.411
-260.195	-109.141	0.091	0.024
-259.180	330.685	0.036	0.088
-258.165	-200.000	0.025	-0.535
-257.151	122.891	-0.096	0.152
-256.136	800.000	0.071	-0.270
-255.122	631.288	0.043	0.137
-254.107	-5.504	0.217	0.188
-253.092	766.155	-0.150	0.520
-252.078	166.982	-0.162	0.292
-251.063	-14.131	-0.274	0.223
-250.049	-54.737	0.262	-0.149
-249.034	-87.326	-0.576	-0.220
-248.019	-87.257	0.129	-0.049
-247.005	-116.105	0.148	0.034
-245.990	42.383	-0.138	-0.159
-244.976	-106.191	-0.171	0.048
-243.961	-178.511	-0.498	0.014
-242.946	-200.000	-0.037	0.245
-241.932	44.721	-0.468	-0.545
-240.917	-59.106	0.169	0.092
-239.903	-136.418	-0.342	-0.050
-238.888	648.809	-0.122	0.398
-237.873	180.784	-0.182	-0.339
-236.859	-94.945	-0.055	-0.019
-235.844	-47.554	0.281	-0.172
-234.830	800.000	-0.035	-0.133
-233.815	15.081	0.257	-0.254
-232.800	-112.545	0.056	-0.014
-231.786	58.080	0.152	0.189
-230.771	-56.694	0.310	-0.173
-229.757	-200.000	-0.010	0.261
-228.742	-102.258	0.229	0.069
-227.727	-200.000	-0.041	0.510
-226.713	24.003	-0.314	0.328
-225.698	-153.345	-0.074	-0.006
-224.684	800.000	0.089	0.418
-223.669	-116.385	0.098	0.023
-222.655	-79.180	0.482	-0.206
-221.640	-42.037	0.048	-0.031
-220.625	-200.000	0.046	0.567
-219.611	-107.008	-0.311	-0.086
-218.596	-27.235	0.484	0.356
-217.582	-200.000	0.002	0.035
-216.567	-80.157	-0.304	-0.128
-215.552	-200.000	0.029	0.488
-214.538	-3.638	0.321	0.281
-213.523	142.199	-0.028	0.047
-212.509	-200.000	0.000	-0.048
-211.494	276.281	-0.163	-0.368
-210.479	-7.159	-0.111	-0.095
-209.465	-152.542	0.321	-0.029
-208.450	213.230	-0.125	0.251
-207.436	-71.563	0.052	0.024
-206.421	-200.000	-0.010	-0.474
-205.406	246.514	-0.058	-0.123
-204.392	-39.564	0.254	0.168
-203.377	-200.000	0.006	0.290
-202.363	213.588	-0.150	-0.300
-201.348	-110.808	-0.199	0.052
-200.333	-200.000	-0.028	0.181
-199.319	67.439	-0.138	-0.178
-198.304	-90.629	0.116	-0.042
-197.290	-180.015	-0.401	-0.011
-196.275	242.997	-0.168	0.357
-195.260	-22.552	0.336	-0.256
-194.246	-200.000	-0.061	0.380
-193.231	-200.000	-0.084	-0.536
-192.217	43.317	0.291	-0.336
-191.202	47.935	0.267	-0.315
-190.187	54.478	-0.345	-0.420
-189.173	-54.387	-0.432	-0.246
-188.158	-45.469	-0.260	-0.162
-187.144	461.716	0.171	0.485
-186.129	136.215	0.268	0.442
-185.114	201.816	0.292	0.570
-184.100	441.038	0.041	0.115
-183.085	135.153	0.134	0.221
-182.071	-135.098	-0.232	-0.035
-181.056	-89.292	-0.298	0.110
-180.042	-180.010	0.471	0.012
-179.027	800.000	0.065	0.327
-178.012	566.830	0.043	-0.131
-176.998	-170.322	0.260	0.011
-175.983	-14.828	-0.529	-0.427
-174.969	100.747	-0.389	-0.571
-173.954	-21.788	-0.052	-0.040
-172.939	800.000	-0.090	-0.397
-171.925	-200.000	0.013	-0.547
-170.910	35.996	-0.207	-0.230
-169.896	-200.000	-0.005	0.268
-168.881	-75.486	0.208	-0.093
-167.866	231.945	-0.064	0.132
-166.852	404.076	0.151	0.402
-165.837	8.362	-0.186	-0.177
-164.823	-9.605	-0.177	-0.149
-163.808	-132.506	-0.321	-0.051
-162.793	315.569	0.165	0.394
-161.779	483.412	0.139	-0.401
-160.764	800.000	0.065	-0.347
-159.750	175.910	0.162	-0.297
-158.735	-15.247	-0.157	0.127
-157.720	202.776	0.072	-0.142
-156.706	-56.453	-0.399	0.223
-155.691	-9.973	0.199	0.167
-154.677	800.000	0.100	-0.418
-153.662	148.229	-0.497	-0.847
-152.647	800.000	-0.025	-0.102
-151.633	-200.000	-0.006	0.434
-150.618	-7.044	0.362	-0.309
-149.604	376.536	0.158	-0.407
-148.589	251.631	-0.023	0.051
-147.574	395.520	-0.031	0.083
-146.560	-66.197	-0.132	0.066
-145.545	-162.890	-0.405	-0.024
-144.531	-3.051	-0.071	0.063
-143.516	215.043	0.158	0.317
-142.502	-42.995	0.623	-0.397
-141.487	-86.626	0.192	0.074
-140.472	-22.646	-0.214	-0.163
-139.458	366.891	0.127	-0.324
-138.443	273.949	0.178	-0.398
-137.429	61.397	-0.115	-0.144
-136.414	229.638	-0.107	0.221
-135.399	236.204	-0.144	0.302
-134.385	-165.969	-0.401	-0.021
-133.370	63.839	0.445	0.563
-132.356	-91.534	0.141	0.050
-131.341	439.464	-0.174	0.481
-130.326	-87.987	0.308	0.116
-129.312	-151.712	0.537	0.049
-128.297	-80.701	0.709	0.295
-127.283	-85.424	-0.020	-0.008
-126.268	-18.479	-0.211	-0.166
-125.253	800.000	0.071	-0.345
-124.239	-200.000	0.008	0.122
-123.224	800.000	0.021	0.093
-122.210	180.236	0.252	-0.466
-121.195	-98.818	0.121	-0.038
