DTS Sentinel unit serial number:	SN409020Multiplexer serial number:	ORYXHardware model number:	OX4-SRSoftware version number:	ORYX F/W v3.00 Oryx Data Collector v3.7.2.0data status	okinstallation	HaddamTimeLapsedifferential loss correction	single-endedforward channel	channel 3reverse channel	N/Adate	2011/06/22time	05:21:17forward acquisition time	30.00reverse acquisition time	0.00gamma	498.7831k internal	0.1751k external	0.1751temperature offset calibration	1.0074default loss term (dB/km)	0.3790temperature slope calibration	1.3530multiplexer offset coefficient	1.0000multiplexer slope coefficient	1.0000fibre end	0.00T internal ref (°C)	22.59T ext. ref 1 (°C)	17.71T ext. ref 2 (°C)	0.14length (m)	temperature (°C)	Stokes	anti-Stokes-747.200	-37.096	-0.177	-0.126
-746.185	-200.000	0.009	0.449
-745.171	-41.291	-0.136	0.093
-744.156	389.337	0.110	-0.304
-743.142	800.000	0.026	-0.109
-742.127	-29.562	-0.295	0.223
-741.112	-94.381	0.127	0.046
-740.098	5.495	-0.286	-0.280
-739.083	800.000	0.058	0.301
-738.069	191.193	-0.042	-0.084
-737.054	-73.046	-0.211	-0.103
-736.039	-170.430	-0.318	-0.015
-735.025	-111.212	-0.341	0.092
-734.010	6.560	0.458	-0.452
-732.996	794.577	-0.113	-0.416
-731.981	-200.000	0.019	0.349
-730.966	30.666	-0.362	-0.411
-729.952	-200.000	0.004	-0.166
-728.937	-200.000	-0.004	-0.360
-727.923	-169.641	0.424	-0.020
-726.908	800.000	0.095	0.379
-725.894	297.416	0.178	-0.436
-724.879	16.057	0.083	0.086
-723.864	29.631	-0.204	-0.230
-722.850	-62.056	-0.573	0.316
-721.835	-56.341	-0.198	0.116
-720.821	12.414	-0.359	0.367
-719.806	-180.354	0.406	0.011
-718.791	145.231	-0.120	-0.214
-717.777	199.678	0.047	-0.096
-716.762	-114.113	-0.425	0.108
-715.748	196.998	0.094	0.190
-714.733	312.567	-0.026	0.066
-713.718	-118.350	-0.334	-0.078
-712.704	-77.039	-0.208	-0.096
-711.689	9.868	0.185	-0.186
-710.675	98.698	-0.289	-0.443
-709.660	-200.000	-0.021	0.320
-708.645	-152.719	-0.223	0.021
-707.631	-123.073	-0.203	0.043
-706.616	119.353	-0.139	0.229
-705.602	-168.543	-0.731	0.036
-704.587	-21.073	-0.188	-0.153
-703.572	-116.243	0.260	-0.063
-702.558	-105.389	0.065	-0.020
-701.543	-101.219	-0.165	-0.053
-700.529	-105.259	0.230	0.069
-699.514	-28.798	-0.256	-0.195
-698.499	-125.680	-0.660	0.131
-697.485	-12.471	0.116	0.100
-696.470	-88.054	0.144	-0.057
-695.456	-75.317	-0.062	0.029
-694.441	19.570	-0.075	-0.080
-693.426	383.447	-0.129	-0.355
-692.412	-160.572	0.090	-0.006
-691.397	188.095	-0.170	-0.337
-690.383	800.000	0.064	-0.311
-689.368	-200.000	0.006	-0.047
-688.354	-80.363	0.592	-0.261
-687.339	-6.221	0.456	-0.412
-686.324	-115.840	-0.504	0.124
-685.310	800.000	-0.047	0.253
-684.295	121.482	-0.066	0.109
-683.281	10.446	-0.191	-0.192
-682.266	60.036	0.363	0.475
-681.251	30.244	-0.225	-0.254
-680.237	-200.000	-0.001	-0.409
-679.222	-95.168	0.352	-0.125
-678.208	-74.315	0.166	0.079
-677.193	-141.807	-0.224	0.029
-676.178	800.000	0.092	0.463
-675.164	-200.000	-0.035	-0.283
-674.149	300.351	-0.066	-0.161
-673.135	-189.469	-0.655	-0.010
-672.120	-134.186	-0.198	0.032
-671.105	-200.000	0.006	0.152
-670.091	-155.484	0.400	0.034
-669.076	-5.819	-0.121	0.109
-668.062	800.000	-0.079	-0.336
-667.047	-86.539	-0.492	0.199
-666.032	-44.672	-0.058	-0.039
-665.018	-35.166	-0.342	-0.246
-664.003	46.329	0.076	-0.094
-662.989	5.487	-0.341	-0.333
-661.974	-200.000	-0.028	-0.274
-660.959	-22.121	0.030	-0.024
-659.945	-147.346	-0.267	-0.030
-658.930	-159.670	0.274	0.020
-657.916	53.031	-0.103	-0.131
-656.901	554.334	0.104	-0.332
-655.886	-200.000	0.031	-0.276
-654.872	-38.088	-0.210	-0.147
-653.857	-200.000	0.041	-0.316
-652.843	-120.909	0.134	-0.030
-651.828	177.611	-0.325	0.629
-650.814	26.864	-0.234	-0.259
-649.799	297.135	0.049	-0.121
-648.784	-200.000	0.043	-0.454
-647.770	-49.768	-0.387	-0.243
-646.755	-157.453	-0.523	-0.041
-645.741	-3.975	-0.205	0.188
-644.726	-92.457	-0.477	0.176
-643.711	-120.787	0.114	-0.025
-642.697	202.589	0.090	0.184
-641.682	60.207	0.339	0.445
-640.668	162.188	-0.213	0.395
-639.653	-9.053	0.221	0.195
-638.638	-109.848	0.057	0.016
-637.624	-136.187	0.618	0.095
-636.609	-49.584	-0.283	-0.178
-635.595	-107.809	-0.248	0.071
-634.580	128.233	0.283	0.478
-633.565	262.714	-0.141	0.326
-632.551	12.505	-0.236	0.240
-631.536	-200.000	0.001	0.278
-630.522	-191.162	0.296	0.004
-629.507	-146.977	-0.467	0.052
-628.492	71.876	0.118	-0.162
-627.478	133.236	0.098	-0.167
-626.463	-200.000	0.010	-0.137
-625.449	-72.888	-0.399	0.193
-624.434	204.484	0.160	0.330
-623.419	-57.210	-0.122	0.070
-622.405	158.864	-0.259	0.476
-621.390	99.652	0.109	0.167
-620.376	-200.000	0.014	0.206
-619.361	285.111	0.327	0.782
-618.346	-200.000	-0.389	0.002
-617.332	182.104	-0.062	-0.121
-616.317	-77.153	-0.471	0.216
-615.303	-123.553	0.289	0.060
-614.288	-101.833	0.200	-0.063
-613.273	130.238	0.066	-0.112
-612.259	-128.812	-0.074	0.014
-611.244	411.057	-0.264	-0.744
-610.230	-121.782	0.235	-0.051
-609.215	-27.286	0.322	-0.247
-608.201	-78.799	-0.134	0.060
-607.186	132.923	0.336	-0.575
-606.171	566.069	0.197	0.634
-605.157	-17.294	-0.304	-0.253
-604.142	-200.000	0.058	-0.629
-603.128	487.936	-0.197	0.597
-602.113	236.643	0.055	-0.121
-601.098	-102.757	-0.055	0.017
-600.084	-5.797	-0.282	0.255
-599.069	-110.736	-0.253	0.069
-598.055	-122.456	0.532	-0.113
-597.040	-168.096	0.225	-0.011
-596.025	164.093	0.161	-0.301
-595.011	-40.705	-0.280	-0.191
-593.996	208.715	0.129	0.267
-592.982	528.274	-0.018	-0.057
-591.967	-155.246	0.215	0.018
-590.952	-36.355	-0.254	0.180
-589.938	210.344	0.171	-0.357
-588.923	-19.821	0.124	-0.101
-587.909	66.369	0.221	0.297
-586.894	230.114	-0.130	-0.281
-585.879	316.846	-0.120	0.300
-584.865	-66.963	-0.220	-0.114
-583.850	-113.803	-0.366	-0.093
-582.836	-64.571	-0.266	-0.142
-581.821	170.200	-0.037	0.070
-580.806	64.433	-0.438	-0.583
-579.792	800.000	0.104	0.503
-578.777	172.447	-0.096	-0.182
-577.763	-21.476	0.368	0.295
-576.748	-27.937	-0.150	-0.114
-575.733	-101.990	-0.654	0.207
-574.719	-11.155	-0.534	-0.464
-573.704	10.714	0.078	0.078
-572.690	-4.940	-0.356	-0.323
-571.675	-88.977	-0.200	0.078
-570.661	229.021	-0.061	0.132
-569.646	80.132	-0.150	0.212
-568.631	-65.970	0.013	0.007
-567.617	-35.480	-0.121	0.086
-566.602	800.000	-0.155	0.604
-565.588	-88.116	0.199	0.078
-564.573	143.622	-0.160	0.282
-563.558	-153.026	0.302	-0.028
-562.544	-52.253	0.261	-0.159
-561.529	112.859	-0.177	-0.283
-560.515	11.137	-0.285	-0.287
-559.500	-128.937	-0.214	-0.039
-558.485	-100.504	-0.072	0.023
-557.471	-61.170	0.312	0.173
-556.456	-200.000	-0.010	-0.315
-555.442	800.000	-0.098	-0.560
-554.427	-62.892	0.222	-0.120
-553.412	-45.729	0.256	-0.167
-552.398	-200.000	-0.020	-0.418
-551.383	109.415	-0.071	-0.112
-550.369	169.783	-0.255	0.483
-549.354	16.968	0.154	-0.160
-548.339	-134.722	0.227	0.036
-547.325	-145.691	-0.299	0.035
-546.310	-15.978	0.452	0.379
-545.296	800.000	-0.101	0.572
-544.281	634.633	-0.050	0.169
-543.266	-80.521	0.364	0.159
-542.252	-109.222	0.448	-0.125
-541.237	177.937	0.221	0.425
-540.223	-102.170	-0.567	-0.179
-539.208	-200.000	0.016	0.361
-538.193	159.507	0.065	0.119
-537.179	-86.611	-0.304	-0.122
-536.164	-39.940	-0.267	-0.183
-535.150	104.595	-0.238	-0.371
-534.135	-111.947	0.089	-0.024
-533.121	-108.100	-0.275	-0.078
-532.106	-95.984	-0.259	0.090
-531.091	54.356	0.163	-0.207
-530.077	-175.296	-0.190	-0.007
-529.062	-32.098	0.238	-0.175
-528.048	-6.433	-0.372	-0.334
-527.033	-38.902	0.248	-0.171
-526.018	-150.402	0.420	-0.042
-525.004	-137.565	-0.101	0.015
-523.989	800.000	-0.095	0.422
-522.975	-200.000	-0.026	0.320
-521.960	-55.431	0.373	0.220
-520.945	472.425	-0.058	0.174
-519.931	-85.109	-0.442	0.181
-518.916	-28.910	0.084	-0.063
-517.902	-200.000	-0.005	-0.109
-516.887	119.257	0.144	0.235
-515.872	94.504	-0.257	0.385
-514.858	-135.984	-0.206	-0.032
-513.843	-8.056	-0.295	-0.262
-512.829	-49.068	-0.306	-0.192
-511.814	-22.150	0.157	-0.125
-510.799	9.163	-0.462	-0.459
-509.785	405.959	-0.044	-0.124
-508.770	82.081	0.269	-0.384
-507.756	-200.000	0.025	-0.376
-506.741	-108.051	-0.367	-0.104
-505.726	-200.000	0.009	-0.676
-504.712	-78.896	0.278	-0.124
-503.697	-94.044	0.551	-0.198
-502.683	549.849	0.249	-0.789
-501.668	45.733	-0.245	0.298
-500.653	25.190	0.224	-0.245
-499.639	36.302	-0.477	-0.553
-498.624	143.280	0.202	-0.355
-497.610	-88.356	0.764	0.299
-496.595	-200.000	-0.018	-0.287
-495.581	91.652	0.173	0.256
-494.566	-200.000	0.020	-0.334
-493.551	-148.634	-0.204	-0.022
-492.537	-200.000	-0.021	-0.512
-491.522	358.552	0.121	-0.320
-490.508	-38.112	-0.252	-0.175
-489.493	-200.000	0.080	0.489
-488.478	14.315	-0.277	-0.284
-487.464	-7.053	0.160	0.143
-486.449	-200.000	0.025	-0.208
-485.435	-102.588	-0.131	-0.041
-484.420	-112.351	0.222	0.058
-483.405	337.134	0.168	-0.430
-482.391	45.466	-0.269	-0.327
-481.376	100.083	-0.149	-0.227
-480.362	-200.000	-0.030	-0.231
-479.347	-29.661	0.140	-0.105
-478.332	-200.000	0.001	-0.320
-477.318	-200.000	0.044	-0.535
-476.303	-112.660	-0.081	0.021
-475.289	-133.933	-0.645	0.104
-474.274	-81.060	-0.233	-0.101
-473.259	25.238	0.262	-0.286
-472.245	-0.279	0.117	-0.109
-471.230	-66.650	-0.114	0.059
-470.216	-46.394	-0.148	0.096
-469.201	800.000	-0.084	0.483
-468.186	-82.561	0.271	0.115
-467.172	151.302	-0.079	0.142
-466.157	-99.363	-0.249	-0.082
-465.143	171.884	0.079	-0.149
-464.128	440.123	0.147	-0.423
-463.113	262.134	-0.169	0.387
-462.099	-103.201	0.398	0.123
-461.084	-106.791	0.159	-0.046
-460.070	-150.966	0.427	0.042
-459.055	241.913	-0.208	-0.458
-458.040	287.603	0.071	-0.169
-457.026	800.000	0.091	-0.419
-456.011	19.785	-0.135	0.142
-454.997	-129.125	0.245	0.045
-453.982	-149.526	0.342	-0.035
-452.968	127.998	0.219	-0.367
-451.953	-0.820	-0.110	-0.102
-450.938	-58.070	-0.335	0.191
-449.924	-151.840	-0.331	-0.031
-448.909	-10.321	-0.347	-0.301
-447.895	121.966	-0.111	0.182
-446.880	46.180	0.194	0.236
-445.865	-43.852	0.444	0.293
-444.851	-179.082	0.468	-0.014
-443.836	-200.000	-0.064	0.422
-442.822	7.462	0.087	-0.085
-441.807	-200.000	0.075	-0.444
-440.792	-157.242	0.460	0.036
-439.778	800.000	-0.152	-0.665
-438.763	-90.122	0.299	0.114
-437.749	380.558	0.075	0.202
-436.734	32.628	0.440	-0.500
-435.719	-200.000	0.000	0.165
-434.705	-200.000	-0.031	0.346
-433.690	123.564	-0.130	0.215
-432.676	-17.979	0.273	0.224
-431.661	-84.952	0.519	0.213
-430.646	-168.781	-0.236	0.012
-429.632	-200.000	0.003	-0.040
-428.617	200.466	0.187	0.379
-427.603	-200.000	-0.021	-0.239
-426.588	32.978	0.144	-0.164
-425.573	-23.007	-0.467	-0.368
-424.559	800.000	-0.078	-0.377
-423.544	-150.123	-0.393	0.040
-422.530	-0.216	0.180	-0.168
-421.515	0.997	0.120	-0.113
-420.500	-1.021	-0.036	0.033
-419.486	-191.366	0.645	0.008
-418.471	-68.140	-0.142	0.072
-417.457	-46.239	0.396	0.255
-416.442	-132.828	0.210	0.035
-415.428	-200.000	-0.034	-0.276
-414.413	48.676	0.115	-0.142
-413.398	-96.191	-0.455	0.157
-412.384	-79.153	-0.292	-0.129
-411.369	-4.507	0.128	0.116
-410.355	-40.360	-0.188	0.128
-409.340	-81.361	-0.237	-0.102
-408.325	-16.568	-0.202	-0.168
-407.311	-6.398	-0.155	0.139
-406.296	65.974	-0.280	0.372
-405.282	8.182	-0.244	0.240
-404.267	91.322	0.132	0.195
-403.252	-129.571	-0.390	0.070
-402.238	-50.634	0.312	0.192
-401.223	-200.000	0.063	0.406
-400.209	333.398	-0.054	0.139
-399.194	-63.853	-0.187	0.100
-398.179	15.287	-0.151	0.155
-397.165	-56.379	-0.215	-0.125
-396.150	800.000	0.025	-0.125
-395.136	-112.897	0.341	-0.088
-394.121	398.234	-0.132	0.363
-393.106	-108.594	-0.178	-0.050
-392.092	110.811	-0.236	-0.373
-391.077	-173.501	0.476	-0.018
-390.063	-200.000	-0.068	-0.543
-389.048	-67.434	0.205	0.105
-388.033	-47.673	0.209	0.132
-387.019	264.593	-0.064	-0.147
-386.004	-158.278	0.387	0.029
-384.990	1.436	0.163	0.153
-383.975	367.899	0.219	0.581
-382.960	-141.709	-0.170	-0.022
-381.946	-200.000	-0.024	0.196
-380.931	800.000	0.031	-0.155
-379.917	64.230	-0.238	-0.314
-378.902	231.533	0.082	-0.177
-377.888	-138.975	-0.364	0.051
-376.873	-123.162	-0.503	0.105
-375.858	298.216	0.026	0.062
-374.844	80.071	-0.402	0.566
-373.829	-200.000	-0.017	-0.269
-372.815	-30.432	0.117	0.087
-371.800	465.166	0.113	0.332
-370.785	145.877	-0.231	0.407
-369.771	-77.611	-0.155	0.070
-368.756	113.429	0.097	0.154
-367.742	-1.266	0.166	-0.154
-366.727	152.818	-0.276	0.495
-365.712	-95.430	-0.366	-0.128
-364.698	-92.470	-0.277	0.101
-363.683	-114.187	0.324	-0.081
-362.669	-25.885	0.548	-0.422
-361.654	-14.696	0.105	-0.088
-360.639	66.157	0.137	0.182
-359.625	-200.000	0.005	0.054
-358.610	-200.000	-0.438	0.002
-357.596	-82.956	0.281	0.118
-356.581	90.438	0.081	-0.119
-355.566	-141.566	0.288	0.038
-354.552	-104.587	0.583	0.175
-353.537	-96.920	0.667	0.227
-352.523	376.990	0.155	0.417
-351.508	125.393	-0.060	-0.099
-350.493	787.110	0.036	-0.130
-349.479	-52.633	0.273	-0.164
-348.464	73.250	-0.206	0.283
-347.450	300.314	-0.201	0.486
-346.435	800.000	-0.061	0.306
-345.420	15.880	0.033	-0.034
-344.406	-88.814	0.008	0.003
-343.391	-116.173	0.137	0.033
-342.377	-110.266	0.405	-0.110
-341.362	124.806	-0.211	0.348
-340.348	165.696	-0.029	0.054
-339.333	-75.282	0.216	0.100
-338.318	-120.914	0.534	0.116
-337.304	8.500	-0.370	-0.364
-336.289	65.940	-0.087	0.115
-335.275	-200.000	0.036	-0.281
-334.260	409.036	-0.124	-0.344
-333.245	-58.970	0.339	0.191
-332.231	114.264	-0.165	0.263
-331.216	-153.410	-0.173	-0.015
-330.202	69.744	-0.310	0.419
-329.187	44.291	0.199	-0.239
-328.172	235.012	-0.097	-0.211
-327.158	-78.381	0.318	-0.142
-326.143	-7.944	0.190	0.168
-325.129	98.556	0.210	0.317
-324.114	-154.804	0.372	0.032
-323.099	302.195	0.049	-0.119
-322.085	-146.052	0.605	-0.069
-321.070	225.544	0.258	-0.548
-320.056	-3.923	-0.675	-0.611
-319.041	201.827	-0.117	0.237
-318.026	98.197	0.084	-0.126
-317.012	-164.172	0.718	-0.043
-315.997	215.349	-0.204	0.423
-314.983	-95.001	-0.263	0.092
-313.968	-21.613	-0.067	0.054
-312.953	800.000	-0.149	0.577
-311.939	-60.072	0.220	-0.122
-310.924	173.102	-0.106	0.201
-309.910	93.032	0.223	0.329
-308.895	13.353	-0.236	0.238
-307.880	-200.000	-0.037	0.215
-306.866	60.098	-0.443	0.573
-305.851	-135.169	-0.522	0.081
-304.837	-132.527	-0.499	-0.083
-303.822	-96.878	0.430	-0.147
-302.807	405.306	0.107	-0.295
-301.793	-154.369	-0.320	-0.028
-300.778	800.000	-0.157	0.776
-299.764	-148.042	0.346	0.037
-298.749	22.330	0.250	0.266
-297.735	-200.000	-0.009	-0.195
-296.720	-131.932	-0.351	0.059
-295.705	-152.933	-0.197	0.018
-294.691	-126.752	-0.535	0.102
-293.676	-200.000	0.017	-0.248
-292.662	800.000	-0.093	-0.348
-291.647	800.000	0.064	-0.263
-290.632	-16.264	0.375	0.310
-289.618	-16.246	-0.241	0.200
-288.603	-200.000	-0.056	-0.370
-287.589	-105.750	0.089	0.026
-286.574	-200.000	0.068	0.469
-285.559	-110.356	-0.223	-0.060
-284.545	50.244	-0.112	-0.139
-283.530	94.618	0.342	0.509
-282.516	-134.764	-0.050	0.008
-281.501	-54.970	0.131	0.077
-280.486	21.653	0.034	0.036
-279.472	-69.795	0.644	-0.320
-278.457	-13.808	-0.184	-0.155
-277.443	-27.060	0.147	0.112
-276.428	-166.086	-0.428	-0.023
-275.413	96.050	0.324	-0.484
-274.399	-173.104	0.380	0.015
-273.384	152.894	-0.132	0.235
-272.370	-147.728	-0.465	-0.050
-271.355	137.617	-0.328	0.562
-270.340	-82.067	-0.145	0.062
-269.326	800.000	0.094	-0.414
-268.311	-24.347	-0.246	-0.191
-267.297	-77.333	-0.265	0.119
-266.282	248.890	0.149	-0.331
-265.267	-99.678	0.374	0.121
-264.253	-152.462	-0.403	0.037
-263.238	800.000	-0.118	-0.549
-262.224	-200.000	-0.009	-0.128
-261.209	-154.159	-0.206	0.018
-260.195	-57.524	0.208	-0.119
-259.180	-98.330	-0.171	-0.057
-258.165	2.431	0.236	0.222
-257.151	-200.000	0.009	0.079
-256.136	654.047	0.109	-0.366
-255.122	-200.000	0.066	-0.553
-254.107	-120.000	-0.418	-0.093
-253.092	-200.000	0.015	0.107
-252.078	110.055	-0.253	0.397
-251.063	64.872	-0.243	-0.320
-250.049	-29.363	0.131	0.098
-249.034	800.000	-0.046	-0.223
-248.019	328.043	-0.159	-0.400
-247.005	-200.000	0.028	-0.303
-245.990	44.609	0.117	0.140
-244.976	-151.731	0.374	0.035
-243.961	-157.428	0.364	-0.028
-242.946	241.736	0.141	0.307
-241.932	308.926	-0.080	-0.196
-240.917	140.208	0.281	-0.485
-239.903	738.605	-0.076	-0.266
-238.888	-200.000	-0.002	-0.048
-237.873	781.376	0.077	0.278
-236.859	134.418	0.201	0.340
-235.844	639.827	-0.130	0.433
-234.830	194.611	-0.190	0.377
-233.815	-200.000	-0.045	-0.457
-232.800	-75.194	0.036	-0.016
-231.786	-61.485	0.218	0.119
-230.771	-155.844	-0.549	-0.045
-229.757	800.000	-0.077	0.372
-228.742	-8.734	0.120	-0.105
-227.727	-78.342	0.351	-0.156
-226.713	113.021	-0.261	-0.412
-225.698	310.895	-0.103	0.253
-224.684	-145.555	0.333	0.038
-223.669	-58.722	0.318	-0.179
-222.655	-83.995	0.382	0.157
-221.640	-31.157	-0.131	0.096
-220.625	300.152	-0.210	0.505
-219.611	-159.566	-0.296	0.021
-218.596	-116.865	-0.350	-0.083
-217.582	-5.427	-0.252	0.225
-216.567	82.918	-0.072	-0.102
-215.552	524.647	0.050	-0.155
-214.538	-200.000	-0.003	-0.068
-213.523	50.405	-0.113	-0.139
-212.509	481.490	-0.204	0.606
-211.494	-120.827	-0.478	0.104
-210.479	26.315	0.104	0.113
-209.465	-180.792	0.273	-0.007
-208.450	134.601	0.167	0.282
-207.436	-26.754	0.216	0.164
-206.421	-111.251	-0.256	0.068
-205.406	800.000	-0.025	-0.138
-204.392	290.896	0.182	-0.432
-203.377	249.426	0.052	0.116
-202.363	246.253	0.141	0.310
-201.348	-86.896	0.231	0.091
-200.333	-200.000	0.031	-0.183
-199.319	-125.223	0.168	-0.033
-198.304	-103.063	0.208	0.064
-197.290	707.843	-0.080	-0.275
-196.275	-48.628	-0.352	-0.219
-195.260	-200.000	0.058	0.532
-194.246	-200.000	0.004	-0.117
-193.231	-64.731	0.393	-0.206
-192.217	-135.194	0.311	0.048
-191.202	-166.656	0.208	-0.011
-190.187	800.000	-0.138	-0.569
-189.173	-168.012	0.563	0.028
-188.158	416.746	-0.025	0.069
-187.144	36.525	0.314	-0.360
-186.129	57.706	0.105	-0.134
-185.114	-3.105	0.419	-0.380
-184.100	-196.022	0.147	0.001
-183.085	-200.000	0.068	0.534
-182.071	34.262	0.174	0.197
-181.056	-125.678	0.496	0.097
-180.042	-170.632	0.097	0.004
-179.027	44.128	-0.275	0.327
-178.012	-11.665	0.068	-0.058
-176.998	800.000	0.112	-0.418
-175.983	-136.465	-0.137	0.020
-174.969	491.017	0.036	0.108
-173.954	800.000	0.092	0.421
-172.939	-200.000	-0.050	-0.305
-171.925	45.162	0.273	-0.327
-170.910	40.556	0.141	0.165
-169.896	-146.666	-0.499	0.055
-168.881	-200.000	0.043	-0.441
-167.866	-115.211	0.240	0.059
-166.852	-101.158	0.123	0.039
-165.837	800.000	0.025	0.132
-164.823	-73.171	-0.399	0.189
-163.808	165.911	0.086	-0.158
-162.793	-118.825	0.260	-0.059
-161.779	-9.842	-0.161	-0.139
-160.764	607.238	-0.056	-0.181
-159.750	-146.347	-0.223	0.025
-158.735	685.862	0.030	0.101
-157.720	185.320	-0.216	0.417
-156.706	236.541	-0.352	0.758
-155.691	-48.199	-0.303	-0.189
-154.677	117.273	0.117	0.187
-153.662	97.903	0.099	0.148
-152.647	-122.911	-0.126	-0.026
-151.633	-200.000	0.013	-0.289
-150.618	94.654	0.242	-0.358
-149.604	-10.647	0.441	0.378
-148.589	64.482	0.207	0.271
-147.574	522.586	-0.065	-0.199
-146.560	7.981	-0.216	-0.210
-145.545	-15.669	0.350	-0.289
-144.531	-101.634	0.129	-0.041
-143.516	-200.000	0.014	-0.177
-142.502	800.000	0.081	-0.378
-141.487	-95.917	-0.314	-0.108
-140.472	-118.043	0.345	0.079
-139.458	-200.000	0.012	-0.074
-138.443	-30.493	-0.132	-0.097
-137.429	-33.272	-0.180	0.129
-136.414	-73.517	0.281	0.132
-135.399	800.000	0.173	-0.665
-134.385	-102.855	-0.287	0.088
-133.370	-100.242	0.289	-0.092
-132.356	-200.000	-0.005	0.108
-131.341	-122.709	-0.137	0.028
-130.326	58.044	-0.230	0.293
-129.312	-159.631	-0.261	-0.018
-128.297	249.311	0.043	-0.095
-127.283	130.910	-0.152	0.253
-126.268	-161.471	0.063	-0.004
-125.253	69.576	0.214	0.286
-124.239	63.899	0.301	-0.392
-123.224	103.623	-0.097	0.148
-122.210	68.795	-0.066	-0.088
