DTS Sentinel unit serial number:	SN409020Multiplexer serial number:	ORYXHardware model number:	OX4-SRSoftware version number:	ORYX F/W v3.00 Oryx Data Collector v3.7.2.0data status	okinstallation	HaddamTimeLapsedifferential loss correction	single-endedforward channel	channel 3reverse channel	N/Adate	2011/06/21time	21:41:17forward acquisition time	30.00reverse acquisition time	0.00gamma	498.7831k internal	0.1761k external	0.1761temperature offset calibration	1.0074default loss term (dB/km)	0.3790temperature slope calibration	1.3530multiplexer offset coefficient	1.0000multiplexer slope coefficient	1.0000fibre end	0.00T internal ref (°C)	25.75T ext. ref 1 (°C)	19.42T ext. ref 2 (°C)	0.03length (m)	temperature (°C)	Stokes	anti-Stokes-747.200	87.078	-0.211	-0.308
-746.185	219.202	-0.131	0.279
-745.171	115.776	0.179	0.290
-744.156	-100.205	0.167	-0.055
-743.142	-121.071	-0.150	0.033
-742.127	-200.000	0.030	0.569
-741.112	447.913	-0.131	-0.384
-740.098	-200.000	-0.015	-0.160
-739.083	367.092	0.066	0.176
-738.069	-200.000	-0.035	0.693
-737.054	-77.714	-0.315	0.143
-736.039	-140.632	-0.278	0.038
-735.025	-157.097	0.740	-0.059
-734.010	-9.203	-0.485	-0.428
-732.996	-123.167	0.168	-0.035
-731.981	99.751	0.236	-0.362
-730.966	59.861	0.211	0.275
-729.952	370.010	0.166	-0.445
-728.937	-149.004	0.139	-0.015
-727.923	-200.000	0.104	0.723
-726.908	431.098	0.160	0.461
-725.894	-89.861	-0.411	-0.158
-724.879	-122.111	0.115	-0.025
-723.864	-116.168	-0.506	-0.123
-722.850	-110.999	0.173	0.047
-721.835	114.422	-0.278	-0.447
-720.821	-75.563	-0.047	-0.022
-719.806	-32.788	-0.340	0.249
-718.791	-74.314	0.376	-0.179
-717.777	800.000	-0.060	-0.255
-716.762	28.681	0.137	0.153
-715.748	209.168	0.023	-0.048
-714.733	177.436	-0.222	0.429
-713.718	-171.277	-0.492	0.021
-712.704	70.861	0.183	-0.250
-711.689	-125.967	-0.256	0.050
-710.675	8.744	0.223	0.222
-709.660	-200.000	0.315	0.000
-708.645	599.440	-0.141	-0.464
-707.631	-179.767	0.173	0.005
-706.616	-47.831	0.055	0.035
-705.602	5.167	-0.340	0.330
-704.587	-34.361	-0.394	0.285
-703.572	-113.021	0.488	0.126
-702.558	-104.686	0.222	0.067
-701.543	-23.326	0.129	0.102
-700.529	29.083	0.285	0.318
-699.514	-200.000	0.026	0.430
-698.499	-200.000	0.021	0.527
-697.485	92.388	-0.139	0.207
-696.470	-128.365	0.390	-0.073
-695.456	-84.773	-0.458	0.189
-694.441	-77.056	-0.049	0.023
-693.426	93.172	0.121	-0.181
-692.412	-143.315	-0.126	0.016
-691.397	-8.010	-0.119	-0.106
-690.383	-33.402	0.280	0.204
-689.368	-100.735	0.205	0.066
-688.354	55.310	-0.105	0.134
-687.339	-140.290	0.212	0.029
-686.324	67.088	-0.184	0.247
-685.310	-31.551	0.489	0.361
-684.295	-140.516	-0.379	-0.051
-683.281	-21.264	0.071	-0.057
-682.266	672.137	0.011	0.038
-681.251	-200.000	-0.026	-0.310
-680.237	24.450	-0.030	0.033
-679.222	83.985	-0.047	-0.068
-678.208	57.474	0.038	-0.048
-677.193	-46.975	0.349	-0.224
-676.178	319.240	-0.151	-0.378
-675.164	-200.000	-0.030	0.493
-674.149	39.575	-0.259	-0.306
-673.135	-200.000	-0.031	-0.284
-672.120	23.626	-0.308	0.333
-671.105	253.156	-0.218	-0.491
-670.091	-13.736	-0.255	0.217
-669.076	468.338	-0.127	-0.379
-668.062	-88.692	-0.111	0.043
-667.047	-53.781	-0.109	-0.065
-666.032	45.330	-0.310	0.377
-665.018	185.636	0.179	0.352
-664.003	147.774	0.242	-0.431
-662.989	-30.308	-0.258	-0.193
-661.974	-40.935	0.342	0.232
-660.959	-83.035	-0.395	0.167
-659.945	-72.620	0.021	0.010
-658.930	91.336	-0.123	0.183
-657.916	-70.351	-0.349	0.174
-656.901	-121.803	-0.133	-0.029
-655.886	-57.468	0.435	-0.250
-654.872	-171.268	0.535	0.023
-653.857	87.851	-0.074	-0.108
-652.843	14.320	-0.357	0.366
-651.828	14.085	0.466	0.477
-650.814	12.286	-0.154	0.156
-649.799	74.241	0.167	0.231
-648.784	-5.356	-0.064	0.058
-647.770	374.549	0.083	-0.224
-646.755	95.689	-0.077	-0.116
-645.741	64.909	-0.168	-0.223
-644.726	-85.998	0.182	-0.074
-643.711	60.300	-0.201	0.262
-642.697	-168.946	0.355	-0.017
-641.682	-108.552	0.189	0.053
-640.668	-77.985	-0.147	-0.066
-639.653	-30.868	-0.117	0.087
-638.638	-91.591	0.378	0.141
-637.624	-75.674	0.451	0.210
-636.609	381.623	-0.116	-0.314
-635.595	800.000	0.065	-0.329
-634.580	-96.882	-0.208	-0.071
-633.565	-128.570	-0.198	0.037
-632.551	540.467	-0.067	0.213
-631.536	-52.546	-0.477	0.289
-630.522	88.861	-0.405	-0.593
-629.507	178.704	0.105	-0.202
-628.492	-150.043	-0.060	-0.006
-627.478	-31.344	-0.264	-0.195
-626.463	164.328	0.035	0.065
-625.449	-139.026	0.581	0.082
-624.434	-200.000	0.007	-0.230
-623.419	-50.471	0.124	0.077
-622.405	-200.000	-0.031	0.301
-621.390	-20.594	-0.041	0.033
-620.376	88.525	-0.179	0.263
-619.361	-176.885	0.491	0.016
-618.346	-68.986	-0.455	-0.230
-617.332	-114.323	-0.140	0.035
-616.317	-145.276	0.503	-0.059
-615.303	193.778	-0.185	-0.370
-614.288	-141.359	-0.479	-0.063
-613.273	-116.951	0.447	-0.107
-612.259	-103.741	0.305	-0.093
-611.244	-135.569	0.717	-0.111
-610.230	-114.160	0.340	0.086
-609.215	2.218	-0.294	0.279
-608.201	-52.283	-0.269	0.163
-607.186	-84.342	0.449	-0.186
-606.171	-160.751	0.237	-0.016
-605.157	800.000	0.076	0.337
-604.142	33.336	-0.319	-0.363
-603.128	-17.681	-0.197	-0.162
-602.113	-155.191	-0.429	0.036
-601.098	800.000	0.099	-0.531
-600.084	-113.361	0.346	0.089
-599.069	-140.694	-0.246	0.033
-598.055	225.271	-0.104	0.222
-597.040	800.000	-0.158	0.642
-596.025	337.353	0.051	-0.130
-595.011	193.793	-0.105	-0.210
-593.996	-45.748	0.322	-0.208
-592.982	-157.571	-0.543	0.042
-591.967	-174.515	-0.355	-0.013
-590.952	-115.380	0.144	-0.035
-589.938	-200.000	0.016	0.127
-588.923	550.124	-0.071	-0.224
-587.909	800.000	-0.081	-0.300
-586.894	800.000	0.065	-0.330
-585.879	-49.529	0.179	0.112
-584.865	78.577	0.082	-0.115
-583.850	457.380	0.088	-0.258
-582.836	208.340	0.139	-0.287
-581.821	-95.199	0.238	0.084
-580.806	152.483	0.081	-0.146
-579.792	-200.000	-0.013	-0.098
-578.777	-200.000	0.002	0.130
-577.763	-163.820	0.491	0.030
-576.748	36.057	0.452	0.523
-575.733	-137.907	-0.281	-0.041
-574.719	174.436	0.304	0.579
-573.704	-96.900	-0.396	0.135
-572.690	77.556	0.334	-0.467
-571.675	-106.488	0.342	0.100
-570.661	-4.900	0.209	0.188
-569.646	4.578	-0.457	0.440
-568.631	-172.886	0.293	0.012
-567.617	138.070	-0.263	0.454
-566.602	800.000	-0.062	-0.316
-565.588	114.494	-0.088	-0.141
-564.573	-7.378	-0.415	0.369
-563.558	439.947	0.154	0.445
-562.544	165.405	0.141	-0.263
-561.529	39.924	0.051	0.060
-560.515	-91.173	-0.268	0.100
-559.500	145.654	0.210	0.370
-558.485	-142.281	-0.366	-0.047
-557.471	40.635	-0.468	-0.553
-556.456	772.521	0.141	-0.507
-555.442	71.795	-0.106	-0.145
-554.427	114.471	-0.274	0.438
-553.412	-147.390	-0.079	-0.009
-552.398	65.100	-0.093	0.123
-551.383	-44.439	0.275	-0.180
-550.369	-180.620	-0.339	0.009
-549.354	-200.000	-0.069	-0.405
-548.339	-14.416	0.151	-0.127
-547.325	412.693	-0.052	-0.147
-546.310	-187.332	0.203	0.004
-545.296	1.752	0.310	0.293
-544.281	11.302	0.292	0.293
-543.266	-200.000	0.026	0.151
-542.252	26.536	0.105	0.115
-541.237	34.410	0.073	-0.083
-540.223	-90.911	0.291	0.109
-539.208	28.194	0.201	0.223
-538.193	-93.413	-0.329	0.119
-537.179	-96.429	-0.051	-0.018
-536.164	-143.989	0.203	0.025
-535.150	251.339	0.178	0.399
-534.135	-133.862	-0.293	0.047
-533.121	31.941	-0.280	0.317
-532.106	30.968	-0.158	0.178
-531.091	-200.000	0.004	0.093
-530.077	-44.488	-0.198	-0.130
-529.062	-48.400	0.587	0.369
-528.048	-74.824	0.383	0.179
-527.033	50.360	0.202	-0.251
-526.018	-130.340	-0.354	-0.062
-525.004	689.671	0.100	-0.344
-523.989	667.351	0.101	-0.343
-522.975	-200.000	0.088	0.541
-521.960	-104.419	0.141	-0.043
-520.945	-126.274	-0.669	-0.130
-519.931	301.425	-0.024	0.058
-518.916	692.568	0.043	0.148
-517.902	85.231	-0.108	-0.155
-516.887	-10.078	-0.319	-0.277
-515.872	-125.840	-0.254	-0.050
-514.858	179.566	0.350	-0.674
-513.843	-37.102	0.316	-0.221
-512.829	-48.830	-0.193	0.121
-511.814	-186.949	-0.423	-0.008
-510.799	323.864	-0.053	0.133
-509.785	115.019	-0.363	0.581
-508.770	170.842	0.137	-0.257
-507.756	-5.684	0.056	0.050
-506.741	-124.324	0.265	-0.054
-505.726	800.000	0.102	-0.416
-504.712	-144.931	0.346	-0.041
-503.697	-200.000	-0.006	0.427
-502.683	87.016	0.153	0.222
-501.668	339.560	0.073	0.187
-500.653	-40.552	0.598	0.405
-499.639	201.738	0.069	0.139
-498.624	-4.084	-0.070	-0.064
-497.610	62.020	-0.099	0.129
-496.595	24.252	-0.156	0.169
-495.581	-200.000	-0.020	-0.364
-494.566	-138.408	0.197	-0.028
-493.551	-100.433	0.373	-0.120
-492.537	-200.000	-0.007	0.155
-491.522	-114.221	-0.448	0.112
-490.508	321.284	-0.024	-0.059
-489.493	-77.912	-0.148	0.066
-488.478	-170.340	0.738	0.033
-487.464	-112.237	0.534	-0.139
-486.449	324.022	0.099	-0.249
-485.435	87.645	-0.228	0.331
-484.420	-48.666	0.048	-0.030
-483.405	144.159	0.214	-0.374
-482.391	62.701	-0.210	-0.274
-481.376	800.000	-0.110	-0.411
-480.362	57.101	0.244	0.312
-479.347	-45.165	0.145	-0.094
-478.332	120.700	0.117	0.191
-477.318	-24.820	-0.121	0.094
-476.303	-200.000	0.530	0.001
-475.289	-126.197	-0.456	-0.088
-474.274	800.000	-0.058	0.227
-473.259	263.150	-0.088	-0.200
-472.245	-200.000	0.010	0.511
-471.230	-174.208	-0.316	-0.012
-470.216	-32.995	-0.318	0.230
-469.201	800.000	-0.049	-0.232
-468.186	-86.319	0.109	0.044
-467.172	-141.054	-0.113	0.015
-466.157	310.221	-0.064	0.158
-465.143	-200.000	-0.013	-0.187
-464.128	-148.899	-0.360	-0.037
-463.113	-123.464	0.186	-0.038
-462.099	800.000	0.077	0.310
-461.084	95.371	0.244	0.365
-460.070	268.263	0.106	0.244
-459.055	575.602	0.022	-0.071
-458.040	-36.193	0.190	0.134
-457.026	-34.286	0.169	-0.121
-456.011	-200.000	-0.055	-0.349
-454.997	-13.864	-0.260	0.219
-453.982	405.848	0.162	-0.450
-452.968	-200.000	0.008	-0.122
-451.953	-70.875	-0.313	0.153
-450.938	-36.670	-0.030	-0.021
-449.924	-91.822	-0.465	0.171
-448.909	800.000	0.063	0.262
-447.895	1.288	0.093	-0.088
-446.880	-150.558	-0.338	0.033
-445.865	-20.126	-0.282	0.227
-444.851	800.000	-0.059	0.217
-443.836	-125.691	-0.467	-0.092
-442.822	-61.194	0.364	-0.200
-441.807	-20.883	-0.290	0.232
-440.792	-139.366	-0.198	0.027
-439.778	800.000	-0.055	0.268
-438.763	122.388	-0.197	0.323
-437.749	22.785	0.169	0.181
-436.734	148.759	0.082	-0.145
-435.719	-113.287	0.365	-0.093
-434.705	93.307	-0.133	0.197
-433.690	82.222	-0.038	-0.054
-432.676	172.143	-0.098	0.185
-431.661	74.314	0.174	-0.239
-430.646	-93.034	0.227	0.082
-429.632	-200.000	0.037	-0.445
-428.617	-200.000	0.058	0.553
-427.603	800.000	-0.099	-0.418
-426.588	17.870	-0.188	0.196
-425.573	-96.308	0.458	0.157
-424.559	-79.270	-0.213	0.094
-423.544	-200.000	-0.013	0.185
-422.530	-163.622	0.398	-0.024
-421.515	-200.000	-0.008	0.127
-420.500	-146.565	-0.158	-0.018
-419.486	800.000	-0.013	-0.050
-418.471	-123.566	-0.525	-0.108
-417.457	-107.661	0.053	0.015
-416.442	-113.830	0.107	0.027
-415.428	28.436	-0.210	-0.232
-414.413	-169.384	0.173	-0.008
-413.398	238.608	0.092	0.201
-412.384	-16.532	0.117	0.097
-411.369	-72.891	-0.125	0.060
-410.355	-175.562	0.055	-0.002
-409.340	800.000	0.115	-0.525
-408.325	231.066	-0.211	0.451
-407.311	-200.000	-0.018	0.121
-406.296	-130.848	0.400	-0.069
-405.282	61.473	0.177	0.229
-404.267	-154.275	0.092	0.008
-403.252	250.633	-0.186	-0.413
-402.238	-112.302	0.229	-0.059
-401.223	-18.830	-0.357	0.290
-400.209	120.512	0.195	0.317
-399.194	-200.000	-0.010	-0.085
-398.179	-104.511	0.339	-0.101
-397.165	800.000	0.100	0.560
-396.150	-200.000	-0.005	-0.309
-395.136	-35.606	0.326	-0.230
-394.121	-200.000	0.055	-0.358
-393.106	-107.174	0.147	0.042
-392.092	-126.412	-0.361	-0.069
-391.077	565.159	0.135	-0.429
-390.063	-41.620	-0.147	0.098
-389.048	215.892	-0.171	-0.355
-388.033	-200.000	0.004	-0.505
-387.019	8.336	-0.155	-0.152
-386.004	240.964	0.291	-0.636
-384.990	-33.717	0.357	0.256
-383.975	197.670	-0.240	-0.479
-382.960	-200.000	-0.056	-0.682
-381.946	84.082	0.153	-0.218
-380.931	800.000	0.115	0.462
-379.917	-158.976	-0.272	-0.020
-378.902	-190.555	-0.388	0.005
-377.888	-161.002	0.358	-0.024
-376.873	117.119	0.218	-0.349
-375.858	-115.486	0.314	0.076
-374.844	-116.783	0.185	-0.044
-373.829	69.416	-0.139	0.186
-372.815	109.720	-0.042	0.065
-371.800	-178.318	0.312	-0.009
-370.785	-24.983	0.353	-0.273
-369.771	-174.149	0.240	0.009
-368.756	-200.000	-0.003	-0.056
-367.742	-137.666	0.417	0.060
-366.727	-116.226	0.614	-0.147
-365.712	-188.890	-0.113	-0.002
-364.698	128.001	-0.035	-0.058
-363.683	800.000	0.049	-0.246
-362.669	-171.030	0.554	0.024
-361.654	343.916	-0.012	0.032
-360.639	-48.881	-0.449	0.279
-359.625	64.429	-0.385	0.505
-358.610	-125.254	-0.498	-0.098
-357.596	71.021	-0.159	0.214
-356.581	-200.000	-0.030	-0.305
-355.566	169.603	0.089	-0.165
-354.552	21.294	0.215	0.228
-353.537	-78.792	-0.353	0.156
-352.523	19.715	0.137	0.144
-351.508	-10.577	0.296	-0.255
-350.493	-159.778	-0.496	-0.035
-349.479	774.167	-0.184	-0.658
-348.464	-80.593	0.131	-0.057
-347.450	-118.784	0.373	0.085
-346.435	-9.313	-0.183	-0.159
-345.420	-136.526	-0.443	0.066
-344.406	36.969	0.149	0.171
-343.391	-58.398	0.240	-0.135
-342.377	151.544	0.073	-0.129
-341.362	800.000	0.061	-0.290
-340.348	-200.000	-0.012	0.282
-339.333	233.395	-0.077	-0.165
-338.318	-200.000	-0.007	-0.349
-337.304	-37.500	0.133	0.092
-336.289	140.280	-0.233	0.401
-335.275	-37.594	-0.388	-0.268
-334.260	-127.322	0.349	0.066
-333.245	-140.442	0.508	0.068
-332.231	-44.415	-0.356	0.231
-331.216	744.282	0.114	0.400
-330.202	-16.208	-0.130	0.107
-329.187	189.247	0.135	-0.263
-328.172	-1.926	0.247	-0.226
-327.158	-133.658	-0.447	0.072
-326.143	-129.376	0.211	0.038
-325.129	-59.399	-0.244	-0.136
-324.114	-152.705	-0.448	0.041
-323.099	800.000	-0.125	0.609
-322.085	800.000	0.052	-0.201
-321.070	-99.203	0.310	-0.101
-320.056	380.531	0.185	0.496
-319.041	44.734	-0.162	0.194
-318.026	-41.239	0.293	-0.196
-317.012	3.103	-0.084	0.079
-315.997	46.870	-0.137	-0.165
-314.983	800.000	-0.050	0.267
-313.968	-200.000	0.013	0.295
-312.953	-136.558	0.314	-0.047
-311.939	51.229	0.251	0.309
-310.924	-169.823	0.077	-0.004
-309.910	-181.987	-0.391	0.009
-308.895	-104.428	0.132	0.039
-307.880	153.966	0.165	0.294
-306.866	-160.205	-0.350	0.024
-305.851	-115.093	-0.181	-0.044
-304.837	-19.349	-0.393	0.316
-303.822	-146.546	-0.221	-0.025
-302.807	-200.000	0.019	-0.170
-301.793	-109.287	-0.182	0.050
-300.778	38.970	0.351	-0.408
-299.764	-200.000	0.013	0.209
-298.749	800.000	0.066	-0.261
-297.735	786.738	-0.077	0.276
-296.720	-200.000	-0.052	-0.414
-295.705	-41.504	-0.324	-0.216
-294.691	469.624	0.087	0.254
-293.676	-144.533	-0.317	0.038
-292.662	63.906	-0.156	0.204
-291.647	-32.720	-0.241	0.174
-290.632	-53.647	-0.165	-0.097
-289.618	557.752	0.012	0.038
-288.603	-2.247	-0.185	0.169
-287.589	104.979	-0.272	-0.417
-286.574	800.000	0.034	0.162
-285.559	-129.378	-0.065	-0.012
-284.545	-187.619	-0.270	-0.005
-283.530	-32.047	0.214	0.155
-282.516	-28.024	0.491	0.368
-281.501	-5.041	0.303	-0.271
-280.486	-200.000	0.019	0.565
-279.472	-200.000	0.024	-0.302
-278.457	69.078	-0.141	-0.189
-277.443	-83.203	-0.383	0.159
-276.428	98.586	0.382	0.572
-275.413	1.016	0.317	0.295
-274.399	800.000	0.083	-0.351
-273.384	-67.682	0.229	-0.116
-272.370	212.010	0.035	-0.073
-271.355	-40.839	-0.524	-0.351
-270.340	85.657	0.175	-0.250
-269.326	-9.029	-0.368	-0.319
-268.311	-200.000	-0.000	-0.180
-267.297	61.573	0.498	0.643
-266.282	194.138	0.187	0.368
-265.267	85.996	-0.516	0.737
-264.253	-83.880	-0.302	0.124
-263.238	-0.208	-0.357	0.329
-262.224	800.000	-0.098	-0.419
-261.209	12.345	0.261	-0.260
-260.195	-4.535	-0.532	0.476
-259.180	-29.380	0.489	0.362
-258.165	-123.653	-0.656	-0.134
-257.151	-24.262	-0.215	-0.166
-256.136	173.724	0.061	-0.115
-255.122	-124.995	0.372	-0.074
-254.107	-85.439	0.479	0.193
-253.092	-77.798	-0.359	-0.160
-252.078	-91.831	-0.394	-0.144
-251.063	-2.972	-0.256	-0.231
-250.049	-200.000	-0.031	0.233
-249.034	-111.682	0.242	-0.063
-248.019	-9.959	-0.326	0.280
-247.005	-165.442	0.470	0.026
-245.990	-96.079	0.298	-0.102
-244.976	-30.731	-0.196	0.143
-243.961	-20.418	-0.370	-0.294
-242.946	-125.353	-0.139	0.027
-241.932	-112.283	-0.253	0.065
-240.917	296.937	-0.189	-0.451
-239.903	138.746	-0.097	0.165
-238.888	105.597	-0.074	0.113
-237.873	-5.980	-0.381	-0.337
-236.859	-200.000	0.028	-0.261
-235.844	210.283	0.174	-0.354
-234.830	119.311	0.023	0.038
-233.815	800.000	-0.165	-0.634
-232.800	56.132	-0.291	0.366
-231.786	-108.536	-0.198	-0.055
-230.771	567.640	-0.012	0.038
-229.757	-200.000	-0.073	0.627
-228.742	-93.860	-0.318	0.113
-227.727	-80.969	-0.324	-0.138
-226.713	146.147	0.162	-0.282
-225.698	-64.363	0.207	-0.109
-224.684	285.312	-0.152	-0.356
-223.669	71.430	0.425	0.572
-222.655	17.348	-0.575	0.591
-221.640	-60.075	-0.155	-0.085
-220.625	-128.316	-0.406	-0.074
-219.611	55.242	-0.146	0.183
-218.596	28.791	0.373	0.409
-217.582	-88.705	0.179	-0.068
-216.567	-105.462	0.140	0.041
-215.552	-23.346	0.250	0.194
-214.538	-35.048	0.249	-0.175
-213.523	-200.000	0.059	-0.393
-212.509	39.684	-0.297	-0.345
-211.494	-40.978	-0.327	-0.218
-210.479	-130.315	0.223	-0.039
-209.465	121.528	0.025	-0.040
-208.450	-144.693	0.282	-0.033
-207.436	-30.024	-0.481	0.354
-206.421	-151.536	-0.229	-0.022
-205.406	-38.118	0.431	-0.295
-204.392	98.972	-0.044	-0.065
-203.377	26.894	0.220	-0.239
-202.363	-103.305	0.359	0.109
-201.348	346.375	0.084	0.215
-200.333	-200.000	-0.011	0.295
-199.319	-104.557	0.591	0.175
-198.304	-200.000	0.001	-0.103
-197.290	26.112	-0.223	0.241
-196.275	144.281	-0.134	0.231
-195.260	-69.960	-0.420	0.206
-194.246	-136.102	0.206	0.031
-193.231	-70.753	-0.507	0.247
-192.217	746.322	0.060	-0.210
-191.202	-136.454	-0.382	-0.057
-190.187	-133.238	0.187	-0.030
-189.173	-46.061	0.214	0.136
-188.158	267.303	0.240	-0.545
-187.144	-112.111	0.377	-0.097
-186.129	190.062	-0.103	-0.201
-185.114	39.566	0.341	0.396
-184.100	-122.203	-0.287	0.060
-183.085	90.910	-0.273	-0.397
-182.071	-85.771	-0.417	-0.166
-181.056	683.202	0.120	-0.406
-180.042	139.164	0.295	0.502
-179.027	-74.442	0.188	0.087
-178.012	95.917	0.148	-0.218
-176.998	-67.803	-0.236	-0.119
-175.983	-200.000	-0.057	-0.404
-174.969	-151.828	0.527	0.049
-173.954	12.814	0.194	-0.193
-172.939	103.632	0.167	0.253
-171.925	-17.224	0.294	-0.239
-170.910	-75.518	0.353	-0.161
-169.896	5.240	-0.109	-0.104
-168.881	-148.263	-0.419	0.044
-167.866	-50.276	-0.204	-0.124
-166.852	-41.428	0.042	0.028
-165.837	-200.000	-0.029	0.258
-164.823	800.000	-0.051	0.227
-163.808	-38.196	-0.297	-0.203
-162.793	198.181	-0.225	-0.446
-161.779	800.000	0.078	-0.442
-160.764	800.000	-0.039	-0.165
-159.750	-200.000	-0.020	0.153
-158.735	-145.402	0.527	-0.061
-157.720	53.715	-0.118	-0.146
-156.706	46.900	-0.069	-0.083
-155.691	-168.596	-0.246	0.012
-154.677	-52.055	-0.162	0.097
-153.662	79.108	0.203	0.281
-152.647	-200.000	0.012	0.095
-151.633	800.000	0.092	-0.356
-150.618	-23.944	0.134	-0.103
-149.604	-160.335	-0.304	-0.021
-148.589	-96.682	-0.286	0.097
-147.574	-116.245	-0.277	0.066
-146.560	194.407	0.216	-0.424
-145.545	-200.000	0.037	-0.224
-144.531	181.061	-0.043	-0.081
-143.516	-200.000	0.042	-0.538
-142.502	-125.364	-0.310	-0.061
-141.487	142.754	-0.318	0.547
-140.472	-109.505	-0.241	-0.065
-139.458	-169.637	0.392	-0.018
-138.443	-131.828	-0.126	0.021
-137.429	-95.377	-0.068	0.024
-136.414	28.690	-0.156	-0.171
-135.399	-19.609	0.121	-0.096
-134.385	129.876	0.091	-0.151
-133.370	71.628	0.330	-0.443
-132.356	-91.101	0.190	0.070
-131.341	-165.903	-0.271	-0.015
-130.326	-75.860	0.459	-0.209
-129.312	-140.451	0.357	-0.047
-128.297	493.895	-0.127	0.378
-127.283	-17.710	0.476	0.385
-126.268	-170.300	0.323	-0.014
-125.253	-200.000	-0.032	0.457
-124.239	-45.725	0.328	-0.208
-123.224	201.500	-0.083	-0.165
-122.210	172.239	-0.077	0.143
