DTS Sentinel unit serial number:	SN409020Multiplexer serial number:	ORYXHardware model number:	OX4-SRSoftware version number:	ORYX F/W v3.00 Oryx Data Collector v3.7.2.0data status	okinstallation	HaddamTimeLapsedifferential loss correction	single-endedforward channel	channel 3reverse channel	N/Adate	2011/06/22time	04:11:17forward acquisition time	30.00reverse acquisition time	0.00gamma	498.7831k internal	0.1752k external	0.1752temperature offset calibration	1.0074default loss term (dB/km)	0.3790temperature slope calibration	1.3530multiplexer offset coefficient	1.0000multiplexer slope coefficient	1.0000fibre end	0.00T internal ref (°C)	22.56T ext. ref 1 (°C)	18.25T ext. ref 2 (°C)	0.11length (m)	temperature (°C)	Stokes	anti-Stokes-747.200	85.175	-0.173	-0.252
-746.185	-118.913	-0.375	0.087
-745.171	-83.578	-0.214	0.090
-744.156	-24.315	-0.293	-0.232
-743.142	-27.560	-0.477	-0.368
-742.127	9.821	0.240	0.241
-741.112	-146.262	-0.102	-0.012
-740.098	-200.000	0.066	0.625
-739.083	-48.871	-0.213	0.135
-738.069	335.068	0.181	0.468
-737.054	-82.829	0.333	-0.142
-736.039	18.244	0.179	-0.189
-735.025	-104.928	0.271	-0.082
-734.010	800.000	0.062	-0.278
-732.996	800.000	-0.097	-0.374
-731.981	-34.900	0.352	-0.255
-730.966	304.535	0.098	-0.242
-729.952	-15.511	-0.286	-0.242
-728.937	-32.635	-0.389	-0.287
-727.923	-98.770	0.504	-0.169
-726.908	-200.000	0.041	-0.329
-725.894	-53.662	0.338	-0.204
-724.879	-33.736	0.283	-0.207
-723.864	-104.738	0.135	-0.041
-722.850	-158.175	0.461	-0.035
-721.835	23.471	0.207	-0.225
-720.821	-200.000	0.020	-0.385
-719.806	-8.495	0.365	0.325
-718.791	8.753	0.139	0.139
-717.777	-69.966	-0.274	0.138
-716.762	-85.279	0.229	-0.094
-715.748	-200.000	-0.055	-0.541
-714.733	183.550	-0.146	-0.286
-713.718	-200.000	-0.047	-0.318
-712.704	800.000	-0.030	0.141
-711.689	-51.701	0.331	-0.204
-710.675	-110.358	-0.779	-0.213
-709.660	-45.237	-0.447	-0.294
-708.645	4.766	0.357	-0.347
-707.631	-147.022	0.563	0.063
-706.616	800.000	0.014	-0.056
-705.602	140.231	-0.118	-0.208
-704.587	-78.433	0.267	-0.121
-703.572	-20.098	0.278	-0.227
-702.558	-110.062	0.278	-0.077
-701.543	-11.357	-0.350	0.305
-700.529	342.235	-0.119	-0.309
-699.514	800.000	-0.136	-0.671
-698.499	175.419	0.371	-0.715
-697.485	-145.298	0.196	0.023
-696.470	102.470	-0.240	0.372
-695.456	729.234	-0.018	-0.065
-694.441	137.467	-0.138	-0.240
-693.426	-129.963	-0.199	0.036
-692.412	346.811	0.086	-0.227
-691.397	800.000	-0.082	-0.332
-690.383	800.000	-0.027	-0.152
-689.368	-87.629	-0.104	-0.042
-688.354	394.316	0.198	-0.551
-687.339	-198.132	-0.306	-0.002
-686.324	695.230	0.125	-0.439
-685.310	-160.655	0.022	-0.001
-684.295	-40.033	0.179	-0.124
-683.281	-87.981	-0.147	0.058
-682.266	-153.650	-0.458	-0.041
-681.251	-113.323	-0.156	0.040
-680.237	-142.678	0.454	-0.058
-679.222	800.000	0.049	0.206
-678.208	-104.175	-0.031	0.009
-677.193	50.036	-0.203	0.254
-676.178	24.380	-0.114	0.125
-675.164	-200.000	0.026	-0.537
-674.149	-114.233	0.055	0.014
-673.135	198.680	-0.278	-0.566
-672.120	-10.797	0.217	0.190
-671.105	-157.092	-0.275	-0.022
-670.091	-44.337	-0.221	-0.146
-669.076	56.371	-0.142	-0.183
-668.062	-84.903	-0.317	-0.131
-667.047	-74.159	0.557	-0.266
-666.032	250.676	-0.143	0.322
-665.018	-54.825	-0.353	0.210
-664.003	234.874	-0.016	-0.035
-662.989	-200.000	0.031	-0.277
-661.974	64.461	0.009	0.011
-660.959	-108.427	-0.103	0.029
-659.945	-83.252	-0.395	-0.167
-658.930	20.945	-0.300	-0.322
-657.916	-200.000	0.009	-0.066
-656.901	701.183	-0.055	-0.192
-655.886	-79.968	-0.418	0.185
-654.872	-160.942	-0.377	0.026
-653.857	-138.660	-0.119	0.017
-652.843	800.000	0.071	-0.309
-651.828	-40.469	-0.095	-0.065
-650.814	297.726	-0.089	-0.217
-649.799	189.851	0.122	0.244
-648.784	585.569	-0.145	0.474
-647.770	120.513	0.163	-0.268
-646.755	363.801	0.079	0.210
-645.741	283.881	-0.157	-0.375
-644.726	-200.000	0.015	-0.463
-643.711	-159.524	-0.306	-0.022
-642.697	-200.000	-0.237	-0.000
-641.682	295.619	-0.166	0.403
-640.668	-50.840	0.339	-0.210
-639.653	11.452	-0.296	-0.300
-638.638	-91.506	0.117	0.044
-637.624	-117.541	-0.214	-0.051
-636.609	-93.977	0.228	-0.082
-635.595	-78.010	-0.278	-0.126
-634.580	-128.032	-0.403	-0.076
-633.565	800.000	0.064	0.334
-632.551	19.385	0.075	0.079
-631.536	61.727	-0.148	-0.194
-630.522	239.046	-0.107	-0.235
-629.507	-200.000	0.057	-0.411
-628.492	-160.681	0.366	0.025
-627.478	-198.579	-0.329	-0.002
-626.463	-118.935	-0.090	0.021
-625.449	-15.721	0.143	0.120
-624.434	-143.683	-0.343	0.042
-623.419	-105.942	0.337	-0.100
-622.405	-62.157	-0.382	-0.210
-621.390	597.675	0.036	-0.119
-620.376	-200.000	-0.018	0.296
-619.361	171.002	-0.182	0.345
-618.346	-200.000	0.032	0.250
-617.332	-200.000	0.019	-0.324
-616.317	263.677	-0.196	-0.451
-615.303	252.248	-0.114	0.259
-614.288	-13.853	0.121	0.103
-613.273	286.573	-0.195	-0.466
-612.259	-200.000	0.014	0.087
-611.244	-200.000	0.098	-0.715
-610.230	19.816	0.114	-0.122
-609.215	-11.898	0.527	0.456
-608.201	79.741	-0.171	-0.243
-607.186	324.348	0.121	0.305
-606.171	194.561	0.129	0.258
-605.157	237.408	-0.361	-0.793
-604.142	-36.650	-0.382	-0.270
-603.128	800.000	-0.027	0.151
-602.113	706.514	-0.163	0.570
-601.098	-121.569	-0.054	0.012
-600.084	-54.935	-0.295	0.175
-599.069	23.797	-0.168	0.182
-598.055	-68.606	-0.193	-0.098
-597.040	78.392	0.276	0.389
-596.025	103.441	-0.258	-0.401
-595.011	51.654	0.201	-0.252
-593.996	-200.000	-0.021	-0.245
-592.982	-175.880	-0.407	-0.014
-591.967	7.039	-0.094	0.092
-590.952	-200.000	-0.091	0.585
-589.938	800.000	0.063	0.306
-588.923	-103.430	-0.441	0.136
-587.909	-135.888	-0.604	0.093
-586.894	-127.006	-0.270	-0.052
-585.879	-154.386	-0.088	0.008
-584.865	-200.000	-0.055	-0.467
-583.850	-143.653	0.057	-0.007
-582.836	379.360	0.120	-0.325
-581.821	-5.465	0.130	0.117
-580.806	-125.735	-0.189	-0.037
-579.792	-198.234	0.218	0.002
-578.777	39.652	-0.255	0.302
-577.763	-180.169	-0.357	-0.010
-576.748	738.762	-0.102	0.363
-575.733	-200.000	-0.006	0.167
-574.719	23.059	0.389	-0.421
-573.704	-153.706	-0.257	0.023
-572.690	800.000	-0.069	-0.358
-571.675	-130.105	0.340	0.061
-570.661	-200.000	-0.038	0.312
-569.646	32.527	-0.290	-0.331
-568.631	359.245	-0.108	-0.285
-567.617	-115.585	-0.177	0.043
-566.602	-4.018	0.182	-0.166
-565.588	-179.641	-0.229	-0.006
-564.573	-159.362	0.225	-0.016
-563.558	222.413	0.113	-0.242
-562.544	2.790	0.133	-0.127
-561.529	-200.000	-0.009	-0.236
-560.515	-48.047	-0.373	-0.237
-559.500	-194.030	0.184	0.002
-558.485	201.721	0.144	-0.294
-557.471	194.192	0.057	0.114
-556.456	-71.515	-0.182	0.090
-555.442	68.981	0.391	-0.530
-554.427	-133.882	0.480	-0.078
-553.412	127.327	-0.240	-0.402
-552.398	-44.422	0.798	0.525
-551.383	198.240	0.064	-0.130
-550.369	206.682	0.076	-0.156
-549.354	247.360	0.040	0.089
-548.339	4.617	-0.276	-0.267
-547.325	-141.093	-0.043	-0.006
-546.310	4.047	-0.110	-0.105
-545.296	-3.326	0.362	-0.332
-544.281	146.590	0.250	0.443
-543.266	107.549	0.182	0.286
-542.252	800.000	0.073	-0.357
-541.237	330.908	-0.069	0.176
-540.223	45.290	-0.552	0.671
-539.208	-111.946	0.270	-0.071
-538.193	43.453	0.178	0.215
-537.179	162.633	0.178	-0.330
-536.164	-74.274	-0.301	-0.143
-535.150	-200.000	0.004	0.280
-534.135	-200.000	0.021	0.476
-533.121	800.000	-0.044	0.217
-532.106	-143.796	0.449	-0.055
-531.091	-158.547	-0.090	-0.007
-530.077	-200.000	0.055	-0.405
-529.062	-30.094	0.579	0.433
-528.048	-44.161	-0.254	-0.168
-527.033	84.001	-0.224	-0.323
-526.018	-8.431	0.257	-0.227
-525.004	800.000	0.012	-0.043
-523.989	-63.640	-0.475	0.256
-522.975	188.493	0.188	-0.370
-521.960	-127.249	0.271	-0.052
-520.945	555.697	0.024	-0.075
-519.931	-157.053	0.602	-0.048
-518.916	-34.178	0.323	-0.233
-517.902	-38.820	0.262	0.181
-516.887	10.970	0.354	-0.356
-515.872	-158.590	-0.155	-0.012
-514.858	356.225	-0.133	0.350
-513.843	-89.232	-0.334	0.129
-512.829	-200.000	0.020	0.347
-511.814	365.664	-0.140	-0.374
-510.799	-56.752	-0.461	-0.267
-509.785	-200.000	-0.005	-0.097
-508.770	-200.000	-0.025	-0.291
-507.756	50.911	0.092	0.115
-506.741	-64.332	0.266	-0.142
-505.726	-94.584	0.064	0.023
-504.712	-78.161	0.154	-0.069
-503.697	-95.736	-0.391	0.137
-502.683	319.215	-0.140	-0.350
-501.668	151.351	-0.115	0.206
-500.653	-89.078	-0.272	-0.105
-499.639	-112.679	0.496	-0.129
-498.624	336.577	0.040	0.103
-497.610	-136.760	0.094	-0.014
-496.595	-200.000	0.016	0.167
-495.581	41.403	-0.257	0.306
-494.566	4.544	-0.038	-0.036
-493.551	60.680	-0.314	-0.409
-492.537	46.388	-0.043	0.053
-491.522	-7.037	0.415	-0.370
-490.508	-200.000	0.067	-0.631
-489.493	64.529	-0.328	-0.435
-488.478	-55.646	-0.286	0.168
-487.464	-200.000	0.082	-0.672
-486.449	-200.000	0.066	-0.463
-485.435	800.000	-0.032	-0.147
-484.420	149.110	-0.080	0.143
-483.405	-165.135	0.435	-0.025
-482.391	-77.004	-0.178	0.081
-481.376	271.624	-0.063	0.146
-480.362	59.001	-0.156	0.202
-479.347	547.585	0.045	-0.142
-478.332	-56.553	-0.614	0.357
-477.318	260.238	0.133	0.304
-476.303	-114.507	-0.133	-0.033
-475.289	-54.410	0.299	0.178
-474.274	-116.216	-0.385	0.093
-473.259	-67.119	-0.332	0.171
-472.245	16.570	0.191	-0.199
-471.230	479.816	0.017	0.051
-470.216	800.000	-0.055	-0.284
-469.201	-200.000	-0.026	-0.241
-468.186	-127.421	0.113	-0.021
-467.172	-111.730	-0.157	0.041
-466.157	-153.653	0.487	-0.043
-465.143	53.396	0.241	-0.303
-464.128	-103.978	0.135	-0.041
-463.113	16.607	0.115	0.119
-462.099	198.979	0.230	0.464
-461.084	-168.259	-0.579	0.029
-460.070	-49.935	-0.720	-0.447
-459.055	44.869	0.054	-0.065
-458.040	513.737	-0.016	-0.048
-457.026	-31.003	0.202	0.150
-456.011	-25.608	0.134	-0.103
-454.997	367.384	-0.092	0.244
-453.982	-106.108	0.080	0.024
-452.968	95.578	-0.086	-0.130
-451.953	-66.998	-0.206	0.107
-450.938	-110.824	0.281	-0.076
-449.924	-200.000	0.018	0.238
-448.909	2.049	-0.431	-0.408
-447.895	5.028	0.377	-0.364
-446.880	-185.052	-0.298	0.006
-445.865	-200.000	0.128	-0.000
-444.851	-156.290	0.127	0.010
-443.836	-128.522	-0.297	-0.055
-442.822	-77.546	-0.250	0.113
-441.807	-81.425	0.368	0.158
-440.792	-7.399	-0.285	-0.253
-439.778	353.306	-0.125	-0.326
-438.763	78.070	-0.015	0.021
-437.749	-119.914	0.209	-0.047
-436.734	-192.001	0.298	0.004
-435.719	-109.970	-0.086	0.023
-434.705	60.369	-0.105	0.136
-433.690	96.068	-0.105	0.158
-432.676	23.225	-0.201	-0.217
-431.661	-134.655	-0.536	0.085
-430.646	-145.317	0.063	-0.007
-429.632	-149.335	-0.530	0.055
-428.617	-162.853	-0.197	-0.012
-427.603	85.713	-0.074	-0.107
-426.588	-123.917	0.531	-0.109
-425.573	-33.787	0.115	-0.083
-424.559	1.813	-0.419	-0.396
-423.544	-154.273	-0.145	0.013
-422.530	-69.585	0.131	-0.066
-421.515	-200.000	-0.030	0.344
-420.500	215.261	0.107	-0.223
-419.486	-29.661	-0.186	0.139
-418.471	120.872	-0.106	-0.174
-417.457	-48.652	0.249	-0.156
-416.442	451.359	0.068	-0.197
-415.428	-9.945	-0.385	-0.336
-414.413	800.000	0.061	-0.305
-413.398	171.339	0.056	0.106
-412.384	800.000	0.021	0.095
-411.369	47.420	-0.519	0.635
-410.355	-19.431	-0.218	-0.176
-409.340	-200.000	0.003	-0.085
-408.325	-100.070	0.254	0.082
-407.311	-140.737	-0.326	-0.044
-406.296	495.656	-0.136	0.413
-405.282	-144.660	0.313	0.037
-404.267	-121.503	0.253	0.055
-403.252	68.090	0.380	0.511
-402.238	-200.000	0.024	0.249
-401.223	-200.000	0.010	-0.360
-400.209	260.853	0.124	0.282
-399.194	-26.073	-0.081	-0.063
-398.179	-200.000	0.009	0.269
-397.165	12.042	0.118	0.118
-396.150	-104.032	-0.413	0.125
-395.136	-67.410	0.337	-0.173
-394.121	112.600	0.310	-0.492
-393.106	-118.347	0.116	0.027
-392.092	-21.294	0.402	-0.321
-391.077	800.000	-0.122	0.600
-390.063	-83.091	0.166	-0.070
-389.048	-103.198	0.197	-0.061
-388.033	212.039	0.167	0.346
-387.019	-2.316	-0.223	0.204
-386.004	-138.773	-0.171	0.024
-384.990	117.580	0.240	-0.387
-383.975	-15.062	-0.311	0.261
-382.960	-78.904	-0.392	0.174
-381.946	-123.934	-0.340	0.070
-380.931	107.841	0.067	0.104
-379.917	-144.288	0.436	0.053
-378.902	86.588	-0.072	0.103
-377.888	800.000	0.140	0.527
-376.873	-200.000	0.012	0.159
-375.858	-114.416	0.458	-0.114
-374.844	-134.934	0.911	0.143
-373.829	-200.000	0.003	-0.075
-372.815	45.361	-0.133	-0.160
-371.800	-102.293	-0.219	0.068
-370.785	146.003	-0.115	-0.203
-369.771	129.213	-0.178	0.298
-368.756	206.420	-0.118	0.241
-367.742	117.234	0.158	0.255
-366.727	-99.902	-0.435	0.141
-365.712	-160.929	0.542	-0.037
-364.698	-124.376	-0.102	-0.021
-363.683	106.349	-0.110	-0.170
-362.669	-82.174	0.216	0.092
-361.654	-200.000	-0.220	0.001
-360.639	-127.975	0.465	-0.087
-359.625	-73.775	0.502	0.238
-358.610	103.519	0.184	0.283
-357.596	235.284	0.128	0.278
-356.581	6.643	0.325	0.316
-355.566	191.556	-0.120	0.238
-354.552	216.188	0.127	0.266
-353.537	-200.000	-0.009	-0.062
-352.523	-2.935	0.149	0.136
-351.508	-159.914	-0.155	-0.011
-350.493	-27.898	0.349	0.264
-349.479	167.407	0.088	-0.164
-348.464	440.216	0.076	-0.219
-347.450	-65.374	0.489	-0.256
-346.435	-68.702	0.592	-0.298
-345.420	42.246	0.255	-0.303
-344.406	-39.470	0.100	-0.068
-343.391	692.219	-0.122	0.422
-342.377	-200.000	-0.007	-0.142
-341.362	-200.000	-0.036	-0.298
-340.348	-146.726	0.229	-0.026
-339.333	-200.000	0.011	-0.131
-338.318	800.000	-0.058	0.250
-337.304	-75.380	0.492	0.228
-336.289	-81.920	0.045	0.019
-335.275	-74.053	0.273	-0.129
-334.260	-56.939	-0.297	-0.171
-333.245	615.603	-0.227	-0.748
-332.231	-112.632	0.177	-0.046
-331.216	20.235	0.112	-0.119
-330.202	-200.000	0.323	-0.001
-329.187	800.000	0.157	0.609
-328.172	370.656	0.166	0.441
-327.158	335.436	-0.079	-0.201
-326.143	310.816	-0.070	-0.171
-325.129	-100.776	0.051	0.016
-324.114	-175.855	0.255	-0.009
-323.099	-32.894	0.277	0.200
-322.085	32.852	0.293	0.331
-321.070	-20.609	0.152	-0.122
-320.056	-140.278	0.207	-0.028
-319.041	40.945	-0.224	-0.265
-318.026	800.000	0.016	-0.067
-317.012	-96.497	-0.495	0.170
-315.997	-151.774	-0.268	-0.025
-314.983	-178.784	0.223	0.007
-313.968	-161.821	0.327	0.021
-312.953	-10.519	-0.213	0.184
-311.939	9.182	-0.409	0.404
-310.924	338.563	-0.120	0.305
-309.910	-48.025	0.166	-0.104
-308.895	800.000	-0.052	0.241
-307.880	-137.307	0.058	0.009
-306.866	698.104	-0.094	-0.325
-305.851	148.630	-0.098	0.173
-304.837	-167.891	0.279	-0.014
-303.822	-56.490	-0.710	0.410
-302.807	92.381	0.139	0.205
-301.793	58.965	0.039	0.050
-300.778	-200.000	-0.085	0.534
-299.764	-158.719	-0.705	0.052
-298.749	-10.119	-0.568	-0.492
-297.735	-17.671	-0.316	-0.259
-296.720	-200.000	0.014	0.116
-295.705	72.902	0.112	0.153
-294.691	-25.566	0.437	0.336
-293.676	525.724	-0.082	0.254
-292.662	-110.841	0.210	-0.056
-291.647	-29.310	0.187	-0.139
-290.632	213.821	0.034	0.070
-289.618	-128.442	-0.389	0.071
-288.603	-91.176	-0.332	0.124
-287.589	147.722	-0.076	-0.134
-286.574	-71.682	0.103	0.050
-285.559	-108.068	-0.088	0.025
-284.545	60.258	-0.226	-0.292
-283.530	-46.481	-0.019	0.012
-282.516	181.267	0.258	-0.497
-281.501	13.199	0.425	0.429
-280.486	4.450	0.300	0.287
-279.472	44.515	0.308	0.370
-278.457	584.250	-0.116	0.373
-277.443	-20.701	-0.144	0.115
-276.428	800.000	0.018	-0.093
-275.413	-79.324	0.348	-0.153
-274.399	48.837	0.382	-0.467
-273.384	-41.312	-0.347	0.232
-272.370	453.668	0.205	0.595
-271.355	-200.000	-0.057	0.347
-270.340	-101.504	-0.224	-0.071
-269.326	-91.367	0.378	-0.140
-268.311	409.298	0.057	0.157
-267.297	-19.635	0.506	-0.407
-266.282	-168.701	0.212	0.010
-265.267	-11.737	-0.351	-0.300
-264.253	-200.000	0.022	-0.324
-263.238	800.000	0.068	0.380
-262.224	54.222	0.128	-0.161
-261.209	-83.444	-0.385	-0.160
-260.195	-104.606	-0.138	-0.041
-259.180	-65.948	0.170	-0.088
-258.165	800.000	0.036	-0.160
-257.151	0.536	-0.126	-0.117
-256.136	63.244	0.406	-0.530
-255.122	800.000	0.111	-0.466
-254.107	-109.128	-0.313	0.086
-253.092	-96.352	-0.193	-0.066
-252.078	172.489	-0.217	0.408
-251.063	-19.913	-0.228	-0.183
-250.049	-166.111	-0.319	-0.017
-249.034	123.359	-0.065	0.107
-248.019	191.103	0.065	0.129
-247.005	100.880	-0.157	0.238
-245.990	114.317	0.287	0.456
-244.976	17.869	0.210	0.218
-243.961	800.000	0.120	0.512
-242.946	199.967	0.171	-0.342
-241.932	248.264	-0.292	0.645
-240.917	1.441	-0.180	-0.168
-239.903	265.568	0.084	0.191
-238.888	-113.935	0.171	-0.043
-237.873	48.346	0.100	0.122
-236.859	-80.159	0.177	0.077
-235.844	22.291	0.066	0.070
-234.830	-83.699	0.314	0.130
-233.815	39.900	-0.117	0.137
-232.800	-37.524	-0.177	-0.123
-231.786	-200.000	-0.011	-0.162
-230.771	-200.000	-0.037	-0.481
-229.757	-200.000	-0.007	0.132
-228.742	639.152	-0.033	0.110
-227.727	-62.072	-0.434	-0.235
-226.713	-108.891	0.502	0.139
-225.698	-129.359	-0.331	0.059
-224.684	290.818	0.137	-0.326
-223.669	-123.173	-0.396	-0.082
-222.655	-8.927	0.111	0.096
-221.640	-63.452	-0.053	-0.028
-220.625	-200.000	-0.014	-0.109
-219.611	138.181	0.363	0.621
-218.596	-75.755	-0.189	-0.087
-217.582	-200.000	-0.016	-0.316
-216.567	125.929	-0.045	-0.074
-215.552	800.000	-0.077	-0.312
-214.538	79.312	0.124	-0.173
-213.523	9.238	0.139	-0.136
-212.509	-89.346	-0.089	-0.034
-211.494	800.000	-0.007	0.027
-210.479	-5.687	-0.316	-0.281
-209.465	800.000	-0.043	-0.159
-208.450	800.000	0.030	0.151
-207.436	95.983	-0.095	-0.141
-206.421	-111.005	0.239	0.063
-205.406	167.722	-0.225	0.416
-204.392	-176.096	-0.304	-0.010
-203.377	-88.363	0.154	-0.060
-202.363	-50.399	0.806	-0.494
-201.348	142.682	-0.130	0.226
-200.333	-81.347	0.077	-0.033
-199.319	-88.658	0.329	0.127
-198.304	-200.000	-0.017	-0.447
-197.290	-23.639	-0.127	-0.099
-196.275	27.595	0.094	-0.102
-195.260	-169.818	0.392	-0.018
-194.246	388.135	-0.205	0.555
-193.231	-123.142	0.141	0.029
-192.217	98.214	-0.159	-0.238
-191.202	-95.816	0.398	-0.137
-190.187	489.602	0.066	0.197
-189.173	20.848	-0.242	0.255
-188.158	800.000	0.148	0.642
-187.144	-156.269	0.197	-0.016
-186.129	-72.327	-0.264	-0.127
-185.114	328.696	-0.123	-0.308
-184.100	468.984	-0.079	-0.231
-183.085	100.220	-0.147	0.222
-182.071	-91.138	0.235	-0.087
-181.056	5.326	-0.199	-0.191
-180.042	41.624	-0.119	0.140
-179.027	-200.000	-0.042	0.558
-178.012	-200.000	-0.013	-0.382
-176.998	-18.706	-0.252	0.204
-175.983	800.000	-0.128	-0.469
-174.969	-94.378	-0.319	-0.113
-173.954	-182.774	-0.308	-0.007
-172.939	-26.531	0.104	-0.079
-171.925	-179.467	0.371	0.010
-170.910	-160.695	-0.195	-0.013
-169.896	138.414	-0.411	0.702
-168.881	-200.000	0.045	0.270
-167.866	-200.000	0.198	0.000
-166.852	-128.827	0.618	-0.112
-165.837	-77.556	0.245	0.110
-164.823	-114.246	-0.413	0.103
-163.808	-150.887	0.377	0.037
-162.793	51.746	-0.286	-0.354
-161.779	469.463	-0.125	0.367
-160.764	31.084	-0.211	0.235
-159.750	88.650	0.083	0.120
-158.735	800.000	-0.034	-0.137
-157.720	-35.107	-0.258	0.182
-156.706	2.743	-0.179	0.168
-155.691	-200.000	0.058	0.407
-154.677	-116.072	0.052	0.012
-153.662	-200.000	0.003	-0.245
-152.647	73.063	-0.087	0.118
-151.633	800.000	-0.015	-0.078
-150.618	-200.000	-0.020	-0.139
-149.604	-90.786	-0.182	-0.068
-148.589	44.127	-0.083	0.099
-147.574	-107.126	-0.351	0.100
-146.560	133.080	0.109	0.183
-145.545	18.748	0.272	0.283
-144.531	3.681	-0.129	0.122
-143.516	2.698	-0.140	-0.132
-142.502	800.000	0.114	0.526
-141.487	162.411	0.073	0.132
-140.472	459.374	-0.126	-0.365
-139.458	-6.168	0.063	-0.055
-138.443	-139.985	0.355	0.048
-137.429	-35.851	0.229	0.161
-136.414	-146.247	0.094	0.011
-135.399	800.000	-0.076	-0.412
-134.385	-200.000	-0.024	-0.296
-133.370	15.556	0.309	-0.315
-132.356	0.096	0.216	0.200
-131.341	-133.433	0.212	-0.034
-130.326	-144.860	0.438	0.051
-129.312	800.000	-0.054	-0.281
-128.297	58.989	0.302	0.385
-127.283	386.237	-0.154	0.414
-126.268	174.412	-0.291	0.546
-125.253	60.029	0.269	0.345
-124.239	-39.844	-0.206	-0.139
-123.224	-157.972	-0.182	-0.014
-122.210	103.177	-0.155	0.236
