DTS Sentinel unit serial number:	SN409020Multiplexer serial number:	ORYXHardware model number:	OX4-SRSoftware version number:	ORYX F/W v3.00 Oryx Data Collector v3.7.2.0data status	okinstallation	HaddamTimeLapsedifferential loss correction	single-endedforward channel	channel 3reverse channel	N/Adate	2011/06/22time	04:51:17forward acquisition time	30.00reverse acquisition time	0.00gamma	498.7831k internal	0.1752k external	0.1752temperature offset calibration	1.0074default loss term (dB/km)	0.3790temperature slope calibration	1.3530multiplexer offset coefficient	1.0000multiplexer slope coefficient	1.0000fibre end	0.00T internal ref (°C)	22.72T ext. ref 1 (°C)	17.83T ext. ref 2 (°C)	0.15length (m)	temperature (°C)	Stokes	anti-Stokes-747.200	-52.872	-0.596	0.363
-746.185	800.000	-0.184	0.806
-745.171	-0.814	-0.310	-0.291
-744.156	-106.172	0.228	-0.067
-743.142	92.508	-0.146	-0.219
-742.127	-110.416	-0.468	-0.128
-741.112	294.673	0.129	0.315
-740.098	573.815	-0.038	-0.125
-739.083	-68.213	-0.166	-0.085
-738.069	-200.000	0.035	0.267
-737.054	7.451	-0.355	-0.352
-736.039	-102.858	-0.567	-0.178
-735.025	-5.544	0.273	0.249
-734.010	-88.689	0.231	-0.091
-732.996	592.820	-0.048	-0.157
-731.981	-178.448	-0.481	0.015
-730.966	-155.800	-0.158	-0.013
-729.952	126.756	-0.076	0.129
-728.937	143.945	0.120	-0.212
-727.923	800.000	-0.066	-0.334
-726.908	800.000	-0.046	0.216
-725.894	-55.476	0.087	-0.052
-724.879	116.859	0.105	-0.171
-723.864	-131.499	-0.294	-0.051
-722.850	-13.222	0.119	-0.102
-721.835	-4.061	-0.191	-0.175
-720.821	-71.031	0.154	0.077
-719.806	-25.749	0.171	0.133
-718.791	-200.000	0.017	-0.418
-717.777	-41.039	-0.179	-0.122
-716.762	359.156	0.111	-0.296
-715.748	212.625	-0.157	-0.329
-714.733	209.306	-0.203	-0.424
-713.718	-141.003	0.308	0.041
-712.704	-114.036	0.072	-0.018
-711.689	58.120	0.127	0.165
-710.675	-67.449	0.526	-0.272
-709.660	-24.702	-0.155	-0.122
-708.645	-146.329	-0.515	-0.059
-707.631	-4.537	-0.497	0.454
-706.616	-200.000	-0.027	-0.622
-705.602	47.944	-0.323	-0.400
-704.587	-200.000	-0.004	-0.160
-703.572	70.227	0.353	-0.484
-702.558	314.154	-0.051	-0.129
-701.543	38.480	-0.223	-0.264
-700.529	-84.234	-0.293	-0.122
-699.514	-28.431	-0.365	-0.278
-698.499	8.284	0.220	0.218
-697.485	126.673	-0.243	-0.409
-696.470	48.361	-0.212	-0.263
-695.456	-80.237	-0.511	0.226
-694.441	-98.760	-0.239	-0.080
-693.426	-120.454	0.317	-0.071
-692.412	-105.314	0.185	0.056
-691.397	-93.864	0.277	-0.100
-690.383	800.000	-0.064	0.301
-689.368	147.829	0.214	-0.383
-688.354	185.267	0.232	-0.458
-687.339	-29.741	-0.227	0.171
-686.324	596.745	0.260	-0.857
-685.310	-119.634	-0.170	-0.039
-684.295	186.773	-0.211	-0.417
-683.281	-36.104	-0.495	-0.353
-682.266	800.000	-0.097	-0.399
-681.251	800.000	-0.011	0.048
-680.237	-174.133	0.237	0.009
-679.222	-85.130	0.130	0.053
-678.208	54.232	-0.347	-0.442
-677.193	-183.346	-0.485	-0.011
-676.178	162.009	0.235	-0.438
-675.164	356.383	0.182	-0.482
-674.149	-27.379	-0.312	-0.240
-673.135	634.755	-0.045	0.150
-672.120	-200.000	-0.169	0.000
-671.105	800.000	-0.070	-0.337
-670.091	-38.403	-0.362	-0.253
-669.076	494.384	0.119	-0.364
-668.062	-74.541	-0.368	-0.174
-667.047	-146.523	-0.502	-0.057
-666.032	-200.000	0.382	0.000
-665.018	51.049	-0.007	0.009
-664.003	283.956	0.119	0.285
-662.989	-60.128	-0.552	-0.311
-661.974	-33.235	-0.253	-0.185
-660.959	-115.670	0.249	0.061
-659.945	-106.773	0.266	-0.078
-658.930	-68.897	-0.288	-0.147
-657.916	68.911	0.398	-0.541
-656.901	-8.601	0.494	-0.438
-655.886	-200.000	0.048	-0.518
-654.872	-37.544	-0.194	-0.137
-653.857	-63.739	0.090	-0.049
-652.843	576.315	0.099	0.321
-651.828	180.846	0.085	0.165
-650.814	-57.360	0.147	0.085
-649.799	-43.327	-0.223	0.149
-648.784	800.000	-0.050	0.192
-647.770	-145.039	-0.391	0.047
-646.755	561.702	-0.149	0.479
-645.741	-200.000	0.004	0.085
-644.726	-38.269	-0.381	0.267
-643.711	40.011	-0.312	-0.370
-642.697	-63.408	0.282	0.153
-641.682	-103.635	0.607	-0.187
-640.668	-127.400	0.283	-0.054
-639.653	800.000	0.021	-0.101
-638.638	-141.455	0.301	-0.040
-637.624	-172.683	-0.208	0.008
-636.609	-72.800	0.256	-0.124
-635.595	-36.891	0.099	0.070
-634.580	-116.714	-0.038	0.009
-633.565	-200.000	0.002	-0.105
-632.551	-29.805	0.142	0.107
-631.536	24.937	0.057	-0.063
-630.522	12.776	0.142	0.145
-629.507	800.000	-0.076	0.360
-628.492	-30.422	-0.048	0.036
-627.478	-63.286	-0.238	0.129
-626.463	18.958	-0.221	0.234
-625.449	-45.982	0.167	0.109
-624.434	-47.387	-0.241	0.155
-623.419	-68.599	-0.376	0.191
-622.405	-44.041	-0.313	0.207
-621.390	-77.876	0.232	0.105
-620.376	206.581	0.107	-0.221
-619.361	-65.736	0.274	0.145
-618.346	-85.994	0.198	-0.080
-617.332	38.092	-0.106	-0.124
-616.317	-200.000	-0.030	-0.450
-615.303	-84.261	-0.559	0.233
-614.288	519.555	-0.087	-0.270
-613.273	204.364	-0.095	0.194
-612.259	-32.630	0.468	0.343
-611.244	95.104	0.161	0.242
-610.230	800.000	0.048	0.226
-609.215	-53.673	0.201	-0.121
-608.201	800.000	-0.129	-0.584
-607.186	800.000	-0.076	-0.422
-606.171	9.203	-0.313	0.312
-605.157	-200.000	0.021	-0.173
-604.142	-46.767	-0.239	0.154
-603.128	-58.118	0.151	-0.087
-602.113	-200.000	-0.006	0.045
-601.098	-85.638	-0.685	0.279
-600.084	-30.585	0.194	0.144
-599.069	-72.839	-0.251	-0.122
-598.055	15.526	0.069	-0.071
-597.040	-200.000	-0.069	-0.620
-596.025	-61.972	-0.191	0.105
-595.011	800.000	0.032	-0.154
-593.996	301.512	-0.046	-0.111
-592.982	-146.334	0.256	0.029
-591.967	-116.746	0.338	0.081
-590.952	119.540	0.122	-0.199
-589.938	-101.061	0.038	-0.012
-588.923	800.000	-0.036	0.169
-587.909	236.207	0.271	0.593
-586.894	-166.632	-0.380	0.021
-585.879	-5.292	-0.093	0.084
-584.865	249.366	-0.099	-0.223
-583.850	-200.000	0.122	-0.790
-582.836	341.158	0.080	-0.207
-581.821	-135.564	0.193	0.030
-580.806	86.940	-0.133	0.195
-579.792	20.452	-0.163	-0.174
-578.777	-57.966	-0.299	-0.172
-577.763	486.490	0.033	0.100
-576.748	-71.724	-0.340	0.166
-575.733	2.256	0.175	0.167
-574.719	-53.732	0.207	0.124
-573.704	664.206	0.152	0.520
-572.690	-43.002	0.240	-0.160
-571.675	-70.033	0.399	-0.199
-570.661	24.358	0.186	0.203
-569.646	-68.350	0.341	-0.174
-568.631	-126.287	-0.211	0.041
-567.617	214.658	0.083	0.174
-566.602	-164.267	-0.302	0.018
-565.588	727.904	0.089	0.314
-564.573	-200.000	-0.057	0.348
-563.558	38.801	0.267	0.315
-562.544	800.000	0.040	0.200
-561.529	19.992	-0.172	-0.183
-560.515	800.000	0.104	0.471
-559.500	139.989	0.235	-0.409
-558.485	-88.894	0.465	0.181
-557.471	800.000	-0.155	0.607
-556.456	-145.998	-0.504	0.058
-555.442	-63.172	0.535	0.290
-554.427	281.348	-0.181	0.429
-553.412	-88.539	0.370	-0.144
-552.398	-104.705	0.043	0.013
-551.383	-106.820	-0.320	-0.093
-550.369	-85.411	-0.104	0.043
-549.354	800.000	-0.093	-0.351
-548.339	26.184	-0.228	-0.251
-547.325	272.526	0.192	-0.449
-546.310	-200.000	-0.054	-0.477
-545.296	-62.194	-0.323	0.177
-544.281	-123.776	0.236	-0.049
-543.266	-200.000	-0.021	0.192
-542.252	223.073	-0.068	0.145
-541.237	-85.103	0.125	-0.051
-540.223	-200.000	-0.001	0.044
-539.208	-50.866	-0.238	-0.147
-538.193	-112.677	0.199	0.052
-537.179	-89.307	-0.397	-0.153
-536.164	181.349	0.076	-0.147
-535.150	715.376	-0.156	-0.549
-534.135	215.020	-0.182	-0.382
-533.121	124.610	0.117	-0.194
-532.106	800.000	0.038	-0.142
-531.091	-148.820	0.394	-0.041
-530.077	252.029	0.206	0.464
-529.062	-63.498	0.042	0.023
-528.048	800.000	-0.060	-0.232
-527.033	90.986	0.149	0.221
-526.018	-154.728	0.293	-0.025
-525.004	-15.307	-0.156	0.131
-523.989	46.197	0.182	-0.222
-522.975	800.000	0.069	-0.374
-521.960	26.585	0.302	-0.332
-520.945	715.185	0.120	0.420
-519.931	-43.211	0.122	-0.081
-518.916	-200.000	-0.002	-0.119
-517.902	-17.738	-0.290	0.239
-516.887	95.083	-0.219	0.329
-515.872	-200.000	0.039	0.282
-514.858	-179.726	0.061	0.002
-513.843	106.871	0.222	0.347
-512.829	-120.305	-0.413	0.092
-511.814	53.214	-0.253	-0.320
-510.799	-200.000	0.007	0.181
-509.785	45.870	-0.430	0.523
-508.770	-96.623	-0.433	0.149
-507.756	-162.894	0.477	0.030
-506.741	122.486	0.200	0.329
-505.726	-24.782	-0.340	0.265
-504.712	456.200	-0.070	-0.205
-503.697	-200.000	0.069	0.508
-502.683	87.128	-0.218	0.317
-501.668	-77.810	-0.254	0.115
-500.653	-104.479	-0.390	0.118
-499.639	-198.007	-0.099	0.001
-498.624	-81.117	-0.285	0.123
-497.610	-200.000	-0.040	0.455
-496.595	95.057	-0.265	-0.397
-495.581	-139.657	0.292	-0.040
-494.566	-158.147	0.169	-0.013
-493.551	32.861	0.109	-0.124
-492.537	157.406	-0.026	-0.048
-491.522	-41.049	0.314	0.212
-490.508	196.244	0.247	-0.496
-489.493	-35.216	0.287	0.205
-488.478	38.162	-0.119	-0.140
-487.464	-186.242	0.506	-0.009
-486.449	253.050	0.237	0.534
-485.435	10.557	0.253	0.253
-484.420	275.522	-0.161	-0.377
-483.405	-200.000	0.075	0.492
-482.391	167.932	-0.174	-0.326
-481.376	-87.708	-0.177	0.070
-480.362	554.098	-0.105	0.334
-479.347	-17.461	-0.087	0.072
-478.332	-138.750	-0.194	0.028
-477.318	145.180	-0.097	-0.170
-476.303	-200.000	0.025	-0.150
-475.289	800.000	0.050	-0.199
-474.274	313.580	-0.139	-0.345
-473.259	-126.764	-0.483	-0.093
-472.245	732.483	0.077	-0.273
-471.230	-200.000	0.029	-0.215
-470.216	-0.848	-0.116	-0.108
-469.201	-86.540	-0.133	0.053
-468.186	-200.000	0.022	-0.249
-467.172	0.952	-0.350	0.329
-466.157	188.181	-0.153	0.302
-465.143	68.735	-0.223	-0.300
-464.128	-10.925	0.142	0.123
-463.113	-154.308	-0.297	-0.026
-462.099	630.887	0.069	-0.232
-461.084	272.281	-0.212	0.494
-460.070	-171.250	-0.587	-0.025
-459.055	-106.829	-0.283	-0.082
-458.040	-25.603	0.399	-0.309
-457.026	69.091	-0.119	-0.161
-456.011	303.006	-0.121	0.296
-454.997	-135.250	-0.307	0.048
-453.982	637.551	-0.043	-0.143
-452.968	-141.686	0.296	-0.039
-451.953	-99.782	0.019	-0.006
-450.938	-18.106	0.099	0.082
-449.924	473.641	0.091	0.269
-448.909	-78.734	0.311	0.139
-447.895	-76.723	0.459	0.210
-446.880	-191.606	0.160	-0.002
-445.865	-56.520	-0.432	0.251
-444.851	99.668	-0.090	0.137
-443.836	581.644	0.023	-0.075
-442.822	-19.891	0.169	0.136
-441.807	800.000	0.047	0.241
-440.792	-43.594	-0.166	0.110
-439.778	-140.363	0.219	0.030
-438.763	-158.957	0.515	0.038
-437.749	800.000	0.032	0.118
-436.734	215.155	-0.107	0.224
-435.719	-200.000	-0.013	-0.133
-434.705	-200.000	0.009	-0.266
-433.690	-200.000	-0.036	0.263
-432.676	-113.663	-0.316	-0.080
-431.661	800.000	-0.063	-0.257
-430.646	-3.451	-0.320	-0.292
-429.632	800.000	-0.152	0.580
-428.617	-60.177	-0.338	-0.188
-427.603	296.555	0.198	0.477
-426.588	-90.414	-0.574	0.217
-425.573	-54.759	-0.162	0.096
-424.559	81.313	-0.258	0.366
-423.544	239.637	0.123	-0.269
-422.530	-77.280	-0.025	-0.011
-421.515	57.819	0.190	0.244
-420.500	274.590	-0.117	0.272
-419.486	-172.010	-0.299	-0.012
-418.471	-79.749	0.240	-0.106
-417.457	-142.244	0.669	-0.086
-416.442	-127.383	0.173	0.033
-415.428	342.976	0.060	0.155
-414.413	206.904	-0.326	0.668
-413.398	-80.078	0.248	0.109
-412.384	-9.524	0.259	0.226
-411.369	-137.154	0.332	-0.049
-410.355	-188.826	0.742	-0.012
-409.340	-87.730	0.259	0.102
-408.325	-154.093	0.286	0.025
-407.311	-19.652	0.159	0.129
-406.296	59.933	-0.179	0.232
-405.282	-79.467	-0.510	0.225
-404.267	-142.700	-0.177	0.022
-403.252	-147.645	0.427	0.046
-402.238	583.222	0.111	-0.359
-401.223	10.124	-0.320	-0.318
-400.209	261.216	0.116	0.264
-399.194	-66.601	-0.315	0.163
-398.179	17.310	0.246	0.256
-397.165	-126.490	0.210	-0.040
-396.150	18.308	0.264	0.276
-395.136	254.971	0.089	0.200
-394.121	-123.271	0.362	0.075
-393.106	-200.000	-0.010	0.098
-392.092	-136.830	-0.149	0.022
-391.077	-75.595	0.153	-0.071
-390.063	597.316	-0.039	-0.128
-389.048	-9.447	0.352	-0.307
-388.033	-160.541	-0.307	-0.021
-387.019	-85.295	0.192	-0.078
-386.004	-90.972	0.104	0.039
-384.990	-114.716	-0.719	-0.179
-383.975	-103.609	0.372	-0.114
-382.960	287.623	0.057	0.135
-381.946	-21.422	0.495	-0.395
-380.931	96.758	0.087	0.130
-379.917	800.000	0.053	0.265
-378.902	182.287	-0.102	0.197
-377.888	-200.000	-0.031	-0.430
-376.873	70.976	0.169	0.229
-375.858	36.026	-0.332	-0.383
-374.844	-15.085	-0.653	-0.547
-373.829	800.000	0.051	-0.243
-372.815	120.762	0.226	-0.368
-371.800	-59.641	-0.089	-0.050
-370.785	-47.403	-0.242	-0.153
-369.771	-11.354	0.092	0.079
-368.756	-119.034	0.413	-0.094
-367.742	502.696	0.144	-0.438
-366.727	161.077	-0.082	0.151
-365.712	-58.075	0.535	0.304
-364.698	-33.009	-0.157	-0.114
-363.683	-200.000	-0.016	0.449
-362.669	800.000	-0.026	-0.119
-361.654	-14.720	0.036	0.030
-360.639	-22.176	-0.432	-0.342
-359.625	-200.000	0.003	0.186
-358.610	-126.678	0.287	0.055
-357.596	-70.631	0.468	-0.230
-356.581	-77.024	0.421	-0.191
-355.566	-200.000	-0.064	-0.763
-354.552	492.287	-0.081	-0.244
-353.537	800.000	-0.055	-0.221
-352.523	14.851	-0.095	0.097
-351.508	-21.463	-0.111	0.088
-350.493	-97.353	0.531	0.180
-349.479	-170.172	0.368	0.017
-348.464	136.216	0.177	-0.303
-347.450	92.334	0.169	-0.249
-346.435	-94.814	-0.218	0.077
-345.420	-57.347	-0.177	0.102
-344.406	-102.125	-0.248	0.077
-343.391	800.000	0.047	0.239
-342.377	-144.489	-0.125	-0.015
-341.362	-138.651	-0.327	-0.046
-340.348	368.043	-0.076	0.201
-339.333	140.995	0.146	-0.254
-338.318	-200.000	-0.012	0.232
-337.304	536.512	-0.153	0.477
-336.289	-186.770	-0.190	-0.003
-335.275	-107.021	-0.395	0.113
-334.260	-125.642	0.286	0.056
-333.245	157.454	0.199	-0.361
-332.231	-158.575	0.736	-0.055
-331.216	-69.617	0.567	-0.282
-330.202	-24.868	-0.279	0.216
-329.187	-24.393	0.149	0.116
-328.172	-148.446	0.161	0.017
-327.158	-106.839	0.048	-0.014
-326.143	-76.224	0.133	-0.061
-325.129	-88.830	-0.218	0.084
-324.114	-33.451	-0.322	-0.232
-323.099	25.560	-0.161	-0.175
-322.085	800.000	0.048	-0.190
-321.070	261.944	-0.054	-0.122
-320.056	141.782	0.291	-0.505
-319.041	-139.387	0.336	0.047
-318.026	-12.733	-0.151	-0.128
-317.012	82.969	0.271	-0.385
-315.997	-200.000	-0.061	-0.594
-314.983	-51.877	-0.302	0.183
-313.968	56.814	-0.187	-0.238
-312.953	192.119	-0.015	0.029
-311.939	-156.059	-0.218	-0.018
-310.924	137.397	0.072	-0.124
-309.910	180.122	-0.202	-0.387
-308.895	127.532	-0.231	-0.384
-307.880	-192.019	0.330	-0.004
-306.866	-200.000	0.020	-0.156
-305.851	-98.588	0.069	0.023
-304.837	-200.000	-0.007	-0.060
-303.822	-77.704	-0.432	0.194
-302.807	261.918	-0.170	-0.386
-301.793	48.490	0.232	-0.283
-300.778	-200.000	0.035	0.239
-299.764	-55.396	-0.331	0.193
-298.749	75.873	-0.095	-0.132
-297.735	-200.000	-0.003	0.071
-296.720	-158.756	-0.229	0.017
-295.705	-12.358	0.328	0.280
-294.691	-147.770	0.230	-0.025
-293.676	-6.105	0.196	-0.175
-292.662	-200.000	0.040	-0.285
-291.647	-27.143	0.347	-0.264
-290.632	-200.000	-0.014	-0.276
-289.618	121.818	-0.027	-0.044
-288.603	-200.000	0.042	0.249
-287.589	47.816	0.264	-0.321
-286.574	-58.070	0.331	-0.188
-285.559	43.266	0.274	-0.327
-284.545	-200.000	-0.022	0.174
-283.530	-2.638	0.162	0.148
-282.516	-200.000	0.008	0.049
-281.501	-35.206	0.209	-0.148
-280.486	-76.354	-0.078	-0.036
-279.472	153.089	-0.071	-0.128
-278.457	248.375	0.201	-0.444
-277.443	-63.188	-0.439	-0.235
-276.428	36.548	-0.426	0.490
-275.413	73.094	-0.206	-0.281
-274.399	-32.408	0.414	-0.300
-273.384	-15.193	0.158	0.132
-272.370	800.000	-0.060	0.236
-271.355	-103.219	0.365	-0.112
-270.340	-59.752	-0.299	-0.166
-269.326	239.274	-0.028	-0.061
-268.311	-82.047	0.087	0.037
-267.297	624.351	-0.102	0.336
-266.282	-135.114	-0.320	0.050
-265.267	114.149	0.061	-0.097
-264.253	-41.648	-0.209	-0.139
-263.238	-0.476	0.317	-0.293
-262.224	19.753	0.209	0.219
-261.209	-119.843	0.140	-0.031
-260.195	86.205	0.030	-0.044
-259.180	-200.000	0.024	-0.248
-258.165	143.834	0.169	0.294
-257.151	-111.408	0.428	-0.113
-256.136	-200.000	-0.000	0.015
-255.122	18.490	-0.227	0.236
-254.107	81.676	-0.253	-0.356
-253.092	-103.371	-0.518	0.158
-252.078	800.000	-0.028	-0.134
-251.063	-200.000	0.023	-0.267
-250.049	-130.957	0.251	0.043
-249.034	118.932	-0.168	0.271
-248.019	-0.367	-0.167	-0.154
-247.005	45.457	-0.304	-0.365
-245.990	-105.998	0.137	0.040
-244.976	-200.000	0.002	0.186
-243.961	50.323	-0.211	0.260
-242.946	-122.212	0.295	-0.062
-241.932	-91.310	0.178	0.066
-240.917	-122.963	-0.221	0.046
-239.903	-122.895	0.274	0.057
-238.888	-200.000	-0.001	0.312
-237.873	-31.952	0.020	0.014
-236.859	156.949	0.059	0.107
-235.844	-63.223	0.210	-0.112
-234.830	-2.276	0.207	-0.189
-233.815	-45.025	-0.057	-0.037
-232.800	-107.588	0.270	-0.076
-231.786	800.000	-0.037	-0.211
-230.771	800.000	-0.064	-0.280
-229.757	75.913	0.208	-0.287
-228.742	800.000	0.096	-0.415
-227.727	-200.000	0.427	-0.001
-226.713	-143.579	-0.651	-0.080
-225.698	800.000	-0.070	0.273
-224.684	-71.118	-0.217	0.106
-223.669	-63.379	-0.596	0.318
-222.655	-99.337	-0.847	-0.276
-221.640	358.608	0.113	-0.295
-220.625	63.148	-0.095	-0.124
-219.611	-162.005	-0.182	-0.012
-218.596	-45.707	0.156	0.100
-217.582	12.440	-0.038	-0.038
-216.567	-127.710	-0.215	0.040
-215.552	184.590	0.036	-0.069
-214.538	8.080	-0.044	-0.043
-213.523	-129.791	-0.465	0.082
-212.509	158.200	0.103	0.186
-211.494	217.980	0.080	-0.167
-210.479	-200.000	-0.003	0.125
-209.465	99.875	0.298	0.450
-208.450	-200.000	-0.033	0.509
-207.436	33.525	-0.069	0.078
-206.421	-121.546	-0.407	0.087
-205.406	81.755	0.073	0.103
-204.392	-200.000	0.050	-0.536
-203.377	144.976	-0.180	0.314
-202.363	28.441	0.231	0.254
-201.348	5.286	0.130	0.124
-200.333	-43.415	0.259	0.170
-199.319	-144.529	0.196	-0.023
-198.304	-73.841	-0.129	0.061
-197.290	-200.000	0.027	0.244
-196.275	21.546	-0.371	0.392
-195.260	-64.158	-0.325	-0.171
-194.246	91.430	-0.064	-0.094
-193.231	-21.219	-0.154	-0.122
-192.217	72.706	0.227	-0.309
-191.202	-144.027	0.223	-0.027
-190.187	228.947	-0.054	0.115
-189.173	800.000	-0.194	-0.834
-188.158	-200.000	0.011	0.438
-187.144	-66.514	0.357	-0.184
-186.129	800.000	0.093	-0.405
-185.114	320.587	-0.150	-0.370
-184.100	-200.000	0.065	0.598
-183.085	-200.000	-0.063	-0.384
-182.071	-68.145	0.379	-0.191
-181.056	5.380	0.106	0.102
-180.042	465.097	-0.127	0.371
-179.027	358.478	-0.038	0.099
-178.012	99.999	0.176	0.266
-176.998	-35.950	-0.254	-0.178
-175.983	-200.000	0.020	0.142
-174.969	-89.230	0.284	0.108
-173.954	-66.915	0.189	-0.096
-172.939	-39.160	0.117	0.079
-171.925	25.952	-0.142	0.153
-170.910	800.000	-0.129	-0.504
-169.896	-40.001	-0.305	0.206
-168.881	800.000	0.024	0.125
-167.866	-23.514	0.219	0.170
-166.852	-200.000	-0.019	-0.360
-165.837	69.396	0.146	-0.195
-164.823	-147.597	0.181	-0.020
-163.808	-169.420	-0.474	-0.022
-162.793	-72.005	0.289	0.139
-161.779	265.510	0.252	0.573
-160.764	-109.177	0.323	-0.089
-159.750	-200.000	-0.009	-0.385
-158.735	115.568	-0.173	-0.275
-157.720	-178.804	-0.203	-0.006
-156.706	-98.504	-0.070	-0.023
-155.691	-60.886	-0.579	0.317
-154.677	19.619	-0.215	0.224
-153.662	-146.111	-0.630	0.071
-152.647	129.976	0.057	0.095
-151.633	-200.000	-0.066	-0.393
-150.618	-111.987	-0.392	-0.102
-149.604	-120.850	0.316	0.069
-148.589	-53.140	-0.222	-0.132
-147.574	-61.352	0.611	0.332
-146.560	-102.676	-0.336	-0.103
-145.545	112.737	-0.186	0.292
-144.531	-121.069	0.099	-0.021
-143.516	35.335	-0.169	0.192
-142.502	-147.811	0.116	-0.012
-141.487	-69.963	0.249	0.123
-140.472	211.385	0.086	0.177
-139.458	51.958	0.075	0.093
-138.443	-45.039	0.277	-0.178
-137.429	-200.000	-0.041	-0.245
-136.414	-6.690	0.353	0.311
-135.399	-85.899	-0.248	-0.099
-134.385	-146.048	-0.538	0.061
-133.370	446.998	0.082	-0.235
-132.356	-49.910	0.246	-0.151
-131.341	-170.177	0.313	-0.014
-130.326	-21.650	-0.225	0.177
-129.312	70.821	0.219	0.294
-128.297	-82.095	0.231	0.097
-127.283	257.356	-0.211	-0.472
-126.268	-29.010	0.169	-0.125
-125.253	38.416	-0.269	-0.311
-124.239	264.035	0.146	-0.331
-123.224	-77.078	0.277	0.125
-122.210	-200.000	-0.038	-0.234
