DTS Sentinel unit serial number:	SN409020Multiplexer serial number:	ORYXHardware model number:	OX4-SRSoftware version number:	ORYX F/W v3.00 Oryx Data Collector v3.7.2.0data status	okinstallation	HaddamTimeLapsedifferential loss correction	single-endedforward channel	channel 3reverse channel	N/Adate	2011/06/21time	15:21:17forward acquisition time	30.00reverse acquisition time	0.00gamma	498.7831k internal	0.1819k external	0.1819temperature offset calibration	1.0074default loss term (dB/km)	0.3790temperature slope calibration	1.3530multiplexer offset coefficient	1.0000multiplexer slope coefficient	1.0000fibre end	0.00T internal ref (°C)	38.09T ext. ref 1 (°C)	28.51T ext. ref 2 (°C)	0.26length (m)	temperature (°C)	Stokes	anti-Stokes-747.200	-28.148	-0.290	0.214
-746.185	49.099	0.303	0.364
-745.171	800.000	0.057	-0.269
-744.156	-12.268	0.311	0.260
-743.142	-35.550	-0.336	0.232
-742.127	89.534	-0.394	0.563
-741.112	-99.941	0.353	-0.112
-740.098	12.841	0.203	0.200
-739.083	191.608	-0.144	-0.279
-738.069	-40.214	0.207	0.137
-737.054	164.184	-0.281	-0.508
-736.039	800.000	-0.063	0.310
-735.025	16.519	0.293	0.296
-734.010	-121.782	0.332	-0.070
-732.996	138.896	0.204	-0.344
-731.981	-40.768	0.278	-0.183
-730.966	408.257	0.188	-0.512
-729.952	16.903	-0.219	-0.222
-728.937	-130.173	0.361	0.062
-727.923	-31.529	0.369	0.264
-726.908	-112.007	0.150	-0.038
-725.894	55.735	-0.287	-0.356
-724.879	-198.521	0.499	-0.004
-723.864	-109.316	-0.323	-0.087
-722.850	-57.630	-0.087	0.048
-721.835	306.610	0.166	-0.398
-720.821	-31.291	0.054	0.039
-719.806	771.529	0.142	-0.496
-718.791	-200.000	-0.004	0.202
-717.777	156.581	0.179	-0.316
-716.762	800.000	0.021	0.078
-715.748	112.208	0.171	-0.265
-714.733	-200.000	0.057	-0.492
-713.718	-107.203	-0.252	-0.071
-712.704	143.537	-0.163	0.278
-711.689	-84.171	-0.325	-0.131
-710.675	21.098	-0.139	0.144
-709.660	7.902	-0.157	-0.151
-708.645	-78.296	0.197	-0.086
-707.631	-119.426	0.363	-0.080
-706.616	-147.293	-0.256	0.027
-705.602	-45.649	-0.396	0.249
-704.587	44.238	0.409	-0.480
-703.572	119.300	0.070	-0.111
-702.558	800.000	-0.140	-0.674
-701.543	437.693	0.117	-0.326
-700.529	800.000	-0.106	-0.541
-699.514	-105.962	-0.245	-0.070
-698.499	-54.234	-0.161	-0.093
-697.485	-200.000	-0.016	-0.435
-696.470	-91.432	0.189	0.069
-695.456	267.254	0.133	-0.298
-694.441	-16.322	0.127	0.103
-693.426	-18.110	0.178	0.142
-692.412	594.022	-0.166	-0.526
-691.397	-102.032	0.320	0.098
-690.383	603.882	-0.035	0.110
-689.368	12.845	-0.090	0.089
-688.354	39.658	0.350	0.400
-687.339	800.000	0.070	-0.254
-686.324	-200.000	0.001	0.246
-685.310	-119.361	0.207	-0.046
-684.295	-66.395	-0.376	-0.190
-683.281	19.080	-0.180	0.185
-682.266	-131.309	-0.652	0.109
-681.251	-170.183	-0.357	-0.016
-680.237	-131.481	-0.139	0.023
-679.222	32.397	-0.037	-0.041
-678.208	-62.007	-0.226	0.120
-677.193	-200.000	-0.003	0.302
-676.178	133.045	0.154	0.254
-675.164	84.176	-0.255	-0.356
-674.149	-168.349	-0.281	0.014
-673.135	-72.630	0.254	-0.119
-672.120	-161.192	-0.341	-0.022
-671.105	800.000	0.100	0.388
-670.091	-17.911	-0.212	-0.169
-669.076	107.857	0.239	-0.364
-668.062	-123.148	-0.211	-0.043
-667.047	-71.310	0.097	-0.046
-666.032	-28.733	-0.096	0.070
-665.018	155.804	-0.194	-0.342
-664.003	-200.000	-0.006	0.081
-662.989	800.000	-0.014	0.062
-661.974	-11.297	0.172	0.144
-660.959	-118.128	-0.121	-0.027
-659.945	-49.863	-0.088	-0.053
-658.930	-54.735	-0.117	-0.067
-657.916	-150.943	-0.517	-0.049
-656.901	-20.506	-0.534	-0.418
-655.886	-28.150	-0.211	0.155
-654.872	-28.860	-0.050	-0.037
-653.857	123.854	0.043	0.069
-652.843	-200.000	0.045	-0.340
-651.828	-66.357	-0.169	-0.085
-650.814	297.115	0.025	0.059
-649.799	-112.789	0.411	-0.103
-648.784	-57.928	0.174	0.097
-647.770	692.389	-0.076	-0.255
-646.755	-200.000	0.023	-0.292
-645.741	14.023	-0.103	0.102
-644.726	114.378	0.154	-0.240
-643.711	-109.359	-0.050	-0.013
-642.697	53.294	-0.026	-0.032
-641.682	-108.953	-0.327	0.088
-640.668	-187.280	-0.276	-0.005
-639.653	800.000	-0.194	-0.693
-638.638	-77.810	-0.072	-0.031
-637.624	-126.543	-0.131	0.025
-636.609	448.323	0.094	0.265
-635.595	-118.096	-0.571	-0.129
-634.580	-154.244	-0.373	-0.032
-633.565	633.591	0.116	0.378
-632.551	-124.937	0.292	-0.057
-631.536	-132.292	0.374	0.061
-630.522	-70.971	-0.604	0.289
-629.507	-132.859	0.077	0.012
-628.492	749.211	-0.020	0.071
-627.478	-52.925	0.071	-0.042
-626.463	-191.331	-0.386	0.005
-625.449	-182.094	0.263	0.006
-624.434	-198.152	0.685	-0.005
-623.419	-115.520	-0.084	-0.020
-622.405	-64.024	0.302	-0.156
-621.390	-200.000	0.006	-0.039
-620.376	30.762	0.140	0.152
-619.361	-8.436	0.248	-0.212
-618.346	-56.087	-0.419	0.237
-617.332	-49.379	-0.167	-0.101
-616.317	-28.364	-0.268	0.196
-615.303	-200.000	0.014	0.242
-614.288	717.330	0.092	0.312
-613.273	-130.239	-0.708	0.121
-612.259	-0.002	-0.539	-0.488
-611.244	-92.890	0.023	-0.008
-610.230	-200.000	0.005	-0.278
-609.215	800.000	-0.034	0.170
-608.201	241.937	-0.047	-0.100
-607.186	-112.837	0.317	0.079
-606.171	-143.279	-0.328	0.040
-605.157	800.000	0.074	-0.300
-604.142	195.070	0.065	-0.127
-603.128	800.000	0.096	-0.369
-602.113	-20.864	-0.209	-0.163
-601.098	-123.850	-0.429	-0.085
-600.084	-200.000	-0.018	0.309
-599.069	283.792	0.145	-0.333
-598.055	-115.350	-0.277	-0.066
-597.040	368.450	0.099	0.257
-596.025	36.255	-0.233	0.262
-595.011	-89.002	0.201	-0.075
-593.996	-63.376	-0.477	0.249
-592.982	200.022	0.226	0.443
-591.967	-109.974	-0.358	0.095
-590.952	800.000	-0.101	0.449
-589.938	28.536	-0.202	0.217
-588.923	-54.804	-0.276	-0.158
-587.909	-26.235	-0.362	0.270
-586.894	263.546	0.121	0.267
-585.879	800.000	-0.074	-0.380
-584.865	-89.577	-0.208	-0.077
-583.850	-200.000	0.544	0.001
-582.836	43.761	-0.247	-0.287
-581.821	-133.439	0.363	-0.057
-580.806	-55.279	-0.353	-0.201
-579.792	293.927	-0.125	0.291
-578.777	344.451	-0.184	0.460
-577.763	-65.131	-0.321	-0.164
-576.748	-200.000	-0.033	-0.332
-575.733	51.787	-0.216	0.262
-574.719	405.642	0.041	0.109
-573.704	-3.792	0.268	-0.236
-572.690	-136.874	-0.808	0.117
-571.675	211.086	0.314	-0.630
-570.661	8.792	-0.086	0.082
-569.646	81.205	0.089	0.122
-568.631	800.000	0.054	0.196
-567.617	-139.108	0.123	0.017
-566.602	-124.352	0.229	0.045
-565.588	-64.138	0.504	-0.260
-564.573	-61.379	-0.287	-0.153
-563.558	-200.000	-0.050	-0.629
-562.544	-200.000	0.093	-0.609
-561.529	3.914	-0.145	0.134
-560.515	-200.000	0.024	0.147
-559.500	285.271	0.034	-0.078
-558.485	-151.727	-0.619	0.057
-557.471	-31.877	0.342	0.243
-556.456	-175.339	0.123	0.004
-555.442	153.102	0.324	-0.564
-554.427	-28.495	0.153	-0.111
-553.412	-52.834	-0.290	-0.169
-552.398	733.614	0.107	0.365
-551.383	-107.893	0.386	-0.106
-550.369	-22.381	0.203	-0.156
-549.354	441.642	0.200	0.558
-548.339	-69.570	0.288	0.139
-547.325	1.661	0.018	-0.016
-546.310	-88.844	-0.213	-0.080
-545.296	21.266	-0.366	-0.377
-544.281	7.023	-0.234	0.221
-543.266	488.678	0.198	-0.577
-542.252	148.184	0.179	-0.308
-541.237	-28.491	-0.248	-0.181
-540.223	64.641	0.379	0.485
-539.208	-133.108	-0.412	0.066
-538.193	153.870	-0.038	-0.067
-537.179	-58.893	0.380	-0.208
-536.164	-43.611	-0.045	0.029
-535.150	-200.000	-0.049	-0.386
-534.135	61.052	-0.235	-0.296
-533.121	-130.018	0.295	-0.051
-532.106	800.000	0.033	-0.142
-531.091	224.589	-0.375	-0.772
-530.077	-158.591	0.372	0.027
-529.062	117.455	0.189	-0.295
-528.048	-25.638	0.153	0.114
-527.033	-101.671	-0.083	-0.025
-526.018	176.517	0.119	-0.220
-525.004	-34.100	0.293	0.204
-523.989	-86.187	0.401	-0.156
-522.975	-62.614	0.108	0.057
-521.960	61.038	0.565	-0.712
-520.945	-200.000	-0.018	-0.212
-519.931	-15.035	0.210	-0.170
-518.916	18.628	-0.022	-0.023
-517.902	800.000	0.140	-0.728
-516.887	-200.000	0.000	-0.334
-515.872	800.000	-0.059	-0.300
-514.858	-200.000	-0.032	0.348
-513.843	25.593	-0.341	0.360
-512.829	0.846	-0.489	0.444
-511.814	-40.521	-0.514	0.338
-510.799	-127.550	-0.216	0.039
-509.785	-85.033	0.602	0.238
-508.770	-3.119	0.122	-0.107
-507.756	-145.683	-0.707	0.079
-506.741	-146.773	-0.180	-0.019
-505.726	22.843	-0.364	0.378
-504.712	79.487	-0.201	0.274
-503.697	311.001	0.120	-0.287
-502.683	240.851	-0.149	0.316
-501.668	-39.371	0.191	-0.127
-500.653	-122.565	-0.342	0.070
-499.639	101.957	-0.273	0.404
-498.624	7.555	-0.130	0.123
-497.610	68.493	0.107	-0.139
-496.595	-200.000	-0.016	0.271
-495.581	132.496	0.091	0.149
-494.566	190.177	0.223	0.426
-493.551	-200.000	-0.007	0.082
-492.537	800.000	-0.055	-0.308
-491.522	536.057	-0.127	0.385
-490.508	131.298	0.071	0.116
-489.493	179.721	-0.118	0.220
-488.478	300.639	-0.126	0.296
-487.464	502.483	0.027	-0.080
-486.449	-2.368	0.240	0.213
-485.435	81.280	0.177	0.243
-484.420	-194.791	0.210	-0.002
-483.405	-62.707	-0.467	-0.244
-482.391	-34.930	-0.078	0.054
-481.376	-151.296	0.442	-0.041
-480.362	78.227	0.176	0.239
-479.347	38.023	0.095	0.107
-478.332	-91.281	0.375	-0.135
-477.318	800.000	0.105	-0.438
-476.303	-32.866	0.382	-0.268
-475.289	-94.534	0.644	0.221
-474.274	800.000	0.079	0.364
-473.259	213.100	-0.152	0.304
-472.245	-121.367	-0.368	0.077
-471.230	-158.801	-0.100	-0.007
-470.216	104.969	-0.199	0.297
-469.201	176.188	-0.046	0.086
-468.186	593.436	0.092	-0.288
-467.172	-53.237	0.250	0.145
-466.157	800.000	0.059	0.213
-465.143	-137.601	0.210	-0.030
-464.128	-81.224	0.214	-0.089
-463.113	-37.291	0.331	0.223
-462.099	94.437	-0.223	-0.321
-461.084	-26.830	-0.386	0.285
-460.070	-189.228	-0.120	0.002
-459.055	250.308	-0.224	0.483
-458.040	-114.273	-0.261	-0.063
-457.026	-134.293	-0.652	0.100
-456.011	-200.000	0.006	-0.346
-454.997	355.578	0.109	0.275
-453.982	-200.000	0.007	-0.338
-452.968	-122.526	-0.209	0.043
-451.953	73.935	0.242	0.322
-450.938	-96.192	0.383	-0.128
-449.924	-71.970	-0.155	-0.073
-448.909	-37.206	0.168	0.114
-447.895	-165.998	0.216	0.011
-446.880	-30.740	-0.360	0.257
-445.865	800.000	-0.094	0.345
-444.851	2.137	0.327	-0.298
-443.836	561.491	-0.088	-0.270
-442.822	78.862	-0.311	0.421
-441.807	90.273	0.063	0.089
-440.792	-112.119	0.375	-0.095
-439.778	-124.667	0.329	-0.064
-438.763	-178.722	0.694	0.020
-437.749	800.000	-0.136	0.535
-436.734	-128.770	-0.486	0.086
-435.719	191.276	-0.093	0.178
-434.705	-96.919	-0.052	-0.017
-433.690	364.613	-0.185	0.473
-432.676	390.753	0.275	0.724
-431.661	-200.000	0.061	0.398
-430.646	20.734	-0.112	-0.114
-429.632	-120.711	-0.375	-0.079
-428.617	-200.000	-0.060	-0.361
-427.603	-200.000	0.013	-0.168
-426.588	-200.000	-0.007	-0.074
-425.573	66.988	0.332	0.427
-424.559	-60.056	-0.227	-0.122
-423.544	-39.580	-0.076	0.050
-422.530	108.733	-0.099	0.150
-421.515	-200.000	0.020	0.686
-420.500	-120.219	-0.592	-0.127
-419.486	78.475	-0.206	-0.278
-418.471	-200.000	0.060	-0.438
-417.457	69.867	0.068	-0.088
-416.442	66.806	0.067	-0.086
-415.428	-94.770	-0.436	0.148
-414.413	-200.000	-0.021	0.204
-413.398	-200.000	0.024	-0.135
-412.384	25.951	-0.201	-0.212
-411.369	142.397	0.186	-0.313
-410.355	-42.279	0.171	0.110
-409.340	-180.291	0.392	0.010
-408.325	-72.713	-0.211	-0.098
-407.311	-117.426	-0.432	-0.098
-406.296	800.000	-0.031	-0.148
-405.282	-149.693	-0.347	0.034
-404.267	-145.674	0.209	0.023
-403.252	233.486	-0.201	-0.420
-402.238	-101.344	0.068	-0.021
-401.223	-200.000	-0.058	-0.536
-400.209	-200.000	-0.007	0.426
-399.194	11.047	0.282	-0.272
-398.179	194.565	-0.052	0.100
-397.165	-118.075	0.566	0.126
-396.150	-134.399	0.441	-0.068
-395.136	276.416	0.180	-0.405
-394.121	104.699	0.192	0.286
-393.106	-118.141	0.077	0.017
-392.092	-96.381	-0.195	-0.065
-391.077	17.711	0.276	-0.277
-390.063	99.303	0.244	0.356
-389.048	-103.586	0.564	0.166
-388.033	-182.271	0.283	0.007
-387.019	-90.895	0.237	0.085
-386.004	101.479	0.063	-0.092
-384.990	-15.064	0.212	-0.171
-383.975	-170.685	0.128	-0.006
-382.960	-144.167	-0.274	-0.032
-381.946	-200.000	0.027	-0.257
-380.931	34.855	0.273	-0.302
-379.917	-75.867	-0.114	0.051
-378.902	-86.233	0.023	0.009
-377.888	-200.000	-0.335	-0.001
-376.873	-92.512	-0.395	0.139
-375.858	23.806	0.470	-0.488
-374.844	562.350	-0.098	0.299
-373.829	17.614	0.117	0.118
-372.815	102.303	0.240	0.355
-371.800	-67.774	-0.425	-0.209
-370.785	-142.913	0.216	-0.026
-369.771	477.085	0.048	0.138
-368.756	-102.971	-0.336	-0.100
-367.742	426.215	0.076	-0.207
-366.727	-200.000	-0.050	-0.418
-365.712	60.198	-0.167	-0.208
-364.698	305.019	0.087	-0.203
-363.683	13.526	0.275	0.269
-362.669	436.223	0.028	-0.077
-361.654	-113.403	0.424	-0.104
-360.639	-200.000	-0.159	0.000
-359.625	-42.631	-0.309	-0.198
-358.610	90.331	-0.369	0.520
-357.596	-56.033	0.145	-0.081
-356.581	-200.000	-0.050	-0.406
-355.566	7.684	0.257	-0.242
-354.552	-110.833	0.164	-0.042
-353.537	-41.810	0.192	0.123
-352.523	800.000	0.182	0.672
-351.508	-200.000	0.045	0.412
-350.493	800.000	-0.112	0.527
-349.479	156.286	0.252	0.439
-348.464	-200.000	-0.012	-0.227
-347.450	-112.637	0.278	0.069
-346.435	800.000	0.053	-0.197
-345.420	-37.787	-0.298	0.199
-344.406	204.075	0.089	0.175
-343.391	-30.375	0.379	-0.270
-342.377	167.386	-0.045	0.080
-341.362	-82.886	0.416	-0.168
-340.348	471.848	-0.200	0.571
-339.333	-200.000	-0.013	0.345
-338.318	-133.941	-0.340	0.052
-337.304	800.000	0.050	-0.268
-336.289	-200.000	0.021	-0.440
-335.275	800.000	-0.103	-0.418
-334.260	-71.995	0.196	-0.091
-333.245	-102.221	-0.306	-0.092
-332.231	-96.910	-0.581	-0.191
-331.216	-85.752	-0.294	-0.114
-330.202	288.642	0.011	0.025
-329.187	148.821	0.030	0.052
-328.172	98.170	0.200	0.291
-327.158	112.949	0.094	-0.143
-326.143	-118.738	0.109	-0.024
-325.129	32.333	-0.119	-0.129
-324.114	-106.086	-0.332	0.093
-323.099	-55.181	-0.227	0.128
-322.085	-200.000	-0.023	-0.179
-321.070	159.565	-0.181	0.317
-320.056	-53.569	-0.526	-0.302
-319.041	-60.103	-0.260	-0.139
-318.026	-62.053	0.545	0.285
-317.012	800.000	-0.030	-0.144
-315.997	-83.236	-0.468	0.188
-314.983	207.669	0.155	0.306
-313.968	32.289	-0.077	-0.083
-312.953	-200.000	-0.043	-0.615
-311.939	-200.000	-0.008	-0.349
-310.924	-73.707	0.510	-0.233
-309.910	-200.000	0.004	-0.296
-308.895	-104.141	-0.513	-0.149
-307.880	88.330	-0.202	-0.282
-306.866	-99.662	-0.305	0.095
-305.851	-200.000	-0.041	0.241
-304.837	230.445	0.035	-0.071
-303.822	-200.000	-0.020	-0.528
-302.807	-193.879	-0.362	0.004
-301.793	-200.000	0.033	0.678
-300.778	-96.940	-0.089	0.029
-299.764	800.000	0.042	0.222
-298.749	-0.237	-0.229	-0.204
-297.735	-161.567	0.344	0.022
-296.720	145.591	0.331	-0.559
-295.705	800.000	-0.160	-0.593
-294.691	3.430	-0.192	0.176
-293.676	-10.568	-0.181	-0.151
-292.662	800.000	-0.007	0.025
-291.647	800.000	0.063	-0.290
-290.632	-200.000	0.051	-0.316
-289.618	37.916	-0.086	0.096
-288.603	69.596	-0.041	-0.054
-287.589	-200.000	0.021	0.602
-286.574	-21.170	-0.292	0.224
-285.559	-200.000	-0.034	-0.467
-284.545	-170.602	0.036	-0.002
-283.530	-200.000	-0.001	-0.025
-282.516	97.512	0.174	-0.251
-281.501	-94.593	-0.364	0.124
-280.486	67.275	0.336	0.430
-279.472	-200.000	0.003	0.174
-278.457	314.367	-0.043	-0.103
-277.443	-200.000	-0.021	0.549
-276.428	-103.509	0.250	0.073
-275.413	44.889	0.121	0.140
-274.399	231.638	0.111	0.230
-273.384	54.347	-0.298	0.360
-272.370	545.243	0.084	0.253
-271.355	-98.789	0.148	0.047
-270.340	-30.084	-0.140	-0.100
-269.326	47.602	0.193	0.226
-268.311	81.999	-0.091	-0.124
-267.297	-168.406	0.237	-0.011
-266.282	655.293	-0.109	-0.352
-265.267	-111.098	0.408	0.104
-264.253	-129.433	0.383	-0.066
-263.238	-142.075	-0.042	-0.005
-262.224	-105.164	0.257	0.073
-261.209	800.000	-0.082	-0.410
-260.195	-42.924	-0.294	0.187
-259.180	-20.346	0.057	0.044
-258.165	9.211	0.049	-0.047
-257.151	11.285	0.235	0.226
-256.136	149.307	0.132	-0.225
-255.122	-167.927	0.297	-0.014
-254.107	-175.634	-0.779	0.026
-253.092	-7.655	-0.263	0.222
-252.078	57.342	0.415	0.508
-251.063	-71.234	0.167	-0.078
-250.049	-149.809	0.165	0.016
-249.034	-200.000	-0.039	0.800
-248.019	-200.000	-0.086	0.498
-247.005	-99.206	-0.101	-0.032
-245.990	-88.138	0.269	0.101
-244.976	-200.000	0.033	-0.240
-243.961	-185.079	0.322	0.006
-242.946	-141.041	0.372	0.047
-241.932	-200.000	0.015	0.569
-240.917	56.891	0.216	-0.264
-239.903	-200.000	0.038	-0.256
-238.888	-89.924	0.189	0.069
-237.873	-200.000	-0.009	-0.119
-236.859	-144.925	0.476	-0.054
-235.844	-71.792	-0.313	0.146
-234.830	-165.017	0.124	-0.007
-233.815	-110.900	-0.247	-0.063
-232.800	-200.000	-0.005	-0.213
-231.786	-158.084	0.772	-0.056
-230.771	668.424	0.014	0.047
-229.757	70.058	-0.211	-0.273
-228.742	-119.569	-0.386	-0.083
-227.727	685.182	0.016	-0.053
-226.713	-200.000	-0.005	0.091
-225.698	11.135	0.239	-0.229
-224.684	-59.821	-0.227	0.121
-223.669	-200.000	0.007	0.293
-222.655	435.361	-0.116	0.317
-221.640	-78.762	-0.273	-0.116
-220.625	-107.401	-0.515	0.141
-219.611	-110.413	0.267	0.069
-218.596	20.231	0.139	-0.141
-217.582	120.901	-0.113	0.176
-216.567	608.956	0.153	0.481
-215.552	199.974	-0.073	0.141
-214.538	-200.000	0.037	0.216
-213.523	82.606	0.150	0.205
-212.509	395.848	0.231	-0.608
-211.494	-17.079	-0.512	-0.404
-210.479	-51.670	-0.301	0.176
-209.465	342.126	-0.144	0.354
-208.450	-200.000	0.006	-0.150
-207.436	185.600	-0.178	-0.331
-206.421	-65.055	0.452	-0.228
-205.406	-130.082	0.563	-0.095
-204.392	33.995	0.174	0.190
-203.377	800.000	-0.011	0.058
-202.363	-137.482	0.183	-0.026
-201.348	49.558	-0.273	0.322
-200.333	800.000	-0.095	0.411
-199.319	118.965	0.085	0.131
-198.304	108.417	0.177	0.265
-197.290	800.000	-0.081	-0.306
-196.275	71.931	0.183	-0.238
-195.260	132.453	0.259	-0.418
-194.246	713.862	-0.066	-0.220
-193.231	110.667	0.239	0.361
-192.217	17.908	0.096	0.095
-191.202	40.459	-0.227	-0.256
-190.187	-200.000	0.101	-0.586
-189.173	-109.286	-0.443	-0.117
-188.158	158.969	0.113	0.198
-187.144	-42.165	-0.153	0.097
-186.129	800.000	-0.156	-0.612
-185.114	133.955	0.241	-0.392
-184.100	-158.994	0.370	-0.026
-183.085	117.531	-0.093	-0.144
-182.071	-200.000	0.058	-0.355
-181.056	53.664	0.139	0.167
-180.042	353.162	0.068	0.169
-179.027	-177.336	-0.432	0.013
-178.012	681.546	0.066	0.217
-176.998	-116.859	-0.292	-0.066
-175.983	-124.158	0.177	-0.034
-174.969	-200.000	0.020	-0.175
-173.954	-200.000	-0.009	-0.097
-172.939	467.832	0.090	0.254
-171.925	-30.456	0.193	0.137
-170.910	-28.013	-0.032	0.023
-169.896	390.762	0.235	0.613
-168.881	-200.000	0.034	-0.477
-167.866	-118.935	-0.174	-0.038
-166.852	70.029	0.169	0.218
-165.837	-33.575	0.179	0.124
-164.823	800.000	0.173	0.610
-163.808	800.000	-0.119	-0.461
-162.793	-81.841	0.067	-0.027
-161.779	3.606	0.156	0.142
-160.764	-133.290	0.296	0.046
-159.750	310.901	0.061	-0.144
-158.735	102.004	0.061	-0.089
-157.720	212.492	0.081	-0.161
-156.706	-46.379	-0.318	-0.195
-155.691	40.839	-0.255	-0.287
-154.677	-181.998	-0.308	-0.007
-153.662	-79.411	0.111	0.047
-152.647	-36.887	0.168	0.113
-151.633	-116.944	-0.451	0.102
-150.618	-15.003	-0.199	0.159
-149.604	-94.782	-0.413	0.139
-148.589	-118.123	0.035	0.008
-147.574	-200.000	-0.034	-0.460
-146.560	-107.602	0.115	-0.031
-145.545	800.000	-0.035	0.184
-144.531	-103.314	0.242	-0.071
-143.516	428.341	0.037	0.101
-142.502	-200.000	0.007	-0.059
-141.487	-122.139	-0.331	0.067
-140.472	153.123	0.112	-0.192
-139.458	65.576	0.281	-0.356
-138.443	-26.072	0.063	0.046
-137.429	-97.103	-0.559	0.182
-136.414	-61.399	0.179	0.094
-135.399	30.281	-0.183	-0.195
-134.385	121.590	-0.252	-0.393
-133.370	-200.000	0.023	-0.154
-132.356	283.176	-0.080	0.181
-131.341	234.017	-0.165	0.340
-130.326	128.103	0.293	0.466
-129.312	4.553	0.392	0.359
-128.297	-32.074	-0.224	-0.156
-127.283	-78.883	0.520	-0.220
-126.268	91.631	0.173	-0.243
-125.253	-200.000	-0.043	0.367
-124.239	-17.217	0.098	0.077
-123.224	285.605	0.178	0.402
-122.210	-200.000	-0.046	0.273
