DTS Sentinel unit serial number:	SN409020Multiplexer serial number:	ORYXHardware model number:	OX4-SRSoftware version number:	ORYX F/W v3.00 Oryx Data Collector v3.7.2.0data status	okinstallation	HaddamTimeLapsedifferential loss correction	single-endedforward channel	channel 3reverse channel	N/Adate	2011/06/21time	15:06:17forward acquisition time	30.00reverse acquisition time	0.00gamma	498.7831k internal	0.1844k external	0.1844temperature offset calibration	1.0074default loss term (dB/km)	0.3790temperature slope calibration	1.3530multiplexer offset coefficient	1.0000multiplexer slope coefficient	1.0000fibre end	0.00T internal ref (°C)	38.50T ext. ref 1 (°C)	30.37T ext. ref 2 (°C)	0.29length (m)	temperature (°C)	Stokes	anti-Stokes-747.200	-92.627	-0.376	-0.132
-746.185	-200.000	-0.100	0.665
-745.171	-59.077	-0.151	-0.082
-744.156	42.291	0.324	0.371
-743.142	58.148	-0.058	0.072
-742.127	8.258	0.419	0.397
-741.112	-119.849	-0.600	-0.129
-740.098	72.570	0.134	0.177
-739.083	251.279	-0.055	-0.119
-738.069	-200.000	0.030	0.725
-737.054	165.082	-0.175	0.313
-736.039	760.612	-0.127	0.436
-735.025	-200.000	0.014	0.433
-734.010	585.636	0.059	-0.184
-732.996	-25.272	-0.495	0.369
-731.981	-139.174	-0.408	-0.055
-730.966	-138.788	-0.351	0.048
-729.952	91.561	0.143	0.203
-728.937	-50.934	0.342	-0.202
-727.923	800.000	0.049	-0.192
-726.908	-120.800	-0.514	0.108
-725.894	-190.746	-0.471	-0.006
-724.879	-200.000	0.001	-0.040
-723.864	87.611	-0.084	-0.117
-722.850	-175.027	-0.250	-0.009
-721.835	-84.359	0.661	0.262
-720.821	108.685	-0.148	-0.223
-719.806	-194.724	0.145	-0.001
-718.791	-92.008	-0.087	0.031
-717.777	-105.625	-0.417	-0.118
-716.762	144.351	-0.248	-0.419
-715.748	487.936	0.071	-0.206
-714.733	55.386	0.297	0.362
-713.718	330.418	-0.147	0.358
-712.704	-35.821	-0.162	-0.110
-711.689	800.000	-0.128	-0.560
-710.675	-8.443	0.154	-0.131
-709.660	389.148	0.096	0.252
-708.645	-109.028	-0.513	-0.137
-707.631	-46.824	0.375	0.230
-706.616	-17.858	0.117	-0.093
-705.602	30.408	0.316	-0.340
-704.587	-88.140	-0.480	-0.180
-703.572	99.514	-0.126	-0.184
-702.558	63.814	0.297	0.376
-701.543	103.807	-0.234	0.347
-700.529	800.000	-0.048	0.192
-699.514	-86.610	0.166	-0.064
-698.499	-200.000	0.022	-0.612
-697.485	-35.063	-0.337	-0.231
-696.470	-47.922	-0.242	0.147
-695.456	-29.324	-0.093	0.067
-694.441	-200.000	-0.036	-0.319
-693.426	-1.544	-0.142	-0.126
-692.412	-49.121	-0.289	0.173
-691.397	110.592	-0.244	0.370
-690.383	800.000	-0.055	-0.234
-689.368	-62.302	0.232	0.121
-688.354	130.631	0.249	0.403
-687.339	-200.000	-0.001	-0.097
-686.324	-200.000	-0.071	-0.414
-685.310	0.436	0.309	0.277
-684.295	-64.028	-0.091	0.047
-683.281	-16.577	0.203	-0.162
-682.266	141.361	-0.193	0.323
-681.251	-143.472	0.103	0.012
-680.237	348.563	0.084	-0.211
-679.222	56.763	-0.312	0.382
-678.208	-156.818	0.191	0.015
-677.193	109.097	-0.203	-0.306
-676.178	88.385	-0.185	-0.258
-675.164	-32.132	-0.555	-0.389
-674.149	49.049	0.084	-0.099
-673.135	800.000	0.124	0.500
-672.120	-200.000	0.069	0.681
-671.105	-6.014	-0.270	0.232
-670.091	-24.873	0.608	-0.453
-669.076	46.116	0.191	-0.223
-668.062	-116.300	-0.092	0.021
-667.047	-151.569	-0.297	-0.027
-666.032	385.173	0.092	-0.240
-665.018	396.046	0.077	0.203
-664.003	32.643	-0.511	-0.556
-662.989	-54.590	-0.190	-0.108
-661.974	124.112	0.118	-0.187
-660.959	-88.063	-0.762	0.286
-659.945	-22.506	0.127	0.097
-658.930	376.261	-0.174	0.449
-657.916	-30.497	-0.149	-0.106
-656.901	107.647	-0.094	0.142
-655.886	800.000	0.087	-0.417
-654.872	424.130	-0.057	-0.154
-653.857	1.782	0.141	0.128
-652.843	-200.000	0.010	0.120
-651.828	800.000	0.073	-0.294
-650.814	10.856	0.209	0.200
-649.799	261.251	-0.112	0.244
-648.784	-118.058	-0.267	-0.059
-647.770	-200.000	0.012	-0.217
-646.755	-138.273	-0.671	0.092
-645.741	-33.564	0.255	-0.177
-644.726	-73.025	-0.195	0.089
-643.711	187.612	-0.089	0.167
-642.697	-31.519	-0.378	0.266
-641.682	-20.167	0.279	0.215
-640.668	-123.069	-0.098	-0.020
-639.653	-37.200	0.441	0.295
-638.638	125.168	0.116	0.184
-637.624	289.114	0.215	0.492
-636.609	-50.502	-0.445	0.263
-635.595	-200.000	-0.072	0.421
-634.580	94.717	-0.176	0.252
-633.565	-121.060	0.194	0.040
-632.551	-159.158	-0.183	0.013
-631.536	-29.082	-0.361	-0.260
-630.522	-162.077	0.144	-0.009
-629.507	441.630	-0.020	0.056
-628.492	32.108	-0.333	0.360
-627.478	-98.705	-0.143	0.046
-626.463	-144.805	-0.494	-0.056
-625.449	-200.000	-0.003	-0.152
-624.434	-200.000	-0.082	-0.000
-623.419	-108.137	0.158	-0.043
-622.405	15.388	0.205	-0.202
-621.390	800.000	0.077	-0.287
-620.376	-54.818	0.331	-0.187
-619.361	800.000	0.034	-0.166
-618.346	-72.609	0.109	0.050
-617.332	453.252	-0.160	0.448
-616.317	-137.949	-0.326	-0.045
-615.303	-22.906	-0.338	-0.256
-614.288	800.000	0.109	0.410
-613.273	-59.687	-0.247	-0.132
-612.259	40.139	-0.137	0.155
-611.244	800.000	0.052	-0.249
-610.230	-171.444	0.162	0.007
-609.215	38.625	-0.152	0.171
-608.201	-38.206	-0.178	-0.118
-607.186	-118.920	-0.375	-0.082
-606.171	4.886	-0.392	0.361
-605.157	47.369	-0.236	-0.276
-604.142	-165.857	-0.234	-0.012
-603.128	-55.001	0.315	0.178
-602.113	289.725	0.152	0.348
-601.098	0.279	0.156	0.140
-600.084	59.339	-0.173	0.214
-599.069	-200.000	0.022	0.290
-598.055	-198.963	-0.580	-0.004
-597.040	-200.000	-0.014	0.171
-596.025	-17.864	-0.178	0.140
-595.011	444.284	-0.173	0.477
-593.996	94.474	-0.107	0.153
-592.982	-167.002	-0.260	0.013
-591.967	-200.000	-0.015	-0.276
-590.952	-118.940	-0.589	0.129
-589.938	786.232	0.140	0.486
-588.923	193.607	-0.302	0.575
-587.909	-17.067	0.191	0.151
-586.894	-200.000	0.011	0.063
-585.879	-200.000	0.029	0.264
-584.865	-56.626	-0.355	-0.196
-583.850	722.307	-0.184	-0.619
-582.836	-138.311	0.468	-0.064
-581.821	-76.102	0.620	0.273
-580.806	-85.406	-0.243	0.094
-579.792	-142.260	-0.681	-0.083
-578.777	14.890	-0.450	0.441
-577.763	-125.658	-0.243	-0.046
-576.748	-110.942	0.232	-0.059
-575.733	77.876	0.090	-0.121
-574.719	-148.027	-0.267	-0.027
-573.704	185.811	0.190	-0.354
-572.690	-200.000	-0.009	-0.090
-571.675	-118.399	-0.355	-0.078
-570.661	-57.253	-0.386	0.212
-569.646	-137.975	0.358	-0.049
-568.631	-112.221	-0.373	0.093
-567.617	-125.416	-0.334	0.063
-566.602	3.364	-0.148	-0.135
-565.588	797.137	0.018	-0.064
-564.573	-17.881	-0.150	-0.118
-563.558	-14.815	0.401	0.322
-562.544	151.519	-0.259	0.443
-561.529	27.262	-0.156	0.164
-560.515	-12.986	-0.314	0.255
-559.500	-200.000	0.070	-0.506
-558.485	-111.554	-0.240	-0.061
-557.471	476.141	0.188	-0.533
-556.456	-18.045	0.297	-0.233
-555.442	72.951	0.278	-0.364
-554.427	-116.346	-0.326	-0.075
-553.412	-189.842	0.278	-0.004
-552.398	-39.450	0.307	-0.201
-551.383	232.909	-0.089	0.183
-550.369	21.326	-0.238	-0.242
-549.354	-80.720	-0.572	0.237
-548.339	-0.555	-0.096	-0.085
-547.325	2.010	-0.142	-0.128
-546.310	-9.714	-0.224	-0.187
-545.296	-45.734	0.206	-0.127
-544.281	-46.947	0.341	-0.208
-543.266	613.299	0.058	0.182
-542.252	18.217	0.208	0.208
-541.237	330.438	0.024	0.059
-540.223	74.471	0.214	0.282
-539.208	-200.000	-0.002	-0.197
-538.193	-149.260	-0.277	0.027
-537.179	800.000	-0.109	0.518
-536.164	-100.004	0.288	-0.089
-535.150	-12.095	0.285	0.233
-534.135	800.000	0.047	-0.197
-533.121	-61.320	-0.315	-0.165
-532.106	-45.749	-0.157	-0.097
-531.091	-107.505	0.384	-0.105
-530.077	-200.000	0.007	0.145
-529.062	95.311	0.211	0.301
-528.048	370.750	-0.065	0.164
-527.033	-117.958	-0.036	0.008
-526.018	-63.664	0.365	0.186
-525.004	67.857	0.240	-0.307
-523.989	-163.872	-0.224	-0.013
-522.975	-147.843	-0.138	0.014
-521.960	-200.000	0.075	0.440
-520.945	205.579	0.322	0.628
-519.931	39.170	-0.334	0.373
-518.916	78.123	-0.360	-0.481
-517.902	-54.917	0.364	-0.205
-516.887	-200.000	-0.010	-0.167
-515.872	-80.482	-0.343	0.142
-514.858	800.000	-0.045	0.218
-513.843	546.172	-0.140	-0.419
-512.829	-50.510	-0.256	0.150
-511.814	800.000	-0.065	-0.283
-510.799	132.580	-0.252	-0.407
-509.785	-49.628	0.098	-0.058
-508.770	-200.000	-0.149	0.000
-507.756	-62.512	-0.264	0.136
-506.741	-200.000	-0.026	-0.501
-505.726	-51.705	0.424	-0.246
-504.712	-65.528	-0.387	0.193
-503.697	129.928	-0.035	-0.056
-502.683	113.665	0.129	0.197
-501.668	800.000	0.050	-0.258
-500.653	-147.118	0.104	0.011
-499.639	800.000	-0.067	0.239
-498.624	800.000	-0.030	0.142
-497.610	22.631	0.210	-0.215
-496.595	54.483	-0.288	-0.347
-495.581	-71.563	-0.514	-0.239
-494.566	-98.454	0.073	0.023
-493.551	-37.569	-0.165	-0.109
-492.537	-131.951	-0.404	-0.065
-491.522	-108.360	0.350	0.094
-490.508	715.064	-0.100	-0.332
-489.493	-177.843	0.261	0.008
-488.478	190.892	-0.081	-0.153
-487.464	-141.364	0.404	0.051
-486.449	-6.106	0.120	-0.103
-485.435	175.755	0.202	-0.367
-484.420	800.000	0.054	-0.241
-483.405	-200.000	0.038	-0.384
-482.391	-200.000	0.051	-0.358
-481.376	-77.244	0.211	-0.091
-480.362	102.415	-0.239	0.349
-479.347	338.334	-0.156	0.381
-478.332	-111.791	-0.579	0.145
-477.318	-200.000	0.065	0.440
-476.303	800.000	0.098	0.350
-475.289	800.000	0.111	0.564
-474.274	-30.310	0.255	-0.181
-473.259	-102.577	-0.547	0.162
-472.245	-200.000	0.071	0.540
-471.230	-123.337	0.271	0.053
-470.216	62.460	-0.259	-0.323
-469.201	-110.723	0.249	0.064
-468.186	800.000	0.053	-0.280
-467.172	800.000	0.143	-0.508
-466.157	517.854	0.119	-0.349
-465.143	-142.884	-0.471	0.056
-464.128	-70.839	0.155	0.073
-463.113	-97.704	0.049	-0.016
-462.099	-108.227	-0.179	0.048
-461.084	8.997	0.201	0.190
-460.070	-48.694	-0.217	0.130
-459.055	-53.703	-0.223	0.126
-458.040	-27.400	-0.519	-0.376
-457.026	113.430	-0.069	0.105
-456.011	-45.934	0.121	-0.074
-454.997	50.186	-0.183	0.215
-453.982	-48.755	-0.205	-0.123
-452.968	-163.861	-0.113	-0.006
-451.953	-18.031	0.299	-0.233
-450.938	170.992	-0.133	-0.239
-449.924	-155.623	0.261	0.021
-448.909	-67.135	-0.127	-0.062
-447.895	-154.093	0.106	-0.009
-446.880	-76.553	0.495	-0.216
-445.865	-54.176	0.020	0.011
-444.851	439.593	-0.177	0.484
-443.836	-200.000	-0.004	0.270
-442.822	-136.408	-0.275	0.039
-441.807	800.000	-0.118	-0.571
-440.792	-35.185	-0.377	-0.256
-439.778	800.000	-0.065	-0.344
-438.763	-120.981	0.338	-0.070
-437.749	-142.625	0.382	-0.046
-436.734	-1.395	-0.314	0.276
-435.719	-13.605	-0.151	0.122
-434.705	-39.559	0.257	-0.167
-433.690	603.138	0.131	-0.409
-432.676	-112.770	-0.155	-0.038
-431.661	141.048	-0.284	0.469
-430.646	-200.000	0.025	0.252
-429.632	-113.719	-0.112	0.027
-428.617	-51.913	0.190	-0.110
-427.603	33.033	0.414	0.447
-426.588	-200.000	0.007	0.062
-425.573	4.847	0.249	-0.228
-424.559	-44.461	-0.076	-0.047
-423.544	-98.711	-0.211	-0.067
-422.530	800.000	0.064	0.296
-421.515	191.615	0.062	-0.117
-420.500	0.858	0.056	0.050
-419.486	-34.829	-0.026	0.018
-418.471	40.599	0.027	-0.031
-417.457	800.000	-0.074	-0.315
-416.442	58.825	0.443	-0.543
-415.428	-67.189	0.487	-0.238
-414.413	227.659	0.141	-0.286
-413.398	-200.000	-0.025	-0.269
-412.384	-109.623	0.186	-0.048
-411.369	522.909	0.187	0.550
-410.355	98.886	0.094	0.136
-409.340	-157.918	-0.548	0.040
-408.325	-94.604	0.516	0.174
-407.311	-150.473	0.286	0.027
-406.296	-200.000	-0.031	0.196
-405.282	286.723	-0.196	0.441
-404.267	-200.000	0.046	0.445
-403.252	-181.248	0.180	-0.004
-402.238	-40.640	-0.139	0.089
-401.223	-106.386	-0.387	0.107
-400.209	-153.182	-0.341	-0.029
-399.194	-34.427	0.315	0.214
-398.179	-53.060	0.098	-0.056
-397.165	254.890	-0.070	0.150
-396.150	-115.695	-0.508	-0.117
-395.136	-121.892	0.051	0.010
-394.121	712.854	-0.074	-0.246
-393.106	-93.901	-0.234	-0.079
-392.092	-26.980	-0.295	-0.214
-391.077	137.998	-0.171	0.279
-390.063	244.855	0.073	0.154
-389.048	42.785	0.129	-0.147
-388.033	-126.871	0.743	-0.135
-387.019	261.360	-0.215	0.464
-386.004	-82.568	-0.093	-0.037
-384.990	502.627	0.040	0.117
-383.975	273.112	0.201	-0.443
-382.960	-154.948	0.623	0.050
-381.946	73.639	-0.213	0.278
-380.931	-82.001	0.063	-0.026
-379.917	800.000	0.031	0.150
-378.902	-57.357	0.267	-0.145
-377.888	-110.365	0.614	0.157
-376.873	41.858	-0.377	0.425
-375.858	-8.590	-0.321	-0.268
-374.844	-64.068	0.419	-0.212
-373.829	121.717	0.250	0.388
-372.815	-200.000	-0.006	0.259
-371.800	-104.163	0.567	-0.163
-370.785	-111.558	0.303	0.076
-369.771	800.000	0.111	0.406
-368.756	263.148	0.128	0.277
-367.742	-29.553	0.325	-0.231
-366.727	233.906	-0.285	0.586
-365.712	-110.773	-0.463	-0.118
-364.698	800.000	0.065	0.338
-363.683	249.384	-0.099	-0.208
-362.669	99.452	-0.354	-0.510
-361.654	800.000	-0.153	0.554
-360.639	-180.972	-0.326	0.008
-359.625	-125.934	0.139	0.026
-358.610	-80.014	-0.055	0.023
-357.596	-39.175	0.401	0.261
-356.581	-85.769	0.235	0.090
-355.566	-200.000	0.009	0.298
-354.552	-87.256	-0.250	0.094
-353.537	-200.000	-0.009	0.062
-352.523	-139.833	0.298	-0.039
-351.508	-200.000	0.010	-0.114
-350.493	-200.000	0.007	-0.158
-349.479	21.905	0.431	0.436
-348.464	-97.851	0.430	0.137
-347.450	-200.000	0.030	0.198
-346.435	280.848	0.156	0.348
-345.420	-157.101	0.536	0.040
-344.406	-26.271	0.169	-0.123
-343.391	51.859	-0.087	0.103
-342.377	121.405	-0.102	0.158
-341.362	800.000	0.079	-0.349
-340.348	800.000	0.069	-0.352
-339.333	38.233	-0.151	0.167
-338.318	-32.889	-0.179	0.123
-337.304	-171.162	-0.425	-0.018
-336.289	351.553	-0.045	-0.111
-335.275	72.383	-0.205	-0.266
-334.260	-200.000	-0.005	-0.086
-333.245	-200.000	0.030	-0.348
-332.231	23.816	-0.059	-0.060
-331.216	-200.000	-0.033	0.198
-330.202	-150.834	-0.222	-0.021
-329.187	800.000	-0.066	-0.238
-328.172	-200.000	0.028	0.419
-327.158	-200.000	-0.024	-0.291
-326.143	-23.885	-0.209	0.155
-325.129	-49.880	-0.300	-0.176
-324.114	-22.132	0.304	-0.228
-323.099	136.170	-0.263	0.426
-322.085	303.088	0.169	-0.390
-321.070	-200.000	-0.119	0.000
-320.056	-111.865	0.051	0.013
-319.041	788.355	0.084	0.287
-318.026	-89.120	0.054	0.020
-317.012	263.377	0.250	-0.540
-315.997	-200.000	0.043	-0.348
-314.983	-174.196	0.285	-0.010
-313.968	31.768	-0.290	-0.310
-312.953	-30.709	-0.192	-0.135
-311.939	-32.450	-0.395	-0.273
-310.924	84.801	0.408	-0.555
-309.910	800.000	0.068	-0.236
-308.895	-2.284	-0.173	-0.150
-307.880	-105.331	0.296	-0.083
-306.866	-14.321	0.383	0.306
-305.851	110.645	-0.238	-0.356
-304.837	51.980	-0.142	0.168
-303.822	-191.981	0.554	0.007
-302.807	205.926	0.064	-0.123
-301.793	-92.160	0.126	0.044
-300.778	-60.506	0.457	-0.240
-299.764	-77.634	-0.273	-0.117
-298.749	503.834	0.122	-0.353
-297.735	-26.925	-0.224	-0.162
-296.720	41.914	0.063	-0.071
-295.705	-11.062	0.100	-0.081
-294.691	-171.128	0.357	-0.015
-293.676	160.102	-0.016	0.027
-292.662	758.048	-0.096	0.323
-291.647	-200.000	0.009	0.252
-290.632	-82.541	0.177	0.071
-289.618	-200.000	0.007	-0.045
-288.603	76.176	-0.231	-0.303
-287.589	136.603	0.275	-0.446
-286.574	535.726	-0.106	-0.312
-285.559	-200.000	0.005	0.097
-284.545	-80.192	-0.212	0.088
-283.530	-200.000	-0.090	0.513
-282.516	40.138	0.558	-0.621
-281.501	800.000	0.019	-0.070
-280.486	-147.223	-0.142	0.015
-279.472	-42.243	-0.090	-0.057
-278.457	224.960	0.164	-0.330
-277.443	-38.997	-0.101	0.066
-276.428	74.448	-0.050	0.065
-275.413	-200.000	-0.029	0.339
-274.399	-114.570	0.389	0.092
-273.384	-9.624	0.280	0.231
-272.370	-187.387	0.458	-0.007
-271.355	720.734	0.035	-0.115
-270.340	-70.610	0.522	-0.243
-269.326	-23.134	0.110	-0.082
-268.311	-6.671	-0.077	0.065
-267.297	546.115	0.008	0.024
-266.282	-200.000	-0.004	-0.392
-265.267	-200.000	-0.009	-0.132
-264.253	167.030	-0.061	-0.107
-263.238	-73.035	-0.030	0.014
-262.224	323.274	0.151	-0.358
-261.209	155.432	-0.036	-0.062
-260.195	800.000	-0.105	-0.496
-259.180	-20.309	-0.291	-0.221
-258.165	-126.976	-0.159	-0.029
-257.151	-200.000	0.179	-0.001
-256.136	161.146	0.323	-0.561
-255.122	99.612	0.215	-0.308
-254.107	308.973	0.068	-0.158
-253.092	132.837	-0.120	0.191
-252.078	-200.000	-0.024	-0.134
-251.063	10.469	0.241	-0.227
-250.049	-7.203	-0.482	0.404
-249.034	471.241	0.116	0.325
-248.019	57.353	-0.234	0.283
-247.005	-52.577	-0.171	0.097
-245.990	-19.190	-0.358	-0.274
-244.976	723.110	0.070	-0.233
-243.961	-135.453	-0.270	0.039
-242.946	10.931	-0.277	0.262
-241.932	-37.457	-0.168	-0.110
-240.917	-115.327	-0.303	0.070
-239.903	-20.172	-0.328	-0.250
-238.888	-120.487	-0.391	-0.081
-237.873	232.168	0.095	0.193
-236.859	361.485	0.185	-0.461
-235.844	-17.511	-0.229	-0.178
-234.830	-200.000	-0.027	-0.315
-233.815	-71.014	-0.060	0.028
-232.800	-97.928	0.098	-0.031
-231.786	-163.081	-0.119	-0.007
-230.771	-200.000	-0.015	-0.264
-229.757	317.143	0.212	0.499
-228.742	-47.093	-0.127	-0.077
-227.727	-200.000	-0.023	0.215
-226.713	-8.665	-0.188	0.156
-225.698	641.904	-0.119	0.377
-224.684	5.961	0.299	0.273
-223.669	41.765	0.057	-0.063
-222.655	-77.893	-0.304	-0.129
-221.640	154.321	-0.085	-0.144
-220.625	-109.904	0.219	-0.056
-219.611	-200.000	-0.081	-0.602
-218.596	800.000	-0.078	-0.283
-217.582	-42.203	0.168	-0.106
-216.567	-97.003	0.400	-0.129
-215.552	-79.909	-0.191	-0.079
-214.538	800.000	0.067	-0.326
-213.523	19.899	0.077	0.077
-212.509	32.533	0.387	0.413
-211.494	453.244	0.126	0.347
-210.479	-79.655	0.521	0.216
-209.465	-191.932	0.201	-0.002
-208.450	355.623	0.092	0.228
-207.436	-125.082	0.274	-0.051
-206.421	-189.782	0.197	-0.003
-205.406	474.316	-0.027	0.075
-204.392	-32.176	0.240	-0.165
-203.377	126.783	0.204	-0.320
-202.363	800.000	-0.068	-0.281
-201.348	16.151	-0.188	-0.183
-200.333	-149.296	0.440	0.043
-199.319	-10.073	-0.144	-0.118
-198.304	800.000	0.018	0.078
-197.290	-65.917	0.477	-0.235
-196.275	-5.180	0.108	0.092
-195.260	-14.957	0.182	0.144
-194.246	-114.549	0.422	0.099
-193.231	82.053	-0.396	-0.530
-192.217	-16.313	0.728	-0.569
-191.202	71.067	0.273	0.350
-190.187	610.735	-0.131	0.407
-189.173	800.000	-0.017	-0.065
-188.158	405.994	-0.058	-0.151
-187.144	-167.508	0.270	0.013
-186.129	2.034	0.193	0.172
-185.114	20.959	0.348	-0.349
-184.100	-36.502	0.169	0.112
-183.085	439.373	-0.097	0.263
-182.071	-1.309	-0.164	0.143
-181.056	-200.000	0.024	-0.205
-180.042	-127.803	-0.214	0.038
-179.027	-11.497	-0.325	-0.264
-178.012	-38.744	0.439	-0.285
-176.998	800.000	-0.114	0.488
-175.983	65.301	0.113	0.141
-174.969	49.436	-0.288	-0.335
-173.954	-101.064	-0.270	0.081
-172.939	15.172	-0.427	0.413
-171.925	-144.610	0.247	-0.028
-170.910	800.000	0.085	0.300
-169.896	485.012	0.065	0.184
-168.881	-125.377	0.227	0.042
-167.866	-68.658	0.326	-0.155
-166.852	74.011	-0.563	0.730
-165.837	-92.922	-0.559	-0.191
-164.823	800.000	0.076	-0.384
-163.808	-63.624	0.342	0.172
-162.793	14.579	-0.291	0.280
-161.779	123.453	0.134	0.207
-160.764	-200.000	-0.064	0.397
-159.750	-23.191	0.235	-0.174
-158.735	-72.473	0.317	-0.144
-157.720	-163.701	0.183	0.010
-156.706	-53.080	0.105	0.059
-155.691	167.037	-0.085	0.149
-154.677	72.194	0.120	0.154
-153.662	173.835	-0.076	0.135
-152.647	-32.834	0.109	0.074
-151.633	-65.059	0.306	-0.151
-150.618	40.865	0.097	0.107
-149.604	218.192	-0.198	-0.390
-148.589	-128.025	-0.477	0.083
-147.574	457.967	0.087	0.238
-146.560	-120.210	0.369	-0.077
-145.545	-200.000	-0.022	-0.196
-144.531	-34.836	0.294	-0.198
-143.516	-66.258	-0.039	-0.019
-142.502	-19.966	0.036	0.027
-141.487	-71.851	0.211	-0.096
-140.472	79.643	0.253	0.335
-139.458	-200.000	0.027	-0.641
-138.443	800.000	0.115	-0.468
-137.429	630.562	-0.058	0.182
-136.414	-200.000	0.017	0.110
-135.399	-40.179	-0.361	0.231
-134.385	354.826	0.069	0.170
-133.370	80.689	0.152	-0.202
-132.356	54.026	0.018	0.021
-131.341	-110.196	-0.199	0.051
-130.326	291.720	0.104	-0.235
-129.312	-151.052	0.273	0.025
-128.297	-179.491	0.278	0.007
-127.283	9.267	0.305	-0.284
-126.268	740.218	-0.090	-0.300
-125.253	-121.144	-0.238	-0.049
-124.239	-200.000	-0.048	-0.350
-123.224	210.091	0.195	-0.378
-122.210	-126.715	0.198	0.036
-121.195	-88.533	0.094	-0.034
