DTS Sentinel unit serial number:	SN409020Multiplexer serial number:	ORYXHardware model number:	OX4-SRSoftware version number:	ORYX F/W v3.00 Oryx Data Collector v3.7.2.0data status	okinstallation	HaddamTimeLapsedifferential loss correction	single-endedforward channel	channel 3reverse channel	N/Adate	2011/06/22time	03:36:16forward acquisition time	30.00reverse acquisition time	0.00gamma	498.7831k internal	0.1751k external	0.1751temperature offset calibration	1.0074default loss term (dB/km)	0.3790temperature slope calibration	1.3530multiplexer offset coefficient	1.0000multiplexer slope coefficient	1.0000fibre end	0.00T internal ref (°C)	22.37T ext. ref 1 (°C)	17.94T ext. ref 2 (°C)	0.08length (m)	temperature (°C)	Stokes	anti-Stokes-747.200	-58.429	0.192	0.111
-746.185	451.229	0.139	0.411
-745.171	-154.002	-0.155	-0.014
-744.156	800.000	0.113	0.543
-743.142	-165.568	-0.214	0.012
-742.127	-7.975	0.141	0.126
-741.112	-155.550	0.226	0.019
-740.098	-21.167	0.714	0.579
-739.083	-101.442	0.040	0.013
-738.069	34.372	0.335	0.389
-737.054	-107.737	-0.533	-0.153
-736.039	384.704	0.197	-0.543
-735.025	-102.645	0.460	0.145
-734.010	-184.672	0.421	-0.009
-732.996	-51.732	0.426	0.263
-731.981	-66.125	-0.308	0.162
-730.966	-200.000	-0.022	0.194
-729.952	-62.428	0.212	-0.117
-728.937	800.000	-0.012	-0.068
-727.923	-125.481	-0.170	0.034
-726.908	-200.000	0.014	0.153
-725.894	70.076	0.223	0.306
-724.879	205.235	0.291	-0.602
-723.864	800.000	0.053	-0.296
-722.850	-120.745	-0.262	-0.058
-721.835	-20.764	-0.090	-0.074
-720.821	-89.299	-0.533	0.208
-719.806	-200.000	0.012	-0.414
-718.791	-28.228	0.244	0.186
-717.777	428.057	-0.172	0.494
-716.762	-141.531	-0.124	0.016
-715.748	-167.798	-0.446	-0.023
-714.733	-98.916	-0.220	0.074
-713.718	800.000	0.063	0.296
-712.704	-200.000	-0.047	0.373
-711.689	494.962	-0.065	-0.200
-710.675	36.523	-0.201	0.235
-709.660	-11.241	0.041	-0.035
-708.645	-142.456	-0.457	0.059
-707.631	-112.571	-0.293	-0.077
-706.616	-200.000	-0.004	-0.116
-705.602	-8.290	0.046	-0.041
-704.587	178.110	-0.343	-0.666
-703.572	-1.508	0.229	-0.214
-702.558	-139.653	0.376	0.053
-701.543	190.252	-0.051	0.101
-700.529	49.896	0.243	0.304
-699.514	57.994	-0.095	-0.123
-698.499	-200.000	-0.009	-0.178
-697.485	-91.779	0.304	0.114
-696.470	-150.684	-0.170	-0.017
-695.456	-156.463	-0.617	-0.050
-694.441	294.785	-0.176	-0.428
-693.426	383.331	0.207	-0.566
-692.412	374.605	-0.234	-0.634
-691.397	-3.080	0.077	-0.071
-690.383	-91.086	-0.050	-0.019
-689.368	-64.988	0.093	0.049
-688.354	502.096	0.189	-0.581
-687.339	491.288	0.180	0.549
-686.324	-83.791	0.194	-0.081
-685.310	-26.824	0.185	-0.143
-684.295	-200.000	0.040	-0.277
-683.281	-121.984	-0.623	0.135
-682.266	800.000	-0.051	-0.274
-681.251	92.028	-0.163	-0.244
-680.237	-85.361	-0.176	-0.072
-679.222	-113.033	0.264	0.069
-678.208	132.315	-0.148	0.254
-677.193	57.738	0.173	-0.224
-676.178	-115.660	-0.401	0.099
-675.164	-30.445	-0.189	-0.142
-674.149	280.106	0.054	0.128
-673.135	199.628	0.346	-0.706
-672.120	-200.000	-0.040	-0.302
-671.105	-100.291	0.140	0.046
-670.091	223.323	-0.077	-0.165
-669.076	-16.704	0.392	-0.328
-668.062	-200.000	-0.018	-0.313
-667.047	59.540	-0.214	0.280
-666.032	362.820	0.113	0.301
-665.018	-200.000	0.005	-0.103
-664.003	-31.518	-0.503	-0.373
-662.989	-200.000	0.010	-0.288
-661.974	-200.000	0.038	-0.365
-660.959	35.973	-0.049	-0.057
-659.945	-200.000	-0.046	0.288
-658.930	-12.178	-0.267	-0.231
-657.916	41.878	0.121	-0.145
-656.901	212.441	-0.280	-0.585
-655.886	4.060	-0.398	-0.385
-654.872	-73.787	-0.271	-0.130
-653.857	-114.805	0.592	-0.148
-652.843	-144.963	0.377	0.045
-651.828	-173.541	-0.197	0.008
-650.814	-103.745	0.398	0.122
-649.799	-200.000	-0.012	0.107
-648.784	800.000	-0.073	-0.276
-647.770	262.581	-0.094	-0.217
-646.755	-42.278	-0.214	-0.144
-645.741	-147.856	0.622	0.068
-644.726	-125.613	-0.429	0.085
-643.711	32.935	-0.543	0.622
-642.697	-69.380	0.397	-0.201
-641.682	-124.665	-0.293	0.060
-640.668	323.789	0.006	0.015
-639.653	-42.782	0.191	0.128
-638.638	800.000	-0.017	0.065
-637.624	-39.236	0.227	0.157
-636.609	-200.000	0.029	-0.393
-635.595	-54.388	-0.230	0.138
-634.580	-84.673	-0.822	-0.341
-633.565	-3.032	0.064	0.059
-632.551	-200.000	0.004	0.644
-631.536	-16.032	0.500	0.420
-630.522	167.428	-0.044	0.082
-629.507	122.303	0.292	-0.483
-628.492	-42.764	0.207	0.139
-627.478	205.296	-0.087	0.179
-626.463	-200.000	0.014	-0.168
-625.449	-200.000	0.031	-0.292
-624.434	-200.000	-0.019	-0.167
-623.419	182.154	0.126	-0.246
-622.405	241.661	-0.081	0.179
-621.390	-109.297	-0.258	-0.072
-620.376	-200.000	0.019	-0.225
-619.361	-111.355	-0.477	-0.128
-618.346	113.980	-0.100	0.161
-617.332	-95.083	0.243	-0.086
-616.317	480.792	0.145	-0.438
-615.303	-85.128	-0.530	0.218
-614.288	52.063	-0.073	0.091
-613.273	-50.672	-0.669	0.415
-612.259	310.745	-0.125	-0.311
-611.244	-129.116	0.408	-0.075
-610.230	-40.116	0.345	-0.237
-609.215	800.000	0.068	-0.308
-608.201	277.447	-0.044	0.104
-607.186	215.445	0.088	0.185
-606.171	-78.231	0.756	0.341
-605.157	-23.231	-0.393	0.312
-604.142	-189.742	0.428	-0.006
-603.128	125.623	-0.132	0.221
-602.113	-145.061	-0.527	-0.063
-601.098	-200.000	-0.002	0.158
-600.084	-140.015	-0.119	0.016
-599.069	157.272	-0.078	0.142
-598.055	-122.050	-0.245	-0.053
-597.040	-40.462	0.093	-0.064
-596.025	67.502	-0.108	0.146
-595.011	87.157	0.119	0.174
-593.996	-200.000	0.010	0.379
-592.982	-1.015	0.225	-0.210
-591.967	800.000	-0.038	-0.191
-590.952	794.418	0.074	0.269
-589.938	-100.017	0.187	0.061
-588.923	800.000	-0.039	-0.188
-587.909	-111.218	0.289	-0.077
-586.894	2.822	0.471	0.451
-585.879	-6.556	-0.330	-0.296
-584.865	-183.371	0.386	0.009
-583.850	-200.000	-0.481	0.000
-582.836	25.142	-0.044	-0.048
-581.821	-69.335	0.088	-0.044
-580.806	-60.441	0.206	-0.115
-579.792	-55.478	0.112	0.066
-578.777	10.923	0.192	-0.194
-577.763	-53.067	-0.441	0.267
-576.748	-94.789	-0.482	-0.172
-575.733	-113.797	-0.187	0.048
-574.719	-143.694	-0.472	0.058
-573.704	800.000	-0.078	-0.427
-572.690	121.422	0.240	0.396
-571.675	83.233	-0.153	-0.221
-570.661	-93.677	0.199	-0.072
-569.646	-47.112	0.282	0.181
-568.631	-123.627	-0.504	0.105
-567.617	-49.117	-0.212	-0.133
-566.602	800.000	-0.181	-0.690
-565.588	-200.000	0.031	-0.380
-564.573	-200.000	-0.055	-0.378
-563.558	-79.847	0.152	-0.067
-562.544	-61.726	-0.209	-0.115
-561.529	5.182	-0.346	-0.336
-560.515	-200.000	0.079	-0.505
-559.500	190.131	-0.115	-0.229
-558.485	-53.972	-0.609	0.365
-557.471	-167.604	0.508	-0.026
-556.456	-104.241	-0.428	-0.130
-555.442	800.000	0.043	0.179
-554.427	-0.511	0.273	0.255
-553.412	-41.912	-0.180	-0.121
-552.398	-140.379	-0.465	-0.063
-551.383	-200.000	0.061	0.364
-550.369	-30.330	0.047	-0.035
-549.354	-161.401	0.313	-0.021
-548.339	-200.000	-0.037	-0.372
-547.325	128.385	-0.265	-0.445
-546.310	336.767	-0.041	0.107
-545.296	-200.000	0.056	-0.370
-544.281	-106.355	-0.184	0.054
-543.266	-200.000	0.045	-0.355
-542.252	800.000	-0.062	-0.359
-541.237	-128.204	0.238	0.044
-540.223	-15.669	-0.107	-0.090
-539.208	430.811	-0.152	0.436
-538.193	-200.000	0.021	-0.266
-537.179	15.003	0.167	-0.172
-536.164	800.000	0.026	0.114
-535.150	108.047	-0.172	-0.271
-534.135	80.400	-0.067	0.095
-533.121	-0.131	-0.046	-0.044
-532.106	-86.151	-0.403	-0.163
-531.091	294.548	-0.127	-0.306
-530.077	148.502	-0.343	0.612
-529.062	466.325	-0.094	0.279
-528.048	-100.901	-0.217	-0.070
-527.033	-200.000	0.011	0.191
-526.018	79.516	0.157	-0.222
-525.004	-20.799	-0.122	0.098
-523.989	49.832	-0.166	-0.206
-522.975	-115.485	-0.141	0.035
-521.960	-70.906	-0.102	-0.050
-520.945	-156.005	-0.455	0.037
-519.931	-85.836	-0.534	-0.217
-518.916	-33.363	-0.256	-0.186
-517.902	22.273	-0.441	-0.474
-516.887	-98.339	-0.361	0.121
-515.872	81.267	0.189	0.269
-514.858	-22.927	0.315	0.250
-513.843	-76.196	-0.472	-0.218
-512.829	-9.502	0.294	0.258
-511.814	503.246	-0.056	-0.172
-510.799	64.064	0.281	0.373
-509.785	21.944	-0.082	0.088
-508.770	-48.727	-0.297	-0.187
-507.756	-200.000	-0.096	-0.564
-506.741	-136.621	-0.022	-0.003
-505.726	672.652	-0.074	-0.253
-504.712	10.094	-0.245	-0.245
-503.697	-145.562	-0.308	-0.036
-502.683	-103.116	0.172	0.053
-501.668	-66.168	-0.074	0.039
-500.653	-75.300	-0.225	-0.105
-499.639	43.747	-0.461	0.556
-498.624	693.409	-0.079	-0.274
-497.610	800.000	0.076	-0.390
-496.595	26.748	0.256	0.282
-495.581	86.882	0.132	-0.192
-494.566	513.571	0.046	0.143
-493.551	-110.439	0.198	0.054
-492.537	651.745	0.079	0.267
-491.522	-15.997	-0.098	-0.082
-490.508	-99.914	-0.322	-0.105
-489.493	-59.630	0.097	-0.054
-488.478	-34.134	0.108	-0.078
-487.464	-158.768	0.409	-0.030
-486.449	-200.000	0.006	0.149
-485.435	-155.993	0.645	-0.053
-484.420	336.169	0.047	-0.121
-483.405	103.453	0.032	0.050
-482.391	185.911	0.185	0.363
-481.376	-157.642	0.345	-0.027
-480.362	-200.000	-0.018	0.423
-479.347	-123.474	0.210	-0.044
-478.332	364.288	0.115	0.306
-477.318	-134.443	-0.341	-0.054
-476.303	211.234	0.087	0.180
-475.289	-33.872	0.135	-0.097
-474.274	-198.494	-0.127	0.001
-473.259	-111.188	0.347	0.093
-472.245	-200.000	-0.004	-0.092
-471.230	-74.181	-0.229	0.108
-470.216	-143.809	0.407	-0.050
-469.201	-47.475	-0.692	0.441
-468.186	-114.589	0.460	0.115
-467.172	-200.000	0.037	-0.245
-466.157	-46.070	-0.311	0.201
-465.143	-141.739	0.289	-0.038
-464.128	-200.000	0.096	0.678
-463.113	-69.300	-0.149	-0.075
-462.099	-59.188	0.373	0.210
-461.084	184.225	0.110	0.214
-460.070	-200.000	-0.009	0.362
-459.055	-176.177	0.111	0.004
-458.040	-2.909	0.198	-0.182
-457.026	-142.722	0.411	-0.052
-456.011	50.739	-0.282	0.351
-454.997	-53.659	0.147	-0.088
-453.982	-51.622	0.372	0.227
-452.968	159.630	0.094	0.173
-451.953	-107.398	0.269	-0.077
-450.938	-200.000	-0.011	-0.379
-449.924	-76.256	0.200	0.092
-448.909	-99.094	0.500	0.165
-447.895	-200.000	-0.012	-0.359
-446.880	-200.000	0.046	0.332
-445.865	-93.877	-0.398	-0.143
-444.851	293.093	0.040	0.095
-443.836	61.802	-0.188	0.246
-442.822	-200.000	0.083	-0.483
-441.807	800.000	0.054	-0.303
-440.792	63.853	0.248	-0.328
-439.778	-200.000	0.003	0.354
-438.763	-33.405	-0.502	-0.364
-437.749	-114.161	-0.414	-0.104
-436.734	84.716	-0.280	0.402
-435.719	-133.449	0.581	0.095
-434.705	458.706	0.149	0.436
-433.690	551.302	0.201	0.637
-432.676	-81.809	0.152	-0.065
-431.661	-200.000	0.069	0.477
-430.646	-103.437	0.290	-0.089
-429.632	-143.825	0.432	-0.053
-428.617	-138.431	-0.214	-0.031
-427.603	-200.000	0.011	-0.505
-426.588	199.876	-0.125	-0.253
-425.573	224.954	0.087	0.184
-424.559	14.794	-0.146	-0.150
-423.544	-117.590	-0.359	-0.084
-422.530	482.964	-0.148	0.443
-421.515	-54.231	-0.089	-0.053
-420.500	329.366	0.030	0.076
-419.486	-173.689	0.298	0.011
-418.471	-68.205	-0.121	0.061
-417.457	52.603	-0.227	0.284
-416.442	-184.416	0.046	0.001
-415.428	-200.000	-0.093	0.627
-414.413	34.323	0.429	0.491
-413.398	-159.875	-0.122	0.009
-412.384	-74.584	-0.149	-0.070
-411.369	-5.323	-0.298	0.269
-410.355	-24.329	-0.307	0.239
-409.340	142.238	-0.128	-0.223
-408.325	-200.000	0.016	-0.272
-407.311	-200.000	-0.018	0.598
-406.296	-92.424	-0.098	-0.036
-405.282	-200.000	0.141	-0.000
-404.267	800.000	0.172	0.780
-403.252	-59.139	-0.061	-0.034
-402.238	159.650	0.198	-0.363
-401.223	-200.000	0.030	-0.238
-400.209	416.877	-0.192	0.541
-399.194	-97.337	-0.508	0.173
-398.179	-39.618	-0.189	-0.129
-397.165	225.098	0.228	0.486
-396.150	-105.625	0.274	0.081
-395.136	800.000	0.014	0.062
-394.121	-162.430	-0.195	0.012
-393.106	119.243	-0.166	-0.270
-392.092	-121.508	-0.597	0.129
-391.077	-71.075	0.558	0.274
-390.063	345.375	-0.092	-0.237
-389.048	80.956	-0.187	0.265
-388.033	-135.863	-0.235	-0.036
-387.019	-150.375	-0.255	-0.025
-386.004	500.565	0.079	-0.239
-384.990	-91.366	-0.489	-0.182
-383.975	-153.120	-0.250	0.023
-382.960	-57.895	0.157	-0.089
-381.946	324.014	-0.152	0.381
-380.931	-67.936	-0.396	0.202
-379.917	192.348	0.223	-0.441
-378.902	56.604	-0.065	0.083
-377.888	15.241	-0.309	0.318
-376.873	-179.916	-0.590	-0.016
-375.858	-21.237	0.134	-0.107
-374.844	111.283	0.205	-0.324
-373.829	-200.000	0.002	0.314
-372.815	-200.000	-0.010	0.139
-371.800	-200.000	0.007	0.540
-370.785	479.545	-0.127	0.378
-369.771	800.000	0.019	0.096
-368.756	50.675	0.420	0.521
-367.742	800.000	0.043	0.172
-366.727	-157.726	-0.284	-0.022
-365.712	-50.413	0.193	0.119
-364.698	-125.533	-0.127	0.025
-363.683	9.255	-0.227	-0.224
-362.669	43.117	0.182	0.217
-361.654	-200.000	-0.014	-0.334
-360.639	-93.610	-0.095	-0.034
-359.625	-175.399	0.446	-0.016
-358.610	73.544	0.274	-0.376
-357.596	-55.712	0.422	-0.246
-356.581	-153.433	-0.291	0.026
-355.566	-195.115	-0.359	-0.003
-354.552	-200.000	-0.035	0.515
-353.537	-4.631	0.275	0.248
-352.523	23.237	0.397	0.427
-351.508	5.738	0.322	0.311
-350.493	-158.207	0.206	-0.016
-349.479	-41.580	0.065	-0.043
-348.464	694.146	-0.199	-0.688
-347.450	142.375	0.099	0.172
-346.435	-37.096	-0.104	0.073
-345.420	39.932	0.281	-0.330
-344.406	-2.665	0.194	-0.177
-343.391	-137.053	0.401	0.059
-342.377	-159.015	0.227	0.017
-341.362	102.189	0.125	-0.191
-340.348	800.000	-0.043	0.237
-339.333	795.188	0.074	0.269
-338.318	-170.048	-0.380	0.017
-337.304	89.186	-0.009	-0.013
-336.289	-125.870	0.213	-0.042
-335.275	-5.142	0.290	-0.261
-334.260	-178.526	0.407	-0.012
-333.245	-87.670	0.222	0.087
-332.231	-82.832	-0.601	0.253
-331.216	-55.501	-0.339	-0.198
-330.202	800.000	-0.049	-0.178
-329.187	-127.379	0.378	0.071
-328.172	274.093	0.038	0.087
-327.158	674.712	-0.205	0.699
-326.143	105.932	-0.221	0.342
-325.129	-31.300	0.127	-0.093
-324.114	131.072	0.059	-0.099
-323.099	-33.034	0.267	-0.193
-322.085	-43.221	-0.145	0.096
-321.070	-0.388	0.230	-0.213
-320.056	305.063	0.324	-0.789
-319.041	-18.240	-0.630	-0.514
-318.026	10.814	-0.319	0.318
-317.012	551.288	0.156	-0.492
-315.997	-129.575	-0.384	-0.069
-314.983	18.526	0.148	0.155
-313.968	-200.000	-0.013	-0.554
-312.953	-128.983	-0.098	0.018
-311.939	-200.000	0.087	-0.600
-310.924	-43.103	0.429	-0.283
-309.910	-5.534	0.376	0.337
-308.895	454.866	-0.068	0.199
-307.880	218.119	-0.118	-0.247
-306.866	301.950	0.091	-0.222
-305.851	-40.460	-0.235	-0.159
-304.837	-184.594	-0.063	0.001
-303.822	-20.963	0.435	0.347
-302.807	-92.141	0.731	-0.268
-301.793	-123.455	0.250	-0.052
-300.778	-9.171	-0.128	0.112
-299.764	-84.378	-0.158	-0.065
-298.749	-140.131	0.175	0.024
-297.735	800.000	-0.075	-0.316
-296.720	271.145	-0.213	-0.492
-295.705	134.709	-0.203	-0.345
-294.691	800.000	-0.077	-0.433
-293.676	-159.768	-0.301	0.021
-292.662	142.665	0.134	-0.233
-291.647	98.585	-0.188	0.284
-290.632	226.841	0.101	0.214
-289.618	0.883	0.016	-0.015
-288.603	-200.000	-0.005	0.241
-287.589	-200.000	0.001	0.299
-286.574	-200.000	0.073	0.432
-285.559	-72.381	0.279	0.134
-284.545	679.524	0.121	-0.412
-283.530	146.429	0.121	0.213
-282.516	-36.713	0.430	-0.301
-281.501	-89.486	0.246	-0.094
-280.486	-83.681	0.112	-0.046
-279.472	569.532	0.012	-0.039
-278.457	-58.839	-0.282	0.159
-277.443	-119.235	0.498	-0.112
-276.428	800.000	0.041	-0.192
-275.413	63.261	0.189	0.247
-274.399	270.278	0.167	0.384
-273.384	60.743	0.221	-0.286
-272.370	8.840	-0.225	0.221
-271.355	-101.641	-0.041	-0.013
-270.340	-200.000	-0.046	-0.402
-269.326	33.441	0.575	0.651
-268.311	42.223	0.383	0.454
-267.297	72.191	0.312	-0.424
-266.282	27.645	0.080	0.088
-265.267	-22.897	0.087	0.069
-264.253	-144.863	-0.323	-0.038
-263.238	-71.730	-0.285	0.138
-262.224	178.335	0.159	0.304
-261.209	-102.174	0.411	-0.128
-260.195	-119.486	0.148	0.033
-259.180	-145.118	0.321	-0.038
-258.165	134.747	0.063	0.106
-257.151	115.322	0.190	-0.303
-256.136	123.864	-0.134	-0.220
-255.122	-63.376	0.390	0.208
-254.107	-88.904	-0.477	0.183
-253.092	445.957	0.089	-0.255
-252.078	800.000	0.056	0.312
-251.063	-185.841	-0.220	-0.004
-250.049	442.816	-0.154	0.442
-249.034	-72.066	-0.091	0.044
-248.019	-86.145	-0.092	-0.037
-247.005	-32.344	-0.307	0.223
-245.990	800.000	-0.037	0.166
-244.976	-117.094	0.595	0.140
-243.961	-200.000	-0.005	0.288
-242.946	-97.730	0.462	0.155
-241.932	-104.395	0.287	0.086
-240.917	10.077	0.197	0.195
-239.903	14.038	-0.337	0.342
-238.888	78.170	0.289	-0.402
-237.873	800.000	-0.077	-0.408
-236.859	40.740	0.371	-0.435
-235.844	109.755	-0.149	-0.232
-234.830	96.184	-0.251	-0.374
-233.815	516.850	-0.105	-0.321
-232.800	27.273	-0.150	0.164
-231.786	-106.008	-0.186	-0.054
-230.771	800.000	-0.099	-0.500
-229.757	-74.179	-0.265	0.124
-228.742	214.954	0.106	0.219
-227.727	237.115	0.094	0.204
-226.713	346.280	-0.147	0.379
-225.698	-35.536	0.206	-0.145
-224.684	-8.098	-0.382	-0.335
-223.669	-127.262	0.022	-0.004
-222.655	-66.119	-0.085	-0.044
-221.640	-27.681	0.058	-0.044
-220.625	-77.281	-0.531	-0.239
-219.611	-177.029	-0.196	-0.006
-218.596	170.532	0.150	0.280
-217.582	-109.026	0.316	-0.087
-216.567	-76.573	0.326	0.148
-215.552	-95.783	0.343	0.118
-214.538	293.791	0.040	-0.096
-213.523	-20.545	0.439	-0.350
-212.509	-72.848	-0.105	0.050
-211.494	-53.051	0.133	-0.079
-210.479	-30.053	-0.375	0.277
-209.465	-25.486	-0.298	0.228
-208.450	-67.438	-0.411	-0.209
-207.436	43.360	-0.111	-0.132
-206.421	-200.000	0.011	0.364
-205.406	-98.312	0.030	-0.010
-204.392	-25.661	-0.095	0.073
-203.377	-119.219	-0.270	-0.061
-202.363	-66.429	0.416	-0.214
-201.348	-69.980	-0.402	-0.198
-200.333	176.264	0.127	-0.241
-199.319	15.899	-0.294	0.301
-198.304	-200.000	-0.067	-0.684
-197.290	-200.000	-0.038	-0.331
-196.275	-63.873	0.187	-0.099
-195.260	11.708	-0.227	0.226
-194.246	800.000	-0.044	0.172
-193.231	241.439	-0.163	-0.354
-192.217	-141.295	-0.366	-0.048
-191.202	-85.106	-0.159	0.064
-190.187	-71.752	-0.535	0.258
-189.173	82.414	-0.209	0.295
-188.158	-96.006	0.291	-0.100
-187.144	-114.058	0.157	-0.039
-186.129	54.476	0.361	-0.452
-185.114	-80.906	0.318	-0.137
-184.100	-80.638	0.304	-0.131
-183.085	800.000	-0.066	-0.283
-182.071	609.547	-0.114	0.372
-181.056	556.724	0.155	0.487
-180.042	-119.991	-0.403	0.089
-179.027	104.299	-0.170	0.261
-178.012	115.461	-0.032	-0.051
-176.998	800.000	0.025	-0.116
-175.983	548.431	-0.019	-0.059
-174.969	-116.317	0.231	-0.055
-173.954	800.000	0.117	-0.464
-172.939	19.459	0.040	0.041
-171.925	-5.762	-0.213	-0.189
-170.910	-2.730	0.173	-0.157
-169.896	-112.245	0.402	0.104
-168.881	-98.471	0.381	-0.126
-167.866	45.359	-0.358	-0.429
-166.852	-56.100	0.228	0.131
-165.837	-55.251	-0.050	-0.029
-164.823	-90.077	0.338	0.127
-163.808	-64.453	0.235	0.124
-162.793	-51.545	0.213	-0.129
-161.779	-107.530	-0.236	-0.067
-160.764	800.000	0.068	0.303
-159.750	-200.000	-0.075	-0.502
-158.735	-200.000	-0.012	-0.217
-157.720	55.180	-0.184	-0.231
-156.706	-56.168	0.540	0.311
-155.691	-81.506	0.317	-0.135
-154.677	-82.204	-0.136	0.057
-153.662	-200.000	0.046	-0.305
-152.647	-62.476	-0.159	0.085
-151.633	-200.000	-0.003	-0.060
-150.618	-129.839	-0.244	-0.043
-149.604	95.234	0.269	0.398
-148.589	800.000	0.020	-0.094
-147.574	-200.000	-0.003	-0.080
-146.560	-144.814	-0.169	0.020
-145.545	-120.804	-0.276	-0.060
-144.531	-79.299	-0.203	-0.089
-143.516	23.674	0.421	0.449
-142.502	-165.812	-0.315	-0.017
-141.487	-167.366	0.387	0.020
-140.472	-13.859	0.464	-0.389
-139.458	63.301	-0.405	-0.527
-138.443	-50.313	-0.096	-0.059
-137.429	236.603	0.177	0.382
-136.414	50.091	-0.068	-0.084
-135.399	-159.663	0.271	-0.019
-134.385	-176.760	0.509	-0.016
-133.370	143.575	0.194	0.336
-132.356	-39.602	-0.264	0.179
-131.341	-127.939	-0.101	0.019
-130.326	365.320	0.026	-0.069
-129.312	195.837	0.227	-0.449
-128.297	-145.209	0.199	-0.023
-127.283	-56.807	0.494	0.282
-126.268	242.011	-0.156	-0.340
-125.253	-200.000	-0.015	-0.312
-124.239	-131.107	0.164	0.028
-123.224	311.945	0.061	0.148
