DTS Sentinel unit serial number:	SN409020Multiplexer serial number:	ORYXHardware model number:	OX4-SRSoftware version number:	ORYX F/W v3.00 Oryx Data Collector v3.7.2.0data status	okinstallation	HaddamTimeLapsedifferential loss correction	single-endedforward channel	channel 3reverse channel	N/Adate	2011/06/22time	00:46:17forward acquisition time	30.00reverse acquisition time	0.00gamma	498.7831k internal	0.1752k external	0.1752temperature offset calibration	1.0074default loss term (dB/km)	0.3790temperature slope calibration	1.3530multiplexer offset coefficient	1.0000multiplexer slope coefficient	1.0000fibre end	0.00T internal ref (°C)	22.56T ext. ref 1 (°C)	17.95T ext. ref 2 (°C)	0.06length (m)	temperature (°C)	Stokes	anti-Stokes-747.200	15.393	-0.286	0.298
-746.185	131.149	0.058	0.099
-745.171	745.943	-0.185	-0.665
-744.156	800.000	-0.125	0.722
-743.142	88.295	-0.065	0.096
-742.127	-42.201	-0.382	-0.259
-741.112	-165.011	-0.295	0.017
-740.098	-105.449	0.521	0.156
-739.083	-70.412	-0.465	-0.233
-738.069	116.893	0.226	0.369
-737.054	-200.000	-0.021	-0.441
-736.039	-67.459	-0.141	-0.073
-735.025	-97.889	0.265	0.090
-734.010	37.167	-0.224	0.264
-732.996	-2.748	-0.270	-0.250
-731.981	51.474	-0.127	-0.160
-730.966	-200.000	0.007	0.162
-729.952	-110.192	0.403	0.111
-728.937	-93.226	-0.500	-0.183
-727.923	363.803	-0.123	-0.330
-726.908	-116.109	-0.445	0.109
-725.894	-185.714	-0.428	-0.008
-724.879	241.318	-0.041	0.091
-723.864	-200.000	0.006	0.139
-722.850	794.540	-0.079	-0.290
-721.835	-101.734	0.197	0.063
-720.821	-18.121	0.217	0.180
-719.806	-198.180	-0.235	-0.002
-718.791	6.912	-0.564	-0.557
-717.777	-153.542	0.525	-0.048
-716.762	252.689	0.116	0.263
-715.748	16.455	0.174	0.182
-714.733	-93.068	-0.236	0.087
-713.718	-200.000	-0.002	-0.366
-712.704	-91.237	0.199	0.075
-711.689	-119.950	-0.149	-0.034
-710.675	-58.586	0.319	0.183
-709.660	-70.394	0.260	0.130
-708.645	-19.499	-0.073	-0.060
-707.631	345.550	0.124	0.323
-706.616	-52.120	-0.409	0.251
-705.602	-142.271	-0.097	0.013
-704.587	-111.066	0.333	0.090
-703.572	800.000	-0.038	-0.161
-702.558	-91.211	0.287	0.109
-701.543	-53.517	0.514	0.311
-700.529	369.955	-0.196	0.529
-699.514	53.450	0.232	0.296
-698.499	85.392	-0.294	0.428
-697.485	-26.288	-0.295	0.229
-696.470	800.000	0.054	-0.297
-695.456	-14.118	-0.236	0.202
-694.441	512.944	-0.137	0.426
-693.426	25.683	0.101	-0.112
-692.412	460.548	0.083	0.245
-691.397	-200.000	0.057	-0.615
-690.383	-32.127	0.217	0.161
-689.368	-166.876	-0.571	-0.031
-688.354	11.185	-0.051	-0.051
-687.339	5.318	0.316	0.308
-686.324	211.338	0.161	0.336
-685.310	148.484	-0.115	0.207
-684.295	95.983	0.228	0.345
-683.281	-176.357	-0.230	0.008
-682.266	545.214	0.269	-0.855
-681.251	113.852	-0.293	-0.472
-680.237	-191.156	-0.315	-0.004
-679.222	-36.421	-0.055	-0.039
-678.208	41.415	-0.376	-0.451
-677.193	-144.476	0.235	-0.028
-676.178	-23.847	-0.278	-0.220
-675.164	-141.801	-0.216	0.028
-674.149	588.045	0.098	-0.321
-673.135	1.201	-0.261	-0.248
-672.120	136.197	-0.021	-0.036
-671.105	-90.532	-0.418	0.159
-670.091	223.940	-0.081	-0.174
-669.076	105.781	0.244	-0.382
-668.062	71.211	-0.408	-0.561
-667.047	-200.000	0.118	-0.001
-666.032	-200.000	-0.039	-0.282
-665.018	238.584	-0.153	0.337
-664.003	-160.601	-0.162	-0.011
-662.989	-165.177	-0.374	-0.022
-661.974	-200.000	-0.409	0.001
-660.959	-96.726	-0.670	0.232
-659.945	-21.955	0.181	0.145
-658.930	-71.475	-0.126	0.062
-657.916	344.758	0.057	-0.148
-656.901	-200.000	-0.016	-0.275
-655.886	-200.000	-0.015	-0.478
-654.872	-48.049	-0.290	-0.185
-653.857	-97.422	-0.261	-0.089
-652.843	18.675	-0.517	-0.548
-651.828	91.973	-0.143	-0.213
-650.814	-18.535	0.287	-0.236
-649.799	-200.000	-0.002	-0.145
-648.784	241.160	0.228	0.507
-647.770	-200.000	-0.009	-0.223
-646.755	15.668	0.082	-0.085
-645.741	-74.221	-0.340	0.162
-644.726	-107.088	0.346	-0.100
-643.711	800.000	-0.048	0.197
-642.697	800.000	0.088	-0.495
-641.682	191.558	0.063	0.127
-640.668	274.427	0.035	-0.083
-639.653	-62.711	-0.174	-0.095
-638.638	66.998	0.071	0.096
-637.624	800.000	0.071	-0.331
-636.609	6.452	-0.069	0.067
-635.595	210.419	0.088	-0.183
-634.580	-148.475	0.177	-0.019
-633.565	67.349	0.103	0.139
-632.551	36.650	-0.165	-0.192
-631.536	-91.339	-0.128	-0.048
-630.522	-146.415	-0.329	-0.038
-629.507	-77.097	-0.169	-0.078
-628.492	800.000	-0.095	0.499
-627.478	800.000	0.036	-0.176
-626.463	237.114	0.130	-0.286
-625.449	154.182	0.064	-0.116
-624.434	-142.300	-0.119	0.015
-623.419	-84.323	0.232	0.096
-622.405	595.764	0.116	0.383
-621.390	361.579	0.246	-0.656
-620.376	-166.238	-0.537	0.030
-619.361	-58.101	0.575	-0.330
-618.346	111.564	-0.148	-0.237
-617.332	8.790	-0.258	-0.257
-616.317	-137.869	-0.495	-0.072
-615.303	438.554	-0.064	0.186
-614.288	295.860	-0.046	-0.111
-613.273	-2.977	-0.288	0.265
-612.259	800.000	-0.126	-0.522
-611.244	-83.311	0.479	-0.202
-610.230	582.927	0.145	0.472
-609.215	64.567	-0.109	0.146
-608.201	549.804	-0.108	-0.345
-607.186	-20.607	-0.153	0.124
-606.171	-200.000	-0.051	-0.952
-605.157	-200.000	0.013	-0.162
-604.142	-28.335	-0.250	0.190
-603.128	64.227	-0.235	-0.312
-602.113	-200.000	-0.002	-0.052
-601.098	800.000	0.043	-0.160
-600.084	208.926	0.198	0.412
-599.069	-19.715	-0.111	-0.091
-598.055	800.000	-0.098	0.472
-597.040	147.762	0.251	0.449
-596.025	800.000	-0.058	0.293
-595.011	-103.076	-0.571	0.177
-593.996	-140.383	-0.455	-0.062
-592.982	-77.963	0.239	-0.108
-591.967	103.897	-0.220	-0.341
-590.952	800.000	-0.059	-0.244
-589.938	6.297	-0.345	-0.337
-588.923	135.082	-0.115	0.198
-587.909	114.757	-0.185	0.298
-586.894	546.951	0.120	0.382
-585.879	-7.498	-0.266	-0.237
-584.865	203.365	0.109	-0.223
-583.850	455.490	0.117	-0.344
-582.836	58.768	-0.289	0.375
-581.821	-162.190	-0.137	0.009
-580.806	-147.954	0.133	0.014
-579.792	61.004	0.226	-0.296
-578.777	118.179	-0.166	-0.270
-577.763	-200.000	0.200	-0.000
-576.748	-200.000	0.029	0.211
-575.733	-200.000	-0.002	0.106
-574.719	-14.235	-0.157	-0.134
-573.704	292.784	0.109	-0.262
-572.690	-127.602	0.474	-0.090
-571.675	-51.012	0.450	0.278
-570.661	71.287	0.152	0.208
-569.646	10.418	0.154	-0.154
-568.631	3.571	-0.194	-0.187
-567.617	392.515	0.065	0.180
-566.602	-33.927	-0.297	-0.215
-565.588	179.100	-0.037	-0.072
-564.573	39.297	0.288	0.340
-563.558	134.361	0.124	0.212
-562.544	189.536	0.120	-0.238
-561.529	-25.365	0.132	0.103
-560.515	168.370	0.067	0.126
-559.500	-81.562	0.347	0.150
-558.485	154.217	0.132	0.240
-557.471	109.991	-0.215	0.341
-556.456	-200.000	-0.010	0.257
-555.442	-161.086	0.307	-0.021
-554.427	-200.000	-0.034	0.323
-553.412	-175.037	-0.542	-0.020
-552.398	125.260	0.049	-0.082
-551.383	-137.417	-0.310	-0.046
-550.369	172.937	0.142	0.270
-549.354	22.065	0.285	0.306
-548.339	800.000	-0.151	-0.616
-547.325	169.108	-0.180	-0.338
-546.310	17.239	-0.211	-0.221
-545.296	-200.000	-0.049	-0.429
-544.281	-200.000	-0.067	-0.424
-543.266	-82.085	-0.343	-0.147
-542.252	-200.000	-0.017	-0.118
-541.237	326.605	0.175	-0.444
-540.223	24.917	-0.309	-0.337
-539.208	-150.878	-0.605	-0.060
-538.193	87.097	-0.154	0.224
-537.179	-100.479	0.525	0.170
-536.164	-200.000	0.018	0.447
-535.150	-83.194	-0.342	0.144
-534.135	-11.311	0.335	-0.290
-533.121	-34.628	-0.255	-0.183
-532.106	-200.000	0.003	-0.218
-531.091	-128.794	0.189	0.035
-530.077	-59.887	-0.206	0.116
-529.062	-174.631	-0.308	-0.011
-528.048	-147.070	-0.094	0.010
-527.033	-72.515	-0.277	0.134
-526.018	-200.000	0.024	-0.301
-525.004	-98.681	0.292	0.098
-523.989	-177.490	-0.622	0.020
-522.975	-200.000	-0.264	0.001
-521.960	-33.011	-0.139	0.101
-520.945	12.768	-0.312	0.317
-519.931	-137.786	0.291	0.043
-518.916	-109.100	-0.480	0.133
-517.902	-1.288	-0.458	0.425
-516.887	29.796	-0.237	0.266
-515.872	-144.466	0.252	-0.030
-514.858	-12.946	0.233	0.200
-513.843	-126.121	0.219	0.043
-512.829	-200.000	0.020	0.598
-511.814	36.237	-0.065	-0.075
-510.799	-25.144	0.385	-0.300
-509.785	-1.028	-0.092	-0.085
-508.770	-145.424	-0.522	0.061
-507.756	-105.195	0.213	-0.064
-506.741	3.347	0.141	-0.135
-505.726	84.603	-0.126	-0.181
-504.712	-110.974	0.606	0.163
-503.697	-200.000	-0.044	0.347
-502.683	288.722	0.097	-0.232
-501.668	-175.002	-0.089	-0.003
-500.653	-103.948	-0.192	-0.059
-499.639	35.858	-0.163	0.189
-498.624	26.317	0.083	0.091
-497.610	-200.000	0.015	-0.408
-496.595	-69.019	-0.114	-0.058
-495.581	66.548	0.231	0.310
-494.566	-137.158	0.256	-0.038
-493.551	800.000	-0.026	0.118
-492.537	-89.937	0.284	0.109
-491.522	800.000	0.063	0.263
-490.508	17.639	0.026	0.027
-489.493	-37.947	0.121	-0.084
-488.478	-35.067	0.225	-0.161
-487.464	-75.875	0.329	-0.152
-486.449	138.577	-0.304	-0.527
-485.435	150.045	0.130	0.232
-484.420	17.847	0.390	0.408
-483.405	515.089	0.139	0.428
-482.391	118.762	0.246	0.401
-481.376	800.000	0.149	0.666
-480.362	85.089	0.074	0.107
-479.347	-200.000	-0.039	-0.266
-478.332	-127.588	-0.231	0.044
-477.318	-117.572	-0.395	0.093
-476.303	-55.722	-0.281	0.165
-475.289	513.544	-0.037	-0.114
-474.274	130.008	0.099	-0.167
-473.259	800.000	0.090	-0.457
-472.245	179.854	-0.095	-0.183
-471.230	-200.000	-0.050	0.319
-470.216	158.609	0.249	0.456
-469.201	-200.000	0.013	0.269
-468.186	87.751	0.111	0.162
-467.172	401.523	0.147	0.407
-466.157	60.612	0.032	0.042
-465.143	-106.348	0.315	-0.092
-464.128	800.000	0.049	-0.190
-463.113	-179.116	-0.493	0.014
-462.099	6.734	0.142	0.138
-461.084	328.764	-0.028	0.070
-460.070	47.039	0.380	-0.465
-459.055	-35.290	0.374	-0.267
-458.040	-23.449	0.187	0.147
-457.026	-100.523	-0.553	-0.178
-456.011	-39.751	-0.184	-0.126
-454.997	-200.000	0.100	0.680
-453.982	28.081	0.319	0.353
-452.968	-88.687	0.301	0.117
-451.953	-50.552	-0.408	-0.252
-450.938	-35.536	-0.217	0.154
-449.924	93.522	0.225	0.334
-448.909	-93.619	0.216	-0.078
-447.895	-114.652	0.211	0.053
-446.880	45.423	-0.123	-0.149
-445.865	592.968	0.143	-0.467
-444.851	-16.364	-0.152	-0.127
-443.836	95.532	0.255	0.382
-442.822	800.000	-0.092	-0.447
-441.807	-200.000	0.023	0.216
-440.792	-93.267	0.418	-0.151
-439.778	-95.838	-0.143	-0.050
-438.763	800.000	0.109	0.422
-437.749	-37.283	-0.118	0.082
-436.734	110.937	-0.146	0.231
-435.719	-89.642	-0.310	0.119
-434.705	-117.531	0.293	0.069
-433.690	488.965	-0.058	0.176
-432.676	-200.000	0.050	-0.482
-431.661	99.699	-0.084	0.128
-430.646	62.910	0.127	-0.167
-429.632	-200.000	0.003	-0.166
-428.617	-200.000	0.031	-0.521
-427.603	40.705	0.184	-0.218
-426.588	-156.105	0.245	0.020
-425.573	41.284	0.234	0.278
-424.559	-107.033	0.537	0.155
-423.544	26.033	-0.239	0.261
-422.530	-21.721	-0.438	-0.349
-421.515	-200.000	0.005	-0.545
-420.500	-47.418	-0.312	0.199
-419.486	590.302	-0.080	0.259
-418.471	10.241	0.215	0.215
-417.457	517.010	-0.111	-0.342
-416.442	-85.318	0.416	0.170
-415.428	641.117	-0.136	-0.455
-414.413	-200.000	0.007	-0.109
-413.398	-115.544	-0.266	-0.065
-412.384	-143.976	-0.371	0.045
-411.369	-99.568	-0.503	0.165
-410.355	-136.124	0.132	-0.020
-409.340	-34.237	0.184	0.132
-408.325	26.001	-0.176	0.193
-407.311	-135.642	-0.130	-0.020
-406.296	-134.747	0.125	-0.020
-405.282	124.740	-0.143	0.236
-404.267	-111.684	-0.198	0.052
-403.252	-21.428	0.459	0.367
-402.238	-79.280	-0.201	0.089
-401.223	711.646	0.107	0.374
-400.209	-100.138	-0.316	0.102
-399.194	115.318	-0.126	0.203
-398.179	27.675	0.160	0.176
-397.165	274.909	-0.147	0.343
-396.150	-6.164	-0.279	-0.250
-395.136	-23.594	-0.386	0.303
-394.121	-173.017	-0.442	-0.018
-393.106	194.022	-0.133	-0.265
-392.092	-200.000	0.028	0.487
-391.077	800.000	0.055	0.264
-390.063	679.559	-0.100	0.344
-389.048	-33.538	0.206	0.149
-388.033	-125.746	-0.110	0.022
-387.019	-4.921	-0.288	0.260
-386.004	-166.326	-0.387	0.021
-384.990	-71.469	0.414	-0.202
-383.975	22.090	-0.231	-0.247
-382.960	-101.558	-0.139	0.044
-381.946	800.000	0.103	-0.436
-380.931	800.000	-0.095	-0.347
-379.917	3.911	0.169	-0.161
-378.902	334.961	0.133	0.338
-377.888	74.537	0.331	-0.457
-376.873	-200.000	0.018	0.326
-375.858	800.000	-0.136	0.583
-374.844	311.879	-0.087	0.214
-373.829	54.202	0.070	-0.088
-372.815	82.765	0.157	-0.223
-371.800	320.819	-0.042	-0.104
-370.785	-88.953	-0.474	0.183
-369.771	-200.000	-0.030	-0.396
-368.756	-200.000	0.032	-0.321
-367.742	-154.139	-0.110	-0.010
-366.727	800.000	0.105	0.439
-365.712	800.000	-0.090	0.387
-364.698	57.109	-0.411	-0.525
-363.683	-200.000	0.024	0.254
-362.669	800.000	-0.024	0.129
-361.654	57.317	0.135	0.173
-360.639	800.000	-0.057	0.291
-359.625	89.552	0.447	-0.654
-358.610	-200.000	0.018	-0.466
-357.596	-19.534	-0.288	0.233
-356.581	-62.911	-0.404	-0.218
-355.566	35.210	-0.074	0.085
-354.552	-200.000	-0.002	0.049
-353.537	-119.788	0.332	0.074
-352.523	-114.340	0.355	0.089
-351.508	-93.026	-0.289	-0.105
-350.493	800.000	-0.035	-0.168
-349.479	-84.676	-0.379	0.155
-348.464	800.000	0.069	-0.327
-347.450	-72.990	0.118	-0.057
-346.435	-27.838	0.201	0.152
-345.420	151.748	0.110	0.196
-344.406	247.388	-0.195	0.431
-343.391	36.175	0.363	0.418
-342.377	-133.853	0.401	0.065
-341.362	-200.000	-0.034	-0.325
-340.348	800.000	-0.014	0.058
-339.333	61.619	-0.251	0.327
-338.318	-200.000	0.063	-0.381
-337.304	-162.790	0.420	0.026
-336.289	307.149	0.097	-0.236
-335.275	-200.000	0.022	0.163
-334.260	-43.546	0.212	-0.139
-333.245	57.330	-0.090	0.115
-332.231	-200.000	-0.004	0.087
-331.216	-131.791	-0.263	-0.045
-330.202	-68.225	0.433	-0.219
-329.187	-4.474	-0.412	-0.372
-328.172	316.796	0.115	-0.286
-327.158	110.577	0.190	-0.300
-326.143	622.314	-0.133	-0.441
-325.129	-53.416	0.305	0.182
-324.114	-61.058	-0.174	0.095
-323.099	-40.591	-0.341	-0.230
-322.085	97.710	-0.219	0.329
-321.070	299.621	-0.085	-0.205
-320.056	-200.000	0.079	0.682
-319.041	-78.296	-0.463	0.206
-318.026	-106.208	0.555	-0.161
-317.012	-88.113	0.229	-0.089
-315.997	-73.160	0.452	0.216
-314.983	-200.000	-0.017	0.148
-313.968	498.448	0.058	-0.176
-312.953	-57.853	-0.447	-0.255
-311.939	4.983	0.277	0.266
-310.924	-25.203	0.266	0.205
-309.910	-200.000	0.028	0.236
-308.895	60.463	-0.475	0.614
-307.880	152.893	-0.088	0.157
-306.866	592.931	0.091	-0.296
-305.851	-130.384	0.073	0.013
-304.837	131.290	0.247	-0.416
-303.822	2.812	-0.166	-0.157
-302.807	-115.164	-0.547	0.134
-301.793	-200.000	0.354	0.001
-300.778	85.564	-0.087	0.125
-299.764	-200.000	-0.004	-0.064
-298.749	-53.839	0.376	-0.223
-297.735	-200.000	-0.049	0.403
-296.720	-31.824	0.167	0.122
-295.705	169.634	-0.110	0.206
-294.691	26.588	0.222	-0.243
-293.676	74.380	-0.217	-0.298
-292.662	-82.978	-0.880	-0.368
-291.647	-120.894	-0.253	0.055
-290.632	7.746	-0.372	0.363
-289.618	-132.551	-0.065	0.011
-288.603	100.366	-0.272	-0.413
-287.589	-31.303	-0.331	0.243
-286.574	166.987	0.163	0.303
-285.559	102.828	-0.255	0.390
-284.545	-122.561	0.396	-0.083
-283.530	195.734	-0.179	0.356
-282.516	-170.759	-0.289	-0.013
-281.501	-120.590	0.278	-0.061
-280.486	-1.592	0.068	-0.063
-279.472	-21.741	0.296	-0.234
-278.457	-190.018	0.524	0.007
-277.443	-200.000	0.053	-0.349
-276.428	112.789	0.257	0.407
-275.413	-26.973	0.316	-0.240
-274.399	86.046	0.320	-0.460
-273.384	-151.422	0.487	-0.047
-272.370	-76.965	0.302	-0.137
-271.355	-90.781	0.376	0.141
-270.340	-66.504	-0.014	-0.007
-269.326	-147.647	0.355	0.038
-268.311	800.000	0.041	-0.185
-267.297	800.000	-0.038	0.174
-266.282	-109.176	0.352	0.097
-265.267	-176.346	-0.164	0.005
-264.253	-200.000	-0.001	-0.023
-263.238	800.000	-0.065	0.297
-262.224	-16.966	-0.098	-0.080
-261.209	-200.000	-0.012	0.132
-260.195	-122.434	-0.217	-0.046
-259.180	10.760	-0.243	-0.241
-258.165	464.590	-0.097	0.284
-257.151	109.953	0.239	-0.374
-256.136	800.000	0.046	0.189
-255.122	-8.372	0.101	-0.088
-254.107	-61.491	0.074	-0.040
-253.092	-166.270	-0.191	-0.010
-252.078	-82.894	-0.115	0.048
-251.063	240.853	-0.098	0.213
-250.049	-52.983	0.339	-0.202
-249.034	214.153	0.100	-0.207
-248.019	-80.553	-0.067	0.029
-247.005	418.508	0.046	0.129
-245.990	-95.417	0.201	0.070
-244.976	-60.183	0.300	0.166
-243.961	13.572	0.360	-0.364
-242.946	-124.272	-0.412	-0.083
-241.932	-161.426	-0.486	-0.032
-240.917	-39.835	-0.202	-0.137
-239.903	89.113	0.404	0.587
-238.888	-200.000	0.075	-0.457
-237.873	-85.199	0.286	0.116
-236.859	-151.170	0.116	-0.011
-235.844	110.631	0.166	0.261
-234.830	33.163	0.281	0.317
-233.815	-65.956	0.535	0.277
-232.800	-135.748	-0.218	0.033
-231.786	-200.000	0.050	-0.567
-230.771	-41.309	0.279	0.187
-229.757	-12.048	-0.253	0.215
-228.742	-200.000	-0.027	-0.222
-227.727	258.626	0.097	0.217
-226.713	302.743	0.093	0.224
-225.698	536.404	0.075	0.231
-224.684	800.000	0.124	-0.497
-223.669	-43.697	0.521	-0.341
-222.655	800.000	-0.023	0.092
-221.640	228.782	-0.093	0.198
-220.625	-86.640	0.330	0.131
-219.611	-138.829	-0.476	0.067
-218.596	86.011	-0.256	-0.367
-217.582	13.717	-0.430	-0.435
-216.567	-45.073	0.258	-0.166
-215.552	29.088	-0.459	0.507
-214.538	63.142	-0.117	0.153
-213.523	-200.000	-0.005	-0.253
-212.509	14.429	0.302	-0.306
-211.494	32.320	-0.110	0.123
-210.479	-46.616	0.310	0.197
-209.465	800.000	-0.063	0.340
-208.450	-200.000	-0.002	-0.233
-207.436	-48.348	0.287	-0.179
-206.421	-107.443	-0.212	0.060
-205.406	117.302	-0.043	0.069
-204.392	55.189	-0.120	-0.151
-203.377	73.420	-0.060	-0.082
-202.363	-85.851	0.125	-0.050
-201.348	-200.000	0.035	-0.322
-200.333	338.232	-0.216	-0.549
-199.319	90.839	-0.260	-0.379
-198.304	-99.041	-0.284	-0.093
-197.290	-200.000	-0.075	0.882
-196.275	372.998	-0.123	0.326
-195.260	125.522	-0.071	-0.117
-194.246	-104.901	0.308	0.091
-193.231	-78.041	0.318	-0.142
-192.217	-23.634	-0.392	0.305
-191.202	-62.211	-0.155	-0.083
-190.187	-27.283	0.506	-0.382
-189.173	307.561	0.085	-0.207
-188.158	14.408	0.032	-0.033
-187.144	14.964	-0.217	-0.220
-186.129	-52.717	-0.289	-0.173
-185.114	67.582	-0.100	-0.133
-184.100	-125.751	0.450	0.088
-183.085	-38.428	0.354	-0.243
-182.071	118.134	-0.135	-0.217
-181.056	102.960	0.285	-0.434
-180.042	-113.387	0.207	-0.052
-179.027	68.243	-0.092	0.123
-178.012	239.208	0.120	-0.260
-176.998	-198.526	0.357	-0.003
-175.983	-129.043	-0.174	-0.031
-174.969	-82.366	0.145	0.061
-173.954	-85.096	-0.437	-0.177
-172.939	86.256	0.208	-0.298
-171.925	-4.092	0.455	-0.409
-170.910	77.679	-0.261	0.362
-169.896	-66.870	-0.208	0.107
-168.881	-157.976	0.295	0.022
-167.866	-92.788	-0.281	0.102
-166.852	-51.234	0.284	-0.172
-165.837	-182.220	0.548	0.013
-164.823	-193.496	0.247	0.003
-163.808	-62.743	-0.479	0.257
-162.793	-151.396	-0.351	0.034
-161.779	-200.000	-0.003	-0.099
-160.764	-99.531	-0.163	-0.053
-159.750	-200.000	-0.011	0.104
-158.735	800.000	0.187	0.724
-157.720	-37.195	0.059	-0.041
-156.706	-200.000	0.004	0.172
-155.691	-8.435	-0.134	0.117
-154.677	-35.491	-0.200	-0.140
-153.662	311.704	-0.236	-0.576
-152.647	-200.000	-0.012	-0.180
-151.633	800.000	-0.088	-0.358
-150.618	-137.833	-0.276	-0.040
-149.604	-129.105	0.113	-0.020
-148.589	-42.701	-0.360	0.237
-147.574	-47.111	0.299	-0.189
-146.560	-200.000	0.015	0.227
-145.545	-200.000	0.002	0.425
-144.531	-170.988	-0.321	-0.014
-143.516	-37.629	-0.467	0.322
-142.502	-45.149	0.508	-0.326
-141.487	-115.080	0.491	-0.120
-140.472	-45.443	0.422	0.271
-139.458	-72.680	0.347	0.165
-138.443	-122.035	0.289	0.061
-137.429	163.661	0.160	0.294
-136.414	-161.723	0.519	-0.034
-135.399	-141.561	0.317	-0.041
-134.385	-170.815	0.536	-0.023
-133.370	-66.864	-0.519	-0.265
-132.356	1.561	0.168	-0.157
-131.341	-158.485	-0.308	0.023
-130.326	-200.000	-0.009	-0.312
-129.312	290.327	-0.152	-0.361
-128.297	23.650	0.262	-0.280
-127.283	58.130	-0.290	0.369
-126.268	-151.129	-0.440	-0.042
-125.253	118.290	-0.124	-0.198
-124.239	124.355	-0.087	0.143
-123.224	-182.830	0.397	0.009
-122.210	-66.220	-0.189	-0.097
-121.195	-82.367	0.397	-0.166
