DTS Sentinel unit serial number:	SN409020Multiplexer serial number:	ORYXHardware model number:	OX4-SRSoftware version number:	ORYX F/W v3.00 Oryx Data Collector v3.7.2.0data status	okinstallation	HaddamTimeLapsedifferential loss correction	single-endedforward channel	channel 3reverse channel	N/Adate	2011/06/22time	10:31:17forward acquisition time	30.00reverse acquisition time	0.00gamma	498.7831k internal	0.1812k external	0.1812temperature offset calibration	1.0074default loss term (dB/km)	0.3790temperature slope calibration	1.3530multiplexer offset coefficient	1.0000multiplexer slope coefficient	1.0000fibre end	0.00T internal ref (°C)	30.16T ext. ref 1 (°C)	25.70T ext. ref 2 (°C)	0.23length (m)	temperature (°C)	Stokes	anti-Stokes-747.200	180.962	-0.133	0.252
-746.185	-200.000	-0.054	0.623
-745.171	-84.471	-0.253	-0.102
-744.156	498.716	-0.030	0.090
-743.142	-200.000	-0.052	-0.463
-742.127	-107.134	-0.331	0.093
-741.112	-141.317	0.168	-0.022
-740.098	175.259	-0.149	0.278
-739.083	35.230	-0.238	-0.268
-738.069	12.697	-0.329	0.326
-737.054	79.374	-0.124	-0.171
-736.039	-93.902	-0.242	-0.085
-735.025	-147.750	0.229	0.024
-734.010	-200.000	0.023	0.357
-732.996	3.726	-0.440	0.411
-731.981	716.516	-0.110	0.377
-730.966	242.458	-0.259	-0.557
-729.952	-121.668	-0.553	0.117
-728.937	-80.172	-0.242	-0.104
-727.923	-42.817	0.032	0.021
-726.908	-25.480	-0.406	-0.307
-725.894	800.000	-0.108	0.611
-724.879	-54.874	0.430	0.248
-723.864	100.917	0.158	-0.237
-722.850	-200.000	-0.069	-0.512
-721.835	186.766	-0.242	-0.464
-720.821	433.863	0.101	-0.283
-719.806	-200.000	0.036	-0.435
-718.791	63.508	0.346	0.445
-717.777	-178.059	-0.627	-0.019
-716.762	2.536	0.179	-0.166
-715.748	136.519	-0.188	-0.315
-714.733	-192.306	-0.492	-0.006
-713.718	-2.745	-0.247	-0.221
-712.704	-115.018	-0.247	-0.060
-711.689	-34.371	-0.265	0.186
-710.675	451.839	-0.243	-0.692
-709.660	-35.730	0.246	0.171
-708.645	214.429	0.318	0.648
-707.631	-13.930	0.207	-0.171
-706.616	17.222	0.438	-0.445
-705.602	300.414	0.052	0.124
-704.587	79.952	-0.067	0.092
-703.572	-200.000	-0.070	-0.633
-702.558	-36.818	-0.398	0.273
-701.543	800.000	-0.059	-0.287
-700.529	385.745	0.169	0.449
-699.514	-179.057	-0.520	0.015
-698.499	9.926	-0.310	0.302
-697.485	-80.095	-0.232	-0.099
-696.470	-143.661	-0.369	0.044
-695.456	-111.085	-0.463	0.121
-694.441	78.911	-0.161	0.221
-693.426	-200.000	-0.022	0.166
-692.412	-176.327	0.489	-0.016
-691.397	800.000	-0.024	0.098
-690.383	-28.271	-0.333	-0.246
-689.368	-9.281	-0.283	-0.242
-688.354	-27.623	-0.533	0.395
-687.339	136.412	-0.261	-0.437
-686.324	-175.288	-0.282	-0.010
-685.310	59.175	-0.370	0.467
-684.295	433.905	0.163	0.456
-683.281	-16.483	-0.147	-0.119
-682.266	-200.000	-0.006	0.236
-681.251	124.665	-0.038	-0.061
-680.237	297.525	0.220	-0.520
-679.222	62.325	-0.340	-0.435
-678.208	800.000	0.023	-0.097
-677.193	3.108	-0.107	-0.100
-676.178	483.969	0.062	0.183
-675.164	621.441	-0.093	-0.300
-674.149	-112.894	0.368	-0.093
-673.135	71.076	-0.188	-0.249
-672.120	800.000	0.074	-0.282
-671.105	-130.414	-0.145	-0.025
-670.091	-75.791	0.350	0.158
-669.076	-19.241	0.126	0.100
-668.062	-5.981	-0.547	-0.478
-667.047	194.632	0.146	-0.285
-666.032	10.993	-0.296	-0.289
-665.018	-178.061	0.325	-0.010
-664.003	-86.267	0.072	-0.028
-662.989	20.575	-0.212	0.219
-661.974	-48.037	-0.239	-0.148
-660.959	-84.431	0.209	-0.084
-659.945	-74.045	0.139	0.064
-658.930	74.058	-0.124	-0.166
-657.916	-200.000	-0.020	-0.414
-656.901	-200.000	-0.095	-0.655
-655.886	48.839	-0.107	-0.129
-654.872	-18.214	-0.133	-0.106
-653.857	800.000	-0.076	-0.375
-652.843	29.706	-0.205	0.224
-651.828	41.704	0.361	-0.419
-650.814	-200.000	-0.014	-0.334
-649.799	-58.708	0.100	0.055
-648.784	-200.000	0.050	0.466
-647.770	-122.366	-0.676	-0.140
-646.755	-9.201	-0.380	0.324
-645.741	-93.074	-0.361	0.128
-644.726	107.342	-0.055	-0.084
-643.711	264.428	-0.157	-0.350
-642.697	-26.340	-0.276	0.207
-641.682	-36.292	-0.517	-0.356
-640.668	800.000	-0.129	-0.483
-639.653	-41.684	-0.238	0.156
-638.638	800.000	0.064	-0.347
-637.624	751.751	0.097	-0.338
-636.609	-200.000	-0.002	-0.750
-635.595	-148.611	-0.230	0.024
-634.580	10.169	-0.218	0.212
-633.565	-21.867	0.282	-0.219
-632.551	100.842	-0.446	0.664
-631.536	-70.786	0.400	0.192
-630.522	-95.512	-0.381	0.130
-629.507	70.804	-0.235	-0.311
-628.492	57.208	-0.221	0.276
-627.478	40.556	-0.188	0.217
-626.463	-181.384	-0.300	-0.007
-625.449	-160.412	-0.790	0.053
-624.434	-95.115	-0.083	-0.028
-623.419	-44.999	-0.336	-0.213
-622.405	89.405	0.241	-0.343
-621.390	423.828	-0.104	-0.286
-620.376	-39.605	-0.534	0.356
-619.361	-47.422	-0.629	0.390
-618.346	-82.888	-0.200	-0.082
-617.332	-200.000	-0.036	0.233
-616.317	-59.615	-0.143	0.078
-615.303	11.234	-0.260	0.254
-614.288	207.285	0.090	0.179
-613.273	-51.198	0.474	-0.283
-612.259	-49.287	-0.458	-0.279
-611.244	559.979	-0.198	0.613
-610.230	-80.647	-0.214	-0.090
-609.215	-118.303	0.378	0.085
-608.201	12.302	0.101	0.099
-607.186	-29.798	-0.671	0.488
-606.171	-15.472	-0.243	-0.198
-605.157	-22.299	-0.318	0.245
-604.142	800.000	0.086	0.411
-603.128	131.976	-0.146	-0.240
-602.113	800.000	0.054	0.300
-601.098	-72.353	-0.223	0.105
-600.084	-85.545	0.217	-0.086
-599.069	-104.207	0.230	0.068
-598.055	-89.812	-0.395	-0.147
-597.040	71.230	-0.090	-0.120
-596.025	-65.547	0.086	0.044
-595.011	-18.562	0.168	-0.134
-593.996	-138.374	0.524	-0.073
-592.982	153.947	0.060	-0.104
-591.967	11.584	-0.137	0.134
-590.952	455.805	0.025	0.071
-589.938	-59.472	0.379	0.207
-588.923	-92.250	0.321	0.115
-587.909	-200.000	0.000	0.015
-586.894	-200.000	0.007	-0.361
-585.879	-145.905	0.437	0.049
-584.865	4.235	0.203	0.189
-583.850	-34.280	0.347	-0.243
-582.836	-151.754	0.068	-0.006
-581.821	800.000	0.137	-0.566
-580.806	77.921	-0.104	0.142
-579.792	-200.000	0.025	0.603
-578.777	32.983	-0.377	0.417
-577.763	60.363	-0.084	0.106
-576.748	800.000	0.176	-0.630
-575.733	67.582	0.264	0.345
-574.719	-130.801	0.145	0.025
-573.704	-200.000	0.000	-0.038
-572.690	-107.354	0.542	-0.151
-571.675	193.692	0.023	0.044
-570.661	-11.989	-0.062	-0.052
-569.646	-200.000	-0.032	0.346
-568.631	64.169	-0.121	0.156
-567.617	-84.825	-0.148	-0.059
-566.602	-107.892	-0.368	0.101
-565.588	-200.000	0.418	-0.002
-564.573	-80.341	-0.222	-0.094
-563.558	-48.956	-0.132	-0.080
-562.544	-47.207	0.186	-0.115
-561.529	800.000	-0.125	-0.476
-560.515	49.275	-0.482	-0.578
-559.500	-73.570	-0.378	-0.175
-558.485	-200.000	0.045	0.447
-557.471	-200.000	-0.010	0.255
-556.456	164.739	0.116	0.210
-555.442	-200.000	0.067	0.528
-554.427	-200.000	0.088	0.511
-553.412	644.767	0.067	-0.220
-552.398	-31.921	0.262	0.186
-551.383	62.017	-0.240	0.305
-550.369	800.000	-0.048	0.214
-549.354	-14.569	-0.535	-0.438
-548.339	-53.099	0.241	-0.140
-547.325	33.399	-0.155	0.171
-546.310	-103.854	-0.235	0.070
-545.296	22.971	0.095	0.099
-544.281	-44.184	0.175	-0.112
-543.266	800.000	-0.133	-0.524
-542.252	-38.223	0.382	0.257
-541.237	-82.842	-0.188	0.077
-540.223	-169.035	-0.318	-0.015
-539.208	20.651	0.159	-0.164
-538.193	-129.358	-0.281	0.049
-537.179	98.804	-0.177	0.261
-536.164	39.005	0.092	-0.105
-535.150	-15.162	-0.441	-0.359
-534.135	-154.601	-0.135	0.011
-533.121	452.962	-0.236	-0.667
-532.106	110.805	0.081	0.125
-531.091	42.068	-0.108	-0.125
-530.077	12.656	-0.217	0.213
-529.062	141.137	-0.264	0.446
-528.048	800.000	-0.064	-0.268
-527.033	-152.367	-0.344	0.031
-526.018	-109.676	-0.522	-0.139
-525.004	-51.775	0.192	-0.114
-523.989	457.524	0.111	0.314
-522.975	80.369	0.214	0.294
-521.960	-118.872	0.426	0.094
-520.945	-169.471	-0.244	-0.011
-519.931	-108.207	-0.458	0.125
-518.916	-34.098	0.041	-0.029
-517.902	-200.000	-0.030	0.181
-516.887	-151.920	-0.145	-0.013
-515.872	-148.393	-0.165	0.017
-514.858	206.614	0.122	-0.243
-513.843	65.586	0.198	-0.256
-512.829	-185.063	0.201	-0.004
-511.814	-171.674	0.505	-0.021
-510.799	60.219	0.344	-0.432
-509.785	768.578	0.074	-0.257
-508.770	608.729	0.033	-0.107
-507.756	800.000	0.084	0.385
-506.741	276.192	-0.146	-0.332
-505.726	-200.000	0.022	-0.253
-504.712	-47.545	0.442	0.272
-503.697	-144.842	0.503	-0.058
-502.683	111.280	-0.181	0.277
-501.668	-160.128	-0.521	-0.035
-500.653	-68.507	-0.398	-0.195
-499.639	-111.897	0.213	-0.054
-498.624	283.328	-0.233	0.535
-497.610	-200.000	-0.005	0.166
-496.595	27.197	-0.236	-0.252
-495.581	-111.694	-0.273	0.070
-494.566	-200.000	0.024	-0.167
-493.551	-32.458	-0.112	-0.079
-492.537	-140.642	0.565	-0.074
-491.522	800.000	-0.053	-0.188
-490.508	-11.072	-0.147	-0.123
-489.493	294.456	0.047	-0.110
-488.478	214.970	0.240	-0.484
-487.464	-119.632	0.120	0.026
-486.449	-129.110	0.455	-0.080
-485.435	53.568	0.311	-0.380
-484.420	-29.725	0.359	-0.259
-483.405	111.338	-0.193	-0.295
-482.391	-91.719	0.064	-0.023
-481.376	800.000	0.061	0.228
-480.362	-144.701	0.217	0.025
-479.347	77.165	0.489	-0.661
-478.332	57.324	-0.249	0.309
-477.318	-134.541	0.137	0.021
-476.303	-200.000	-0.004	-0.299
-475.289	77.691	0.198	0.268
-474.274	-131.701	-0.195	-0.032
-473.259	-200.000	0.011	0.303
-472.245	591.883	-0.024	0.074
-471.230	456.307	-0.133	-0.376
-470.216	800.000	0.064	-0.317
-469.201	420.845	0.075	0.205
-468.186	-200.000	-0.013	0.281
-467.172	107.759	0.104	-0.158
-466.157	-61.624	0.286	-0.152
-465.143	-147.452	0.626	-0.066
-464.128	-17.770	0.339	0.269
-463.113	-110.387	0.093	-0.024
-462.099	-103.116	0.377	0.112
-461.084	-98.914	0.567	0.182
-460.070	800.000	-0.044	-0.205
-459.055	346.743	0.043	0.107
-458.040	549.825	-0.047	0.143
-457.026	-67.638	0.181	0.090
-456.011	800.000	0.039	0.217
-454.997	-96.564	0.179	0.059
-453.982	14.281	-0.082	-0.081
-452.968	421.508	-0.088	0.240
-451.953	-42.472	0.254	-0.164
-450.938	-79.250	-0.389	0.167
-449.924	103.520	0.165	-0.246
-448.909	70.268	-0.415	-0.545
-447.895	90.923	-0.160	0.228
-446.880	1.141	0.435	-0.395
-445.865	245.976	-0.061	0.130
-444.851	800.000	0.066	-0.315
-443.836	800.000	0.080	-0.366
-442.822	-140.791	0.612	-0.079
-441.807	-70.611	0.157	-0.075
-440.792	664.087	-0.066	-0.218
-439.778	-114.577	0.334	0.081
-438.763	145.421	0.291	0.495
-437.749	-53.679	-0.495	0.286
-436.734	-6.387	0.280	-0.242
-435.719	131.679	-0.081	-0.132
-434.705	-171.856	0.649	0.026
-433.690	-51.814	0.209	0.123
-432.676	303.179	-0.040	0.094
-431.661	111.101	0.277	0.424
-430.646	-65.029	-0.293	-0.149
-429.632	-65.374	0.184	0.093
-428.617	-200.000	-0.014	-0.678
-427.603	96.920	0.075	0.109
-426.588	-94.811	0.284	-0.097
-425.573	286.376	0.246	-0.566
-424.559	-127.178	0.152	-0.028
-423.544	-200.000	-0.036	0.212
-422.530	-159.302	-0.057	-0.004
-421.515	56.013	0.271	0.333
-420.500	-200.000	-0.054	0.323
-419.486	300.620	-0.036	0.085
-418.471	181.359	-0.126	-0.235
-417.457	184.189	-0.103	-0.193
-416.442	-118.335	-0.235	-0.053
-415.428	59.431	0.041	0.052
-414.413	698.496	0.058	-0.195
-413.398	-98.984	-0.354	-0.113
-412.384	522.574	-0.100	-0.298
-411.369	-103.342	0.679	-0.202
-410.355	54.023	0.221	0.269
-409.340	1.077	-0.207	-0.188
-408.325	-200.000	0.045	-0.467
-407.311	-65.533	-0.280	-0.142
-406.296	-200.000	-0.024	0.220
-405.282	-37.302	-0.189	-0.128
-404.267	-46.510	-0.285	-0.177
-403.252	-93.891	0.623	0.216
-402.238	-200.000	-0.039	-0.249
-401.223	95.910	-0.126	-0.182
-400.209	-200.000	0.004	-0.130
-399.194	380.653	-0.374	-0.975
-398.179	82.144	-0.120	0.164
-397.165	474.750	-0.195	-0.559
-396.150	-114.192	-0.229	-0.056
-395.136	319.344	-0.105	0.253
-394.121	-200.000	0.044	0.459
-393.106	-100.899	-0.238	-0.074
-392.092	-43.546	-0.207	-0.132
-391.077	-194.041	-0.336	-0.003
-390.063	-200.000	-0.004	-0.234
-389.048	-200.000	0.009	0.105
-388.033	-56.163	-0.256	-0.144
-387.019	-145.393	0.068	-0.008
-386.004	800.000	-0.104	-0.560
-384.990	399.247	-0.050	0.133
-383.975	58.344	-0.262	0.325
-382.960	-52.348	0.046	0.027
-381.946	-3.192	0.323	0.285
-380.931	71.739	-0.168	-0.221
-379.917	617.379	-0.081	0.260
-378.902	800.000	0.080	-0.356
-377.888	148.687	0.119	-0.204
-376.873	-123.552	-0.444	0.088
-375.858	138.991	0.054	0.090
-374.844	800.000	-0.107	0.396
-373.829	800.000	-0.016	0.068
-372.815	-152.144	0.734	0.067
-371.800	-52.296	-0.372	0.217
-370.785	624.836	-0.077	0.247
-369.771	-98.696	-0.213	0.068
-368.756	15.140	-0.257	-0.255
-367.742	-62.298	0.256	-0.134
-366.727	-77.605	-0.065	-0.028
-365.712	-77.919	-0.121	-0.052
-364.698	-110.875	0.136	0.035
-363.683	800.000	-0.104	-0.396
-362.669	-175.809	0.085	0.003
-361.654	-150.886	0.053	0.005
-360.639	-200.000	-0.002	0.256
-359.625	-200.000	-0.102	-0.620
-358.610	-151.451	-0.199	0.018
-357.596	-200.000	0.008	-0.176
-356.581	-37.334	-0.121	-0.081
-355.566	168.256	-0.086	-0.155
-354.552	-112.459	0.453	0.114
-353.537	-89.986	0.253	-0.093
-352.523	-50.344	0.435	-0.259
-351.508	160.606	0.177	0.313
-350.493	-60.136	-0.153	-0.082
-349.479	800.000	-0.180	0.689
-348.464	-100.474	0.217	0.067
-347.450	-3.371	0.283	-0.249
-346.435	23.238	-0.115	-0.120
-345.420	-65.655	-0.331	-0.167
-344.406	-35.117	-0.403	0.277
-343.391	-96.081	0.541	0.181
-342.377	-200.000	0.020	0.119
-341.362	800.000	-0.014	-0.056
-340.348	-161.161	0.398	0.026
-339.333	-200.000	0.009	-0.092
-338.318	87.174	0.307	-0.429
-337.304	291.156	-0.078	-0.181
-336.289	-105.811	-0.235	0.067
-335.275	800.000	0.016	0.070
-334.260	-126.678	0.752	-0.139
-333.245	173.475	0.186	0.340
-332.231	-107.410	-0.381	0.105
-331.216	-98.009	-0.359	0.116
-330.202	800.000	-0.054	0.233
-329.187	-0.101	-0.358	0.321
-328.172	194.912	-0.139	0.268
-327.158	-40.504	0.517	-0.338
-326.143	-200.000	-0.008	0.279
-325.129	-200.000	0.020	0.225
-324.114	800.000	0.132	0.578
-323.099	-144.476	0.184	0.021
-322.085	-95.317	-0.307	0.104
-321.070	12.775	-0.254	-0.247
-320.056	-40.930	-0.196	0.128
-319.041	-34.013	-0.202	-0.140
-318.026	-200.000	-0.036	-0.327
-317.012	-200.000	-0.006	0.205
-315.997	-108.288	0.121	-0.033
-314.983	-6.573	0.128	-0.110
-313.968	-143.293	0.218	-0.026
-312.953	-132.797	-0.223	0.036
-311.939	-66.958	-0.174	-0.087
-310.924	-200.000	0.003	0.249
-309.910	-200.000	-0.016	-0.350
-308.895	-48.520	-0.243	-0.147
-307.880	-15.007	0.308	0.249
-306.866	-200.000	-0.014	0.092
-305.851	-86.220	0.148	0.057
-304.837	-200.000	0.000	-0.599
-303.822	-121.984	-0.270	-0.056
-302.807	-145.439	0.495	-0.056
-301.793	2.987	0.056	-0.051
-300.778	-93.951	-0.270	0.093
-299.764	348.213	-0.136	0.339
-298.749	-5.481	0.110	-0.095
-297.735	-94.710	-0.320	0.109
-296.720	143.381	-0.047	-0.080
-295.705	-19.421	-0.292	-0.228
-294.691	-182.081	-0.398	-0.009
-293.676	-104.436	-0.075	-0.022
-292.662	240.703	0.078	-0.166
-291.647	163.204	0.212	-0.377
-290.632	-104.949	-0.263	-0.075
-289.618	458.594	0.065	0.183
-288.603	-115.247	0.448	0.106
-287.589	-61.741	-0.122	-0.064
-286.574	12.595	-0.093	0.091
-285.559	9.957	-0.267	0.255
-284.545	160.734	-0.135	-0.238
-283.530	-52.439	-0.186	0.108
-282.516	167.240	0.178	0.319
-281.501	-57.292	0.081	0.045
-280.486	-34.322	0.331	-0.229
-279.472	-200.000	-0.034	-0.335
-278.457	201.738	-0.236	-0.459
-277.443	-200.000	-0.030	0.657
-276.428	289.985	-0.269	0.618
-275.413	800.000	-0.180	0.711
-274.399	800.000	0.108	0.525
-273.384	-200.000	0.053	0.478
-272.370	-101.756	0.371	-0.113
-271.355	-86.956	-0.443	-0.169
-270.340	-200.000	0.034	0.227
-269.326	17.501	-0.351	0.351
-268.311	-0.474	-0.315	0.282
-267.297	-104.051	-0.258	-0.075
-266.282	74.841	0.285	0.379
-265.267	-186.385	0.295	-0.005
-264.253	-194.107	-0.302	0.003
-263.238	492.364	0.128	-0.371
-262.224	121.387	-0.184	-0.289
-261.209	-200.000	0.008	0.112
-260.195	115.685	0.071	0.109
-259.180	-42.955	0.142	-0.090
-258.165	-8.517	-0.389	-0.328
-257.151	2.071	0.187	-0.170
-256.136	-200.000	-0.001	0.119
-255.122	84.281	0.329	-0.454
-254.107	-127.646	0.059	0.011
-253.092	-69.305	0.626	-0.301
-252.078	-200.000	-0.061	0.393
-251.063	-154.957	0.265	-0.022
-250.049	-12.643	0.287	0.235
-249.034	-99.267	0.255	-0.080
-248.019	758.656	0.175	0.600
-247.005	-32.316	0.367	-0.257
-245.990	-200.000	-0.038	-0.403
-244.976	199.549	0.132	0.255
-243.961	-11.974	0.253	0.209
-242.946	-51.143	0.510	0.300
-241.932	-30.949	0.112	-0.079
-240.917	-91.590	0.310	-0.111
-239.903	93.042	0.046	0.065
-238.888	-48.009	0.160	-0.097
-237.873	499.869	-0.192	0.559
-236.859	357.700	-0.134	-0.339
-235.844	-38.845	-0.254	0.168
-234.830	165.475	-0.127	0.227
-233.815	228.756	0.099	-0.204
-232.800	60.944	0.186	-0.233
-231.786	-200.000	-0.025	0.279
-230.771	279.897	0.130	0.293
-229.757	-62.210	0.449	0.234
-228.742	-137.922	0.500	0.069
-227.727	-133.951	0.508	-0.078
-226.713	-24.820	-0.153	0.114
-225.698	45.420	-0.204	-0.237
-224.684	237.051	0.212	-0.442
-223.669	800.000	0.023	-0.106
-222.655	-200.000	-0.029	-0.294
-221.640	384.163	0.149	-0.387
-220.625	-29.587	0.329	0.236
-219.611	72.268	-0.214	0.280
-218.596	-154.614	-0.158	0.013
-217.582	800.000	0.050	0.202
-216.567	-1.043	-0.277	-0.246
-215.552	-32.268	-0.122	0.085
-214.538	239.692	-0.059	-0.124
-213.523	-197.000	-0.402	-0.003
-212.509	-42.436	-0.298	-0.191
-211.494	-10.429	0.361	0.300
-210.479	223.786	-0.107	0.218
-209.465	-9.207	0.435	-0.365
-208.450	98.402	-0.281	0.407
-207.436	-161.831	-0.496	0.031
-206.421	-200.000	-0.032	-0.547
-205.406	-75.325	-0.397	-0.177
-204.392	20.812	0.206	-0.210
-203.377	-83.933	0.129	0.051
-202.363	6.426	0.353	0.329
-201.348	13.138	-0.332	0.322
-200.333	-75.742	-0.188	-0.084
-199.319	-52.458	-0.095	-0.055
-198.304	-200.000	-0.024	-0.215
-197.290	-147.682	0.134	0.014
-196.275	-121.520	-0.589	-0.122
-195.260	-59.639	0.604	0.324
-194.246	77.541	-0.184	-0.246
-193.231	192.367	-0.046	0.088
-192.217	52.621	0.129	0.155
-191.202	-31.360	0.192	-0.136
-190.187	-48.015	0.334	0.202
-189.173	-37.736	-0.121	-0.081
-188.158	800.000	0.073	0.358
-187.144	-82.263	0.079	0.032
-186.129	-53.541	-0.148	-0.085
-185.114	-54.198	0.229	0.130
-184.100	-89.617	-0.392	-0.144
-183.085	800.000	0.055	0.231
-182.071	-200.000	0.017	-0.296
-181.056	125.355	0.108	-0.172
-180.042	52.967	0.274	0.330
-179.027	-136.075	0.429	-0.063
-178.012	791.894	0.054	0.188
-176.998	-159.998	0.274	0.019
-175.983	-178.978	-0.504	0.014
-174.969	153.176	-0.369	-0.636
-173.954	183.550	-0.125	0.233
-172.939	9.585	-0.284	-0.270
-171.925	-95.678	0.405	-0.135
-170.910	153.289	0.276	-0.475
-169.896	249.373	-0.087	0.186
-168.881	-200.000	-0.024	0.213
-167.866	-200.000	-0.005	0.546
-166.852	21.188	0.328	0.334
-165.837	-103.256	-0.316	0.093
-164.823	-91.679	0.136	-0.048
-163.808	-47.092	0.273	0.166
-162.793	-0.440	0.234	0.208
-161.779	67.190	0.252	0.322
-160.764	-81.576	0.162	0.066
-159.750	-141.717	0.608	-0.076
-158.735	-27.122	-0.243	0.177
-157.720	-38.589	-0.081	-0.053
-156.706	-170.328	-0.449	-0.019
-155.691	-78.610	-0.440	-0.188
-154.677	-41.614	-0.225	0.145
-153.662	-24.374	-0.111	-0.083
-152.647	-109.920	0.285	-0.074
-151.633	-118.590	0.499	0.110
-150.618	-43.785	-0.153	0.096
-149.604	36.371	0.190	-0.210
-148.589	-61.680	0.506	-0.265
-147.574	-12.559	-0.360	-0.294
-146.560	176.928	0.291	-0.532
-145.545	-50.585	0.464	-0.273
-144.531	32.083	0.345	-0.372
-143.516	-55.545	-0.149	-0.083
-142.502	52.823	0.132	-0.158
-141.487	187.930	-0.064	0.121
-140.472	800.000	0.097	0.523
-139.458	-63.901	-0.331	-0.169
-138.443	16.290	0.495	-0.489
-137.429	-200.000	-0.042	-0.244
-136.414	-200.000	-0.045	0.444
-135.399	-81.952	-0.228	0.093
-134.385	-2.339	-0.503	-0.441
-133.370	-95.089	-0.110	0.037
-132.356	-193.907	0.364	0.004
-131.341	800.000	0.059	-0.242
-130.326	-71.752	-0.320	0.149
-129.312	-29.839	-0.144	-0.102
-128.297	411.734	0.101	-0.270
-127.283	-57.614	-0.065	-0.036
-126.268	-73.015	0.343	-0.157
-125.253	-26.337	-0.103	0.075
-124.239	105.355	-0.163	0.242
-123.224	123.869	-0.111	-0.175
-122.210	112.045	-0.210	0.318
