DTS Sentinel unit serial number:	SN409020Multiplexer serial number:	ORYXHardware model number:	OX4-SRSoftware version number:	ORYX F/W v3.00 Oryx Data Collector v3.7.2.0data status	okinstallation	HaddamTimeLapsedifferential loss correction	single-endedforward channel	channel 3reverse channel	N/Adate	2011/06/21time	23:41:16forward acquisition time	30.00reverse acquisition time	0.00gamma	498.7831k internal	0.1753k external	0.1753temperature offset calibration	1.0074default loss term (dB/km)	0.3790temperature slope calibration	1.3530multiplexer offset coefficient	1.0000multiplexer slope coefficient	1.0000fibre end	0.00T internal ref (°C)	23.12T ext. ref 1 (°C)	18.39T ext. ref 2 (°C)	0.05length (m)	temperature (°C)	Stokes	anti-Stokes-747.200	-36.891	-0.217	0.154
-746.185	-53.857	-0.420	0.253
-745.171	382.915	0.154	0.421
-744.156	165.171	0.146	0.274
-743.142	-61.897	-0.319	-0.177
-742.127	45.864	0.158	0.194
-741.112	-82.511	0.243	0.104
-740.098	-200.000	0.081	0.618
-739.083	-176.439	-0.236	-0.008
-738.069	-134.755	0.397	0.063
-737.054	75.770	-0.272	0.382
-736.039	-89.281	-0.317	0.123
-735.025	-38.983	-0.107	0.074
-734.010	112.591	0.190	0.306
-732.996	102.719	0.179	-0.279
-731.981	46.816	-0.147	-0.182
-730.966	674.084	-0.131	0.452
-729.952	18.970	-0.261	-0.278
-728.937	176.411	0.066	0.128
-727.923	-97.772	-0.432	-0.147
-726.908	-125.725	-0.405	-0.081
-725.894	-52.889	0.121	-0.074
-724.879	-182.555	-0.218	0.005
-723.864	71.208	-0.172	0.237
-722.850	-200.000	0.035	0.285
-721.835	474.593	0.012	0.036
-720.821	-200.000	-0.066	0.509
-719.806	-4.018	-0.333	0.306
-718.791	-200.000	-0.008	-0.192
-717.777	59.483	0.224	-0.293
-716.762	-163.469	-0.177	0.011
-715.748	-200.000	0.023	-0.169
-714.733	-42.208	0.204	-0.138
-713.718	-200.000	-0.028	-0.230
-712.704	-105.290	0.416	-0.125
-711.689	-129.736	-0.234	-0.042
-710.675	-123.665	0.238	0.050
-709.660	800.000	-0.052	0.236
-708.645	-72.477	-0.313	0.153
-707.631	-103.975	0.499	-0.153
-706.616	120.368	-0.507	-0.837
-705.602	-200.000	-0.032	-0.376
-704.587	175.716	-0.141	-0.272
-703.572	-68.802	0.340	-0.174
-702.558	154.304	-0.086	0.158
-701.543	289.693	-0.050	0.122
-700.529	87.716	-0.355	-0.522
-699.514	416.440	-0.074	0.210
-698.499	800.000	0.128	0.504
-697.485	-184.794	0.151	-0.003
-696.470	-126.471	-0.542	0.106
-695.456	800.000	-0.032	-0.148
-694.441	-11.772	-0.232	0.201
-693.426	-140.649	-0.227	0.031
-692.412	-200.000	-0.052	-0.475
-691.397	-125.371	-0.525	-0.105
-690.383	259.116	-0.137	-0.313
-689.368	-100.950	-0.475	-0.154
-688.354	358.744	-0.046	-0.121
-687.339	-120.050	-0.623	0.140
-686.324	614.855	0.074	0.246
-685.310	-116.694	-0.418	-0.101
-684.295	-200.000	0.065	0.400
-683.281	-122.329	0.432	0.093
-682.266	-100.580	0.428	0.139
-681.251	-25.366	0.280	-0.219
-680.237	2.707	0.278	-0.267
-679.222	143.162	-0.096	-0.169
-678.208	-145.546	0.361	-0.042
-677.193	391.445	-0.154	-0.425
-676.178	209.193	-0.277	-0.575
-675.164	62.762	-0.197	0.260
-674.149	412.845	-0.024	-0.066
-673.135	16.091	0.302	0.315
-672.120	-200.000	-0.036	-0.271
-671.105	-13.534	-0.266	-0.228
-670.091	-71.138	-0.330	0.163
-669.076	-33.815	-0.150	-0.109
-668.062	-41.544	-0.350	-0.238
-667.047	-77.619	0.221	-0.101
-666.032	-149.150	-0.068	-0.007
-665.018	-11.452	-0.230	-0.200
-664.003	-44.521	0.264	0.174
-662.989	-98.941	0.269	-0.090
-661.974	8.604	-0.446	0.444
-660.959	-172.797	-0.593	0.024
-659.945	3.670	0.277	0.267
-658.930	248.327	0.036	-0.082
-657.916	800.000	0.017	-0.072
-656.901	-5.404	0.207	0.188
-655.886	24.580	0.189	0.207
-654.872	-17.715	-0.367	0.304
-653.857	116.202	0.268	0.434
-652.843	18.032	0.221	0.233
-651.828	103.563	0.193	0.300
-650.814	-174.925	0.099	-0.004
-649.799	-83.717	0.192	0.081
-648.784	133.236	0.011	0.018
-647.770	-0.864	-0.356	-0.333
-646.755	-83.573	-0.235	-0.099
-645.741	-152.481	-0.247	-0.023
-644.726	-87.199	-0.295	0.118
-643.711	-108.080	-0.485	-0.138
-642.697	-26.601	0.059	-0.046
-641.682	-64.823	-0.108	-0.057
-640.668	13.671	0.158	0.162
-639.653	-103.476	0.224	0.069
-638.638	48.858	0.211	-0.261
-637.624	-31.084	0.270	-0.201
-636.609	-74.923	0.110	0.052
-635.595	15.095	0.307	-0.318
-634.580	-200.000	-0.007	-0.195
-633.565	-153.837	-0.440	0.039
-632.551	800.000	0.060	-0.287
-631.536	800.000	0.071	-0.297
-630.522	-186.198	-0.201	0.004
-629.507	-25.035	-0.178	0.140
-628.492	573.945	-0.115	0.374
-627.478	71.676	0.145	-0.199
-626.463	-130.825	0.579	0.102
-625.449	-14.708	-0.140	0.119
-624.434	-103.207	0.080	-0.025
-623.419	800.000	0.122	0.665
-622.405	-21.208	0.138	0.112
-621.390	-150.205	0.200	-0.020
-620.376	159.479	-0.134	-0.248
-619.361	-132.114	-0.362	-0.062
-618.346	1.684	-0.247	0.235
-617.332	-26.928	-0.610	-0.470
-616.317	110.284	-0.116	0.184
-615.303	-69.062	0.085	0.043
-614.288	800.000	-0.023	-0.131
-613.273	527.314	-0.197	0.616
-612.259	-75.422	0.269	-0.126
-611.244	-127.919	0.081	-0.015
-610.230	-17.129	-0.369	0.307
-609.215	482.179	0.020	0.059
-608.201	-146.025	-0.181	0.021
-607.186	-49.400	0.303	-0.190
-606.171	100.610	-0.185	-0.284
-605.157	33.343	0.386	0.443
-604.142	28.770	-0.159	0.178
-603.128	83.567	0.238	-0.343
-602.113	411.548	0.097	0.274
-601.098	106.735	-0.171	0.268
-600.084	115.811	-0.105	0.170
-599.069	13.895	-0.214	0.220
-598.055	141.223	-0.176	-0.308
-597.040	-148.285	-0.093	-0.010
-596.025	800.000	0.075	0.297
-595.011	36.372	-0.294	0.343
-593.996	10.173	-0.299	-0.300
-592.982	83.028	0.142	-0.204
-591.967	192.450	0.099	0.198
-590.952	-79.272	0.195	0.087
-589.938	62.527	-0.229	-0.302
-588.923	170.793	0.139	-0.263
-587.909	-57.633	-0.289	0.166
-586.894	-21.502	-0.306	-0.246
-585.879	-109.386	0.495	0.137
-584.865	-11.825	-0.248	0.214
-583.850	604.499	0.222	0.733
-582.836	-153.965	-0.472	-0.042
-581.821	-102.561	-0.275	-0.086
-580.806	-127.693	0.408	-0.077
-579.792	800.000	0.034	-0.157
-578.777	-29.832	0.348	-0.261
-577.763	-6.700	-0.307	-0.275
-576.748	-129.624	-0.152	-0.027
-575.733	204.766	0.046	0.094
-574.719	33.302	-0.221	-0.253
-573.704	-61.604	-0.353	-0.195
-572.690	800.000	0.097	0.487
-571.675	-200.000	0.002	-0.222
-570.661	-22.087	-0.435	0.348
-569.646	800.000	-0.021	0.121
-568.631	-200.000	-0.333	-0.002
-567.617	-138.327	-0.364	-0.052
-566.602	386.926	0.089	0.244
-565.588	-49.330	-0.133	0.083
-564.573	61.726	-0.230	0.302
-563.558	-64.244	-0.087	-0.046
-562.544	211.715	-0.101	0.210
-561.529	171.092	0.187	-0.355
-560.515	86.980	0.052	0.076
-559.500	-200.000	-0.030	0.237
-558.485	-6.242	-0.124	-0.111
-557.471	-200.000	0.020	0.328
-556.456	-42.679	-0.570	0.381
-555.442	-200.000	-0.039	-0.243
-554.427	-182.481	-0.233	0.006
-553.412	-200.000	-0.025	-0.194
-552.398	256.968	0.193	0.439
-551.383	-74.974	0.294	0.138
-550.369	-44.992	0.112	0.073
-549.354	-41.454	-0.062	-0.042
-548.339	100.489	-0.254	0.389
-547.325	-200.000	-0.105	-0.614
-546.310	-200.000	-0.051	-0.316
-545.296	-40.242	-0.322	0.220
-544.281	73.590	0.160	0.221
-543.266	800.000	-0.029	-0.163
-542.252	-200.000	-0.050	0.360
-541.237	-200.000	-0.010	-0.358
-540.223	-160.793	-0.359	0.025
-539.208	-152.772	0.330	-0.030
-538.193	-77.323	-0.072	-0.033
-537.179	77.570	0.117	0.164
-536.164	-47.165	0.274	-0.176
-535.150	210.522	-0.088	-0.182
-534.135	183.960	0.213	-0.416
-533.121	-99.151	0.386	-0.128
-532.106	24.109	-0.246	-0.267
-531.091	-187.204	-0.244	-0.004
-530.077	-21.472	0.206	0.165
-529.062	-81.386	0.355	-0.153
-528.048	53.218	0.202	-0.255
-527.033	-100.313	0.243	-0.079
-526.018	-123.958	0.127	-0.026
-525.004	456.901	-0.074	-0.217
-523.989	-122.314	0.480	0.102
-522.975	-121.218	-0.136	0.030
-521.960	-108.943	-0.175	0.049
-520.945	-120.359	0.453	-0.101
-519.931	-200.000	0.140	0.875
-518.916	13.422	-0.231	-0.235
-517.902	266.026	0.010	0.024
-516.887	366.174	0.129	0.343
-515.872	63.536	-0.211	0.278
-514.858	-200.000	0.005	-0.038
-513.843	448.692	0.129	0.374
-512.829	212.454	-0.115	0.240
-511.814	434.835	0.045	0.128
-510.799	-138.778	-0.220	-0.031
-509.785	-133.881	-0.259	0.042
-508.770	39.390	0.200	-0.236
-507.756	-81.122	0.530	0.229
-506.741	-72.140	0.327	-0.159
-505.726	12.733	-0.281	-0.285
-504.712	183.136	-0.098	-0.191
-503.697	-122.237	-0.327	0.070
-502.683	-49.253	0.467	-0.292
-501.668	-90.888	0.792	0.298
-500.653	-48.470	-0.184	0.116
-499.639	749.258	0.130	-0.463
-498.624	-196.451	-0.548	-0.005
-497.610	60.951	-0.243	0.317
-496.595	189.437	-0.119	0.235
-495.581	143.803	-0.113	0.198
-494.566	-9.466	-0.095	-0.083
-493.551	800.000	0.016	0.080
-492.537	216.691	-0.186	0.391
-491.522	-68.338	0.613	-0.312
-490.508	-31.227	0.205	-0.151
-489.493	-159.249	-0.191	-0.014
-488.478	429.993	0.202	-0.576
-487.464	479.119	0.070	-0.210
-486.449	82.727	0.137	-0.196
-485.435	84.385	-0.218	0.314
-484.420	-90.997	0.257	0.096
-483.405	-3.724	-0.416	-0.380
-482.391	-183.562	0.193	0.004
-481.376	-88.948	0.374	-0.145
-480.362	-62.338	-0.229	0.125
-479.347	-200.000	0.047	-0.342
-478.332	-87.986	0.360	0.141
-477.318	-162.411	-0.404	-0.026
-476.303	-200.000	-0.025	0.446
-475.289	-200.000	0.012	-0.182
-474.274	-128.877	0.333	-0.061
-473.259	-200.000	0.035	0.264
-472.245	106.661	0.276	-0.431
-471.230	-200.000	0.000	0.082
-470.216	-140.460	-0.420	0.057
-469.201	-200.000	0.076	-0.569
-468.186	-142.571	0.357	-0.045
-467.172	-200.000	-0.042	-0.273
-466.157	-76.779	0.389	0.178
-465.143	-8.878	-0.036	-0.031
-464.128	681.924	0.081	-0.278
-463.113	-85.757	0.190	0.077
-462.099	-44.589	-0.522	-0.342
-461.084	-133.062	-0.201	-0.033
-460.070	426.206	-0.210	-0.596
-459.055	51.675	-0.167	0.209
-458.040	-200.000	0.028	0.420
-457.026	-159.496	0.155	0.011
-456.011	232.529	0.054	-0.117
-454.997	-158.788	-0.606	-0.045
-453.982	-200.000	-0.005	0.144
-452.968	800.000	0.078	0.298
-451.953	-26.568	-0.137	0.105
-450.938	800.000	-0.084	-0.346
-449.924	10.316	-0.014	-0.014
-448.909	-117.652	-0.190	0.045
-447.895	-120.902	-0.171	0.038
-446.880	-100.636	0.124	-0.040
-445.865	0.143	0.432	0.404
-444.851	526.708	0.084	-0.261
-443.836	349.573	0.086	-0.224
-442.822	-200.000	-0.036	0.414
-441.807	-200.000	0.056	-0.500
-440.792	77.013	0.037	-0.051
-439.778	-75.793	0.066	0.031
-438.763	-200.000	0.020	0.307
-437.749	800.000	-0.118	0.492
-436.734	-121.079	-0.566	-0.123
-435.719	34.960	0.192	0.220
-434.705	16.110	-0.019	0.020
-433.690	-116.862	-0.280	0.067
-432.676	74.288	-0.112	-0.154
-431.661	76.536	-0.040	-0.056
-430.646	-72.914	0.406	0.195
-429.632	-106.115	-0.368	0.108
-428.617	-113.547	-0.281	0.071
-427.603	-169.386	-0.240	-0.011
-426.588	140.784	0.090	0.157
-425.573	52.195	-0.127	0.159
-424.559	-100.720	0.253	0.081
-423.544	4.778	-0.216	0.208
-422.530	800.000	0.135	-0.554
-421.515	335.596	-0.211	0.539
-420.500	467.897	0.128	-0.377
-419.486	-91.707	0.431	0.160
-418.471	-70.361	-0.220	0.109
-417.457	800.000	0.086	0.321
-416.442	-101.182	0.124	0.039
-415.428	-131.415	0.221	-0.038
-414.413	-18.990	-0.270	0.220
-413.398	209.049	0.229	0.471
-412.384	-62.816	-0.278	0.150
-411.369	-114.990	-0.191	0.047
-410.355	800.000	-0.097	-0.373
-409.340	91.524	-0.203	0.299
-408.325	-153.883	0.165	0.015
-407.311	529.358	0.111	0.346
-406.296	-74.870	-0.165	0.077
-405.282	-68.992	0.347	0.175
-404.267	-100.189	-0.147	0.048
-403.252	116.970	0.119	0.192
-402.238	-134.495	-0.092	-0.015
-401.223	-200.000	-0.060	0.418
-400.209	-200.000	0.006	-0.351
-399.194	-200.000	0.008	-0.320
-398.179	-135.303	-0.084	-0.013
-397.165	277.509	-0.078	-0.183
-396.150	94.324	-0.216	0.321
-395.136	-81.904	0.289	-0.123
-394.121	-29.561	-0.513	-0.383
-393.106	-91.560	-0.345	-0.128
-392.092	-200.000	0.049	-0.282
-391.077	128.511	-0.143	-0.239
-390.063	-200.000	-0.043	-0.529
-389.048	57.509	0.080	0.103
-388.033	800.000	-0.083	0.406
-387.019	297.017	0.179	-0.431
-386.004	331.556	-0.067	0.171
-384.990	-4.709	-0.283	0.255
-383.975	-147.256	0.475	0.052
-382.960	-97.775	0.457	-0.154
-381.946	-108.321	0.282	-0.079
-380.931	-33.809	0.298	0.214
-379.917	800.000	-0.105	0.586
-378.902	-200.000	0.097	-0.576
-377.888	77.346	-0.255	-0.356
-376.873	-200.000	0.059	-0.369
-375.858	57.369	0.298	0.382
-374.844	-40.304	-0.240	-0.163
-373.829	-200.000	0.002	-0.423
-372.815	-46.631	0.241	0.154
-371.800	42.036	0.262	-0.311
-370.785	-109.774	0.361	0.099
-369.771	113.504	0.030	-0.048
-368.756	-200.000	0.008	0.090
-367.742	90.659	-0.183	-0.269
-366.727	-93.684	-0.308	-0.111
-365.712	-27.905	0.206	0.156
-364.698	176.070	0.244	0.465
-363.683	-76.805	-0.159	0.072
-362.669	-200.000	-0.032	-0.364
-361.654	-162.661	-0.473	0.030
-360.639	552.312	0.162	0.511
-359.625	141.397	0.189	0.327
-358.610	-102.370	0.382	-0.119
-357.596	-200.000	0.014	0.345
-356.581	-82.230	-0.187	-0.079
-355.566	-94.027	0.378	-0.135
-354.552	-200.000	0.051	0.300
-353.537	-74.331	-0.123	-0.058
-352.523	-93.232	0.380	-0.137
-351.508	1.029	-0.179	0.168
-350.493	282.020	-0.181	-0.426
-349.479	-200.000	0.008	-0.380
-348.464	800.000	-0.055	0.225
-347.450	-112.165	-0.459	-0.120
-346.435	-200.000	0.070	0.633
-345.420	49.169	-0.083	-0.102
-344.406	113.651	0.063	-0.099
-343.391	-58.430	0.034	0.019
-342.377	208.920	0.247	0.507
-341.362	-117.635	0.442	0.103
-340.348	-111.636	-0.381	0.100
-339.333	169.348	0.112	-0.209
-338.318	-124.455	-0.398	-0.080
-337.304	-148.831	-0.302	-0.032
-336.289	800.000	0.084	-0.321
-335.275	-200.000	-0.007	-0.241
-334.260	-169.454	0.343	-0.016
-333.245	9.297	0.075	-0.074
-332.231	-80.835	-0.210	-0.091
-331.216	3.172	0.349	-0.331
-330.202	219.432	-0.035	-0.074
-329.187	-4.127	0.377	0.341
-328.172	-26.724	-0.042	0.032
-327.158	-92.041	0.323	-0.118
-326.143	-98.014	0.161	0.054
-325.129	64.286	-0.215	-0.283
-324.114	-23.208	0.546	-0.429
-323.099	800.000	-0.072	-0.268
-322.085	-125.561	0.055	-0.011
-321.070	-109.750	-0.648	-0.176
-320.056	-110.754	-0.274	0.073
-319.041	5.864	0.189	-0.183
-318.026	140.600	0.074	-0.127
-317.012	308.784	-0.067	-0.165
-315.997	-1.065	0.288	0.265
-314.983	309.537	0.128	0.314
-313.968	223.756	0.098	-0.206
-312.953	37.414	-0.262	-0.303
-311.939	-133.056	-0.385	-0.063
-310.924	280.127	0.125	-0.293
-309.910	-200.000	-0.004	0.058
-308.895	-200.000	-0.009	-0.155
-307.880	800.000	0.134	-0.565
-306.866	800.000	-0.095	-0.368
-305.851	800.000	-0.040	-0.166
-304.837	-5.239	0.326	-0.292
-303.822	-164.693	-0.290	-0.017
-302.807	-113.762	0.538	-0.136
-301.793	196.762	0.047	-0.094
-300.778	5.424	0.237	-0.228
-299.764	-107.421	0.104	0.029
-298.749	-42.175	-0.106	-0.071
-297.735	-42.495	0.357	0.237
-296.720	85.417	0.205	0.295
-295.705	-10.979	-0.487	-0.418
-294.691	35.497	0.097	0.111
-293.676	31.360	0.214	0.240
-292.662	-144.379	0.291	0.035
-291.647	-126.982	0.179	-0.034
-290.632	-200.000	0.013	0.163
-289.618	800.000	0.097	0.537
-288.603	105.921	-0.222	0.344
-287.589	173.318	-0.124	0.233
-286.574	470.921	0.110	-0.324
-285.559	-93.046	0.186	-0.067
-284.545	-141.813	0.363	0.047
-283.530	800.000	0.034	-0.166
-282.516	-28.169	-0.445	0.335
-281.501	-179.993	0.514	-0.014
-280.486	192.984	0.289	0.571
-279.472	-68.244	0.557	-0.281
-278.457	-164.903	-0.199	-0.011
-277.443	-77.659	-0.506	0.227
-276.428	692.014	0.128	0.441
-275.413	-200.000	0.013	-0.226
-274.399	-200.000	0.030	0.510
-273.384	406.505	0.085	0.234
-272.370	726.954	0.095	0.334
-271.355	-100.823	0.345	-0.110
-270.340	72.488	0.115	0.156
-269.326	-53.979	-0.615	0.364
-268.311	-106.719	-0.841	-0.242
-267.297	14.703	0.188	0.191
-266.282	76.548	0.130	-0.180
-265.267	126.615	0.117	0.193
-264.253	3.062	0.219	-0.207
-263.238	15.893	-0.105	0.108
-262.224	-121.224	0.328	0.071
-261.209	-94.975	-0.390	-0.137
-260.195	37.899	0.274	0.317
-259.180	-200.000	0.021	0.271
-258.165	576.470	-0.055	-0.175
-257.151	-95.237	-0.428	-0.149
-256.136	-80.146	-0.131	0.057
-255.122	690.134	0.079	-0.271
-254.107	-200.000	0.032	0.307
-253.092	800.000	0.066	0.377
-252.078	-200.000	0.005	0.030
-251.063	-166.263	0.213	0.012
-250.049	-143.859	-0.467	-0.057
-249.034	-75.806	-0.621	-0.285
-248.019	194.798	-0.140	-0.277
-247.005	-100.216	-0.326	-0.105
-245.990	-139.718	-0.405	-0.055
-244.976	800.000	-0.039	-0.158
-243.961	-200.000	-0.024	-0.207
-242.946	70.846	-0.088	-0.119
-241.932	-32.120	0.222	0.161
-240.917	-5.558	0.431	0.385
-239.903	441.928	0.074	-0.211
-238.888	-17.677	0.026	-0.021
-237.873	128.502	-0.203	-0.336
-236.859	257.992	0.115	0.259
-235.844	-71.968	-0.280	-0.135
-234.830	-200.000	-0.044	0.430
-233.815	-170.711	0.460	-0.020
-232.800	122.813	-0.291	-0.475
-231.786	233.047	-0.123	-0.264
-230.771	800.000	0.132	-0.625
-229.757	-200.000	0.000	-0.458
-228.742	-200.000	-0.028	-0.469
-227.727	13.829	-0.209	-0.211
-226.713	17.233	0.131	0.136
-225.698	185.678	-0.231	0.447
-224.684	435.921	0.204	0.581
-223.669	381.416	0.140	0.374
-222.655	89.548	0.175	0.254
-221.640	-125.103	-0.266	0.053
-220.625	162.857	-0.262	-0.479
-219.611	755.093	0.222	-0.786
-218.596	-83.232	-0.380	0.158
-217.582	800.000	0.057	-0.204
-216.567	109.927	-0.203	0.318
-215.552	-48.322	-0.201	-0.126
-214.538	45.701	0.285	-0.342
-213.523	444.200	0.117	-0.336
-212.509	-12.353	0.336	0.285
-211.494	-71.583	0.243	0.117
-210.479	-52.960	0.118	-0.070
-209.465	-4.470	0.162	-0.145
-208.450	-15.271	-0.241	0.200
-207.436	-200.000	0.050	0.000
-206.421	-183.516	0.337	0.007
-205.406	800.000	-0.069	0.369
-204.392	-200.000	-0.024	-0.183
-203.377	-152.461	0.809	0.075
-202.363	-183.667	-0.310	-0.007
-201.348	-20.595	0.074	0.059
-200.333	800.000	0.176	-0.828
-199.319	-200.000	-0.023	-0.316
-198.304	-100.683	-0.085	-0.027
-197.290	-43.093	0.256	-0.168
-196.275	231.572	-0.089	-0.189
-195.260	100.699	-0.019	-0.029
-194.246	-168.457	0.158	-0.008
-193.231	-151.674	0.306	-0.029
-192.217	73.470	0.279	0.379
-191.202	-14.453	-0.200	0.167
-190.187	800.000	0.090	-0.392
-189.173	12.172	0.358	-0.358
-188.158	231.280	0.168	-0.358
-187.144	-55.005	0.164	-0.096
-186.129	60.837	0.185	0.239
-185.114	-77.613	0.057	0.025
-184.100	72.310	0.227	0.308
-183.085	-110.820	0.371	0.099
-182.071	18.313	-0.312	0.323
-181.056	-200.000	0.009	0.390
-180.042	-12.980	-0.209	-0.176
-179.027	-34.527	-0.060	-0.043
-178.012	-11.635	-0.237	-0.202
-176.998	-68.747	0.303	-0.151
-175.983	-18.438	-0.267	-0.216
-174.969	-83.051	0.318	0.132
-173.954	-200.000	-0.043	0.396
-172.939	210.515	0.212	0.434
-171.925	-60.828	-0.260	-0.142
-170.910	-126.313	0.376	0.072
-169.896	800.000	0.068	0.335
-168.881	-51.097	0.051	-0.031
-167.866	-161.626	-0.448	-0.029
-166.852	-119.166	-0.119	-0.027
-165.837	46.108	-0.063	0.076
-164.823	-73.317	-0.391	0.185
-163.808	-42.331	0.312	0.206
-162.793	-44.413	0.364	0.236
-161.779	-118.477	-0.355	-0.081
-160.764	800.000	-0.102	0.396
-159.750	242.864	-0.165	-0.360
-158.735	-28.170	-0.206	-0.154
-157.720	-145.765	-0.368	-0.042
-156.706	66.155	0.303	0.399
-155.691	-17.043	-0.411	0.336
-154.677	313.038	0.095	-0.232
-153.662	-44.575	0.159	0.103
-152.647	-57.435	-0.194	0.110
-151.633	57.060	-0.108	-0.137
-150.618	-62.052	-0.134	0.072
-149.604	67.722	-0.227	0.302
-148.589	-32.488	0.128	0.092
-147.574	119.060	0.107	-0.171
-146.560	-154.547	-0.126	-0.011
-145.545	-200.000	-0.026	0.309
-144.531	37.096	-0.159	0.183
-143.516	-102.184	-0.180	0.056
-142.502	-200.000	-0.010	-0.343
-141.487	81.245	0.112	0.157
-140.472	-149.509	-0.243	-0.025
-139.458	-76.304	-0.408	-0.185
-138.443	-130.885	-0.276	0.047
-137.429	-200.000	0.005	-0.241
-136.414	800.000	0.075	0.423
-135.399	-72.582	-0.254	-0.121
-134.385	800.000	0.038	-0.178
-133.370	-109.696	0.244	-0.066
-132.356	111.202	0.130	-0.203
-131.341	800.000	-0.059	0.276
-130.326	-36.400	0.500	-0.348
-129.312	800.000	-0.026	0.117
-128.297	32.087	0.248	0.277
-127.283	-200.000	-0.016	-0.340
-126.268	-200.000	-0.027	-0.228
-125.253	343.688	-0.143	0.365
-124.239	9.645	-0.081	-0.080
-123.224	1.457	0.176	-0.164
-122.210	641.682	0.119	-0.394
