DTS Sentinel unit serial number:	SN409020Multiplexer serial number:	ORYXHardware model number:	OX4-SRSoftware version number:	ORYX F/W v3.00 Oryx Data Collector v3.7.2.0data status	okinstallation	HaddamTimeLapsedifferential loss correction	single-endedforward channel	channel 3reverse channel	N/Adate	2011/06/21time	14:46:17forward acquisition time	30.00reverse acquisition time	0.00gamma	498.7831k internal	0.1816k external	0.1816temperature offset calibration	1.0074default loss term (dB/km)	0.3790temperature slope calibration	1.3530multiplexer offset coefficient	1.0000multiplexer slope coefficient	1.0000fibre end	0.00T internal ref (°C)	38.37T ext. ref 1 (°C)	29.28T ext. ref 2 (°C)	0.23length (m)	temperature (°C)	Stokes	anti-Stokes-747.200	-43.642	0.401	-0.258
-746.185	-200.000	-0.041	0.268
-745.171	-59.582	-0.365	-0.200
-744.156	-120.404	0.302	0.065
-743.142	-20.187	-0.219	-0.172
-742.127	-110.692	0.414	0.109
-741.112	277.557	-0.179	-0.409
-740.098	-119.764	-0.265	-0.058
-739.083	74.729	0.200	0.270
-738.069	-76.639	0.186	-0.083
-737.054	-47.756	-0.305	-0.189
-736.039	-13.047	0.219	-0.182
-735.025	9.571	0.187	-0.181
-734.010	-37.511	0.233	-0.159
-732.996	99.986	0.299	0.445
-731.981	83.075	0.270	-0.377
-730.966	-137.940	-0.299	-0.042
-729.952	-26.300	-0.163	-0.122
-728.937	56.450	-0.076	-0.095
-727.923	176.470	0.053	0.100
-726.908	-28.168	-0.312	-0.230
-725.894	-157.301	-0.371	-0.028
-724.879	45.414	-0.199	0.235
-723.864	-47.228	-0.329	0.204
-722.850	-27.437	0.083	-0.062
-721.835	2.957	0.193	-0.179
-720.821	-11.278	-0.294	-0.248
-719.806	-25.753	0.255	0.192
-718.791	40.020	-0.159	-0.182
-717.777	79.165	-0.221	0.304
-716.762	800.000	-0.117	0.493
-715.748	-91.923	-0.334	0.121
-714.733	17.107	-0.139	0.141
-713.718	271.903	-0.055	0.124
-712.704	183.183	-0.142	0.269
-711.689	-200.000	0.008	-0.318
-710.675	7.788	0.279	-0.267
-709.660	800.000	0.104	0.423
-708.645	-164.521	0.221	-0.013
-707.631	-200.000	0.007	0.200
-706.616	64.111	-0.258	0.332
-705.602	140.412	-0.071	-0.120
-704.587	-40.035	0.326	0.217
-703.572	-106.252	-0.244	0.070
-702.558	-28.195	-0.138	0.101
-701.543	-200.000	-0.016	-0.676
-700.529	125.956	-0.172	0.279
-699.514	-46.658	-0.292	-0.182
-698.499	-28.181	0.458	-0.338
-697.485	-33.759	0.276	-0.194
-696.470	800.000	0.072	0.397
-695.456	-128.046	-0.347	0.063
-694.441	58.983	-0.148	0.186
-693.426	-200.000	-0.010	0.121
-692.412	104.638	-0.074	-0.112
-691.397	800.000	-0.045	-0.225
-690.383	-200.000	-0.010	0.133
-689.368	-150.132	-0.387	0.038
-688.354	800.000	-0.110	-0.509
-687.339	123.554	0.119	-0.191
-686.324	305.567	-0.141	-0.336
-685.310	-38.721	-0.445	-0.299
-684.295	-200.000	0.030	0.317
-683.281	-200.000	-0.039	0.326
-682.266	-152.324	-0.216	0.020
-681.251	38.159	-0.186	0.212
-680.237	-131.202	0.195	-0.033
-679.222	-9.122	0.290	-0.247
-678.208	-117.600	0.393	-0.090
-677.193	-60.585	0.167	-0.090
-676.178	340.914	0.138	-0.346
-675.164	216.073	-0.116	-0.236
-674.149	-12.580	-0.071	-0.059
-673.135	58.409	-0.211	0.265
-672.120	-200.000	-0.052	0.361
-671.105	-77.239	-0.210	-0.093
-670.091	-200.000	-0.023	-0.189
-669.076	216.924	-0.181	-0.370
-668.062	24.497	0.218	0.230
-667.047	-78.987	-0.210	-0.091
-666.032	224.724	-0.135	-0.280
-665.018	-157.359	0.486	-0.037
-664.003	-107.851	0.155	0.043
-662.989	-200.000	0.060	-0.396
-661.974	106.539	-0.146	-0.221
-660.959	279.551	0.160	0.365
-659.945	260.491	-0.106	0.234
-658.930	-4.974	0.291	0.256
-657.916	-200.000	-0.009	0.234
-656.901	-76.569	-0.301	0.134
-655.886	92.182	0.082	0.118
-654.872	-158.401	0.584	-0.043
-653.857	68.153	-0.328	0.429
-652.843	-96.714	-0.351	0.117
-651.828	212.014	-0.116	-0.233
-650.814	-4.480	0.255	0.225
-649.799	-125.942	0.197	-0.038
-648.784	-172.799	0.160	0.006
-647.770	-83.007	-0.282	0.115
-646.755	-145.491	-0.724	-0.082
-645.741	-151.980	-0.562	-0.052
-644.726	730.122	0.043	-0.149
-643.711	-200.000	-0.030	0.203
-642.697	-200.000	0.015	-0.428
-641.682	-63.773	-0.347	0.181
-640.668	129.562	0.044	0.072
-639.653	-36.194	0.259	-0.178
-638.638	514.085	-0.116	-0.348
-637.624	-90.490	-0.365	-0.134
-636.609	-141.996	-0.246	-0.031
-635.595	-200.000	-0.044	-0.275
-634.580	-117.610	0.336	-0.077
-633.565	-105.272	0.363	-0.105
-632.551	800.000	0.031	-0.166
-631.536	-138.344	0.230	-0.032
-630.522	-200.000	0.029	0.469
-629.507	-200.000	0.040	0.252
-628.492	800.000	0.076	-0.402
-627.478	43.439	-0.037	-0.043
-626.463	-171.826	0.060	-0.002
-625.449	259.000	0.099	0.219
-624.434	119.721	-0.074	-0.116
-623.419	-98.488	0.220	0.071
-622.405	-58.836	-0.187	-0.103
-621.390	-116.294	0.215	0.050
-620.376	116.608	0.055	-0.085
-619.361	153.680	0.174	0.304
-618.346	800.000	-0.029	0.144
-617.332	-33.722	-0.473	-0.332
-616.317	-39.817	0.104	0.069
-615.303	295.712	0.102	0.239
-614.288	201.801	-0.285	-0.562
-613.273	800.000	0.063	0.348
-612.259	639.009	-0.032	-0.103
-611.244	-113.828	0.311	0.076
-610.230	43.122	-0.446	-0.519
-609.215	84.335	-0.233	-0.325
-608.201	-57.529	-0.126	0.070
-607.186	-139.669	-0.226	0.030
-606.171	243.745	-0.145	-0.311
-605.157	313.405	0.142	0.341
-604.142	89.593	-0.034	-0.049
-603.128	-118.987	-0.312	-0.069
-602.113	-200.000	-0.040	0.248
-601.098	17.134	0.362	-0.365
-600.084	-60.299	-0.497	-0.268
-599.069	305.812	-0.078	-0.185
-598.055	-141.243	0.200	-0.026
-597.040	673.104	-0.113	0.374
-596.025	-35.348	0.169	0.116
-595.011	-45.546	-0.384	-0.241
-593.996	-131.291	-0.107	0.018
-592.982	101.134	0.077	0.114
-591.967	-70.084	-0.441	-0.213
-590.952	-181.627	-0.151	0.004
-589.938	-162.986	0.604	-0.037
-588.923	-110.941	-0.130	0.034
-587.909	-200.000	-0.022	-0.497
-586.894	402.021	0.098	0.265
-585.879	212.041	-0.236	0.476
-584.865	7.383	-0.367	0.349
-583.850	-22.095	-0.125	-0.097
-582.836	26.293	-0.188	-0.200
-581.821	-78.320	0.392	0.170
-580.806	513.890	0.092	0.275
-579.792	-107.328	-0.162	0.045
-578.777	-43.620	-0.389	-0.249
-577.763	420.449	-0.082	-0.224
-576.748	419.576	-0.030	-0.081
-575.733	368.123	-0.156	-0.402
-574.719	96.782	0.061	0.090
-573.704	-40.441	0.451	-0.297
-572.690	-113.863	-0.580	-0.142
-571.675	-200.000	-0.017	0.271
-570.661	257.966	0.126	0.278
-569.646	800.000	0.048	-0.250
-568.631	102.826	0.142	-0.212
-567.617	321.222	0.070	0.170
-566.602	344.535	-0.085	-0.213
-565.588	8.079	0.549	-0.523
-564.573	87.751	-0.326	-0.459
-563.558	-173.338	0.312	0.012
-562.544	-114.531	0.216	-0.052
-561.529	-200.000	0.054	-0.416
-560.515	64.487	0.054	-0.070
-559.500	-200.000	0.012	-0.519
-558.485	-168.033	-0.135	0.007
-557.471	-77.800	-0.118	0.052
-556.456	800.000	-0.037	-0.187
-555.442	596.096	-0.070	0.220
-554.427	-101.819	-0.510	0.156
-553.412	-200.000	-0.014	0.172
-552.398	67.119	-0.106	-0.137
-551.383	13.145	-0.109	-0.107
-550.369	305.782	-0.072	-0.170
-549.354	-117.065	-0.281	0.065
-548.339	-200.000	0.046	-0.344
-547.325	300.771	0.097	-0.229
-546.310	13.093	-0.269	0.265
-545.296	157.482	-0.159	0.281
-544.281	617.691	0.187	0.599
-543.266	-70.429	-0.713	0.342
-542.252	-200.000	-0.033	-0.372
-541.237	50.755	0.457	0.550
-540.223	-82.623	0.583	-0.239
-539.208	153.789	0.340	0.593
-538.193	258.462	-0.152	0.333
-537.179	-200.000	-0.009	0.218
-536.164	-3.016	0.386	0.342
-535.150	-32.291	0.183	-0.130
-534.135	49.370	0.142	-0.170
-533.121	-200.000	-0.042	-0.382
-532.106	-176.367	0.458	0.015
-531.091	-200.000	0.011	-0.169
-530.077	-8.756	-0.095	0.081
-529.062	-68.579	-0.256	0.125
-528.048	-30.653	0.233	-0.167
-527.033	-136.975	0.424	-0.061
-526.018	-180.314	-0.153	0.004
-525.004	-17.036	-0.105	-0.084
-523.989	-76.764	0.356	-0.158
-522.975	-97.148	-0.387	-0.128
-521.960	-200.000	0.056	-0.334
-520.945	-113.953	0.265	-0.065
-519.931	-198.475	0.120	0.001
-518.916	148.420	-0.113	0.194
-517.902	-32.500	-0.306	0.216
-516.887	177.262	0.172	0.319
-515.872	-200.000	-0.051	0.352
-514.858	-200.000	0.026	-0.194
-513.843	800.000	-0.069	-0.269
-512.829	800.000	-0.120	-0.530
-511.814	52.892	-0.240	0.291
-510.799	800.000	-0.028	-0.159
-509.785	-200.000	-0.005	-0.314
-508.770	-74.183	-0.403	-0.184
-507.756	77.073	0.113	-0.152
-506.741	800.000	0.041	0.192
-505.726	-15.130	0.129	-0.105
-504.712	800.000	0.060	-0.261
-503.697	-2.977	0.121	-0.108
-502.683	144.390	-0.069	-0.118
-501.668	166.852	0.174	0.314
-500.653	115.563	-0.160	-0.249
-499.639	-200.000	-0.036	-0.266
-498.624	-113.999	0.198	0.048
-497.610	-92.687	0.365	0.129
-496.595	-64.894	-0.129	-0.066
-495.581	573.448	-0.157	-0.489
-494.566	-114.206	-0.486	0.118
-493.551	199.322	-0.208	-0.406
-492.537	-50.906	0.139	-0.083
-491.522	800.000	0.020	-0.104
-490.508	-148.434	-0.261	0.027
-489.493	-200.000	-0.002	0.193
-488.478	280.412	-0.046	-0.104
-487.464	437.777	0.051	-0.143
-486.449	145.775	0.066	0.112
-485.435	-15.851	0.196	0.158
-484.420	-26.937	-0.380	-0.281
-483.405	-114.455	0.111	-0.027
-482.391	-155.304	0.144	-0.012
-481.376	-200.000	0.032	-0.330
-480.362	-132.914	-0.127	-0.020
-479.347	800.000	-0.094	-0.347
-478.332	-50.740	-0.183	-0.109
-477.318	-200.000	-0.048	0.299
-476.303	266.625	0.169	0.375
-475.289	84.430	0.239	0.331
-474.274	-114.022	0.201	0.049
-473.259	686.439	0.055	-0.182
-472.245	-25.637	0.269	-0.201
-471.230	-200.000	0.054	-0.312
-470.216	-157.101	0.346	0.026
-469.201	-140.572	-0.402	-0.052
-468.186	19.368	-0.208	-0.212
-467.172	800.000	-0.063	-0.223
-466.157	223.545	-0.082	0.169
-465.143	-200.000	0.019	0.305
-464.128	285.031	-0.164	0.376
-463.113	-200.000	-0.000	0.094
-462.099	-200.000	0.004	0.596
-461.084	34.023	0.246	0.271
-460.070	-5.495	-0.386	0.335
-459.055	50.559	-0.239	0.287
-458.040	800.000	-0.129	-0.630
-457.026	-38.441	0.162	0.108
-456.011	150.154	0.199	0.343
-454.997	23.397	-0.151	-0.157
-453.982	99.153	0.176	0.257
-452.968	0.558	0.258	0.234
-451.953	-24.676	0.169	-0.127
-450.938	377.973	0.059	0.155
-449.924	21.372	-0.042	0.043
-448.909	130.859	0.156	-0.253
-447.895	-79.341	0.446	-0.190
-446.880	800.000	-0.085	-0.321
-445.865	607.590	0.054	-0.170
-444.851	-29.784	-0.336	0.242
-443.836	800.000	-0.072	-0.285
-442.822	-200.000	-0.003	-0.456
-441.807	-200.000	-0.044	0.272
-440.792	-91.701	0.291	0.104
-439.778	63.150	-0.121	-0.154
-438.763	199.593	0.182	0.354
-437.749	-41.295	-0.621	-0.404
-436.734	-200.000	0.004	-0.386
-435.719	800.000	0.035	-0.140
-434.705	-108.116	-0.283	0.077
-433.690	-139.902	-0.443	0.059
-432.676	270.970	0.091	-0.204
-431.661	296.534	-0.055	-0.129
-430.646	-49.835	0.192	0.115
-429.632	-140.586	0.334	0.043
-428.617	-103.747	-0.152	0.045
-427.603	-96.992	0.397	-0.131
-426.588	-124.113	0.054	-0.011
-425.573	72.834	-0.402	0.531
-424.559	800.000	-0.045	0.201
-423.544	-94.048	0.265	-0.092
-422.530	-9.283	0.235	-0.199
-421.515	-150.077	-0.231	-0.022
-420.500	-37.262	0.174	0.118
-419.486	-31.709	0.101	-0.072
-418.471	223.490	-0.246	-0.503
-417.457	-200.000	-0.008	-0.206
-416.442	-64.177	0.371	0.191
-415.428	-0.090	0.269	0.242
-414.413	-73.508	-0.388	0.178
-413.398	12.501	-0.369	-0.360
-412.384	-200.000	0.043	-0.402
-411.369	57.338	0.313	0.386
-410.355	-13.770	0.688	0.562
-409.340	-26.452	0.289	0.214
-408.325	-43.953	-0.084	0.053
-407.311	147.687	-0.142	0.242
-406.296	800.000	-0.056	-0.268
-405.282	-105.454	0.353	0.101
-404.267	-87.202	-0.079	0.030
-403.252	-200.000	0.037	0.274
-402.238	800.000	-0.100	0.379
-401.223	-102.373	-0.142	0.043
-400.209	42.232	-0.283	0.324
-399.194	800.000	0.033	0.147
-398.179	-42.165	0.160	0.103
-397.165	-111.021	0.119	-0.031
-396.150	800.000	0.115	0.438
-395.136	800.000	0.109	-0.439
-394.121	-172.787	0.400	0.016
-393.106	-119.111	0.685	-0.150
-392.092	-92.128	-0.228	0.081
-391.077	-200.000	-0.009	0.174
-390.063	-200.000	-0.003	0.123
-389.048	82.437	-0.206	0.283
-388.033	715.117	0.050	-0.168
-387.019	-200.000	-0.025	0.312
-386.004	33.484	-0.105	0.115
-384.990	231.088	-0.198	-0.410
-383.975	-144.050	-0.258	-0.030
-382.960	100.565	0.194	-0.286
-381.946	581.778	-0.114	-0.355
-380.931	800.000	0.062	-0.309
-379.917	-96.700	0.500	-0.165
-378.902	90.712	0.307	-0.434
-377.888	-96.528	-0.710	0.235
-376.873	-200.000	0.019	-0.244
-375.858	800.000	0.054	0.259
-374.844	-42.390	0.265	0.170
-373.829	-139.834	-0.041	0.005
-372.815	2.243	-0.181	0.165
-371.800	-15.262	-0.036	-0.029
-370.785	800.000	-0.039	0.209
-369.771	-80.324	0.433	-0.182
-368.756	57.541	0.214	0.264
-367.742	333.095	0.095	0.233
-366.727	-142.307	0.434	0.054
-365.712	51.548	0.203	-0.244
-364.698	20.429	-0.219	-0.223
-363.683	-183.418	0.344	-0.007
-362.669	-110.515	0.032	0.008
-361.654	-61.647	0.214	-0.113
-360.639	243.483	-0.253	0.537
-359.625	679.860	-0.098	0.324
-358.610	-200.000	0.007	0.272
-357.596	-200.000	0.020	-0.224
-356.581	15.328	0.268	0.265
-355.566	234.948	0.033	-0.068
-354.552	117.455	0.095	0.148
-353.537	-200.000	-0.003	-0.023
-352.523	373.036	-0.055	-0.141
-351.508	307.481	0.243	-0.573
-350.493	127.379	0.035	-0.056
-349.479	408.462	0.091	0.245
-348.464	-16.211	-0.290	0.232
-347.450	-41.757	-0.173	0.111
-346.435	-186.518	0.533	0.009
-345.420	462.496	0.030	-0.085
-344.406	-97.512	-0.218	-0.071
-343.391	-21.970	-0.192	-0.147
-342.377	-75.910	0.286	-0.127
-341.362	-22.511	-0.456	-0.348
-340.348	-97.519	0.107	-0.035
-339.333	172.021	0.048	0.087
-338.318	-101.584	-0.103	-0.031
-337.304	97.419	0.214	0.310
-336.289	800.000	-0.065	0.249
-335.275	800.000	-0.042	0.229
-334.260	-85.819	-0.453	0.176
-333.245	-86.786	-0.416	0.159
-332.231	-135.984	0.537	-0.079
-331.216	-10.262	0.377	0.315
-330.202	-36.453	-0.231	-0.156
-329.187	92.019	-0.066	0.094
-328.172	-200.000	0.032	0.330
-327.158	-153.684	-0.338	-0.029
-326.143	-62.088	0.146	0.076
-325.129	149.094	0.159	0.272
-324.114	-62.032	-0.082	-0.043
-323.099	49.078	-0.195	0.231
-322.085	229.315	-0.095	0.197
-321.070	-200.000	0.021	-0.244
-320.056	270.503	0.180	0.401
-319.041	53.528	0.240	-0.291
-318.026	-104.989	0.109	-0.031
-317.012	-89.870	-0.314	0.115
-315.997	258.028	-0.099	-0.215
-314.983	262.273	0.114	0.251
-313.968	-122.124	0.082	-0.017
-312.953	800.000	-0.083	0.295
-311.939	-200.000	0.004	0.247
-310.924	-124.681	0.176	-0.034
-309.910	-189.179	0.236	-0.003
-308.895	516.073	0.132	0.391
-307.880	28.770	-0.095	-0.101
-306.866	-49.348	0.158	0.095
-305.851	-200.000	-0.015	-0.262
-304.837	-41.096	0.359	0.233
-303.822	-200.000	0.005	0.311
-302.807	418.457	0.093	0.250
-301.793	-192.832	0.192	-0.002
-300.778	-200.000	0.002	0.015
-299.764	-79.158	-0.332	-0.141
-298.749	88.607	0.173	-0.242
-297.735	254.782	-0.142	0.306
-296.720	-85.792	-0.168	-0.065
-295.705	-130.113	0.242	0.041
-294.691	-73.005	-0.324	-0.149
-293.676	33.042	0.165	0.180
-292.662	-115.943	0.121	0.028
-291.647	-44.288	-0.371	-0.233
-290.632	800.000	0.075	-0.361
-289.618	231.707	0.167	-0.346
-288.603	-73.862	-0.621	-0.283
-287.589	314.558	-0.266	0.634
-286.574	-200.000	-0.023	0.481
-285.559	-172.357	-0.071	-0.003
-284.545	-127.011	0.633	-0.116
-283.530	-121.684	0.269	-0.056
-282.516	-129.288	-0.187	0.032
-281.501	-200.000	0.075	-0.455
-280.486	100.992	-0.033	0.048
-279.472	426.860	-0.059	0.161
-278.457	359.758	0.086	-0.217
-277.443	-31.797	-0.336	-0.237
-276.428	-200.000	-0.369	0.001
-275.413	244.698	-0.209	-0.443
-274.399	104.853	0.177	0.262
-273.384	-131.194	0.084	0.014
-272.370	-73.547	-0.528	0.241
-271.355	442.667	-0.040	-0.110
-270.340	-200.000	-0.043	0.290
-269.326	-125.656	0.172	-0.032
-268.311	5.262	0.312	-0.289
-267.297	-55.492	0.557	0.313
-266.282	190.393	0.341	0.646
-265.267	-186.046	0.582	-0.011
-264.253	800.000	0.057	0.305
-263.238	-133.540	-0.061	0.010
-262.224	800.000	0.037	-0.147
-261.209	800.000	-0.051	0.201
-260.195	-14.260	0.252	0.204
-259.180	800.000	0.065	0.297
-258.165	800.000	-0.106	0.560
-257.151	323.625	0.097	0.233
-256.136	-148.028	-0.559	-0.058
-255.122	-200.000	0.109	0.660
-254.107	800.000	-0.087	-0.320
-253.092	-95.884	-0.140	0.047
-252.078	508.942	-0.048	-0.141
-251.063	97.624	-0.210	0.303
-250.049	-0.298	-0.294	0.262
-249.034	-85.150	0.204	0.080
-248.019	221.517	0.147	-0.297
-247.005	-36.789	-0.449	0.302
-245.990	-9.359	0.054	-0.045
-244.976	-77.245	-0.383	0.167
-243.961	6.984	0.078	0.073
-242.946	-147.741	-0.649	-0.068
-241.932	89.035	0.129	0.180
-240.917	800.000	0.074	0.343
-239.903	-111.246	-0.171	0.044
-238.888	87.293	-0.196	-0.273
-237.873	-41.844	0.261	-0.167
-236.859	3.862	0.121	0.111
-235.844	-140.386	-0.675	0.087
-234.830	-135.671	-0.349	-0.051
-233.815	800.000	-0.154	0.559
-232.800	285.203	-0.138	0.313
-231.786	37.044	0.116	0.129
-230.771	-200.000	0.021	-0.474
-229.757	-25.113	0.181	0.134
-228.742	155.513	0.027	0.047
-227.727	176.195	-0.088	0.160
-226.713	-58.152	-0.181	-0.099
-225.698	-103.172	0.380	-0.112
-224.684	-72.203	0.177	0.082
-223.669	158.826	-0.159	-0.277
-222.655	122.627	-0.159	-0.249
-221.640	-165.161	-0.319	-0.017
-220.625	800.000	0.031	-0.170
-219.611	165.229	0.081	-0.144
-218.596	-200.000	0.006	-0.159
-217.582	-133.918	0.158	0.024
-216.567	-134.948	-0.220	0.033
-215.552	-163.013	-0.397	0.024
-214.538	40.244	0.070	0.079
-213.523	-50.786	-0.199	0.117
-212.509	-37.192	0.260	-0.174
-211.494	624.824	-0.121	-0.385
-210.479	-200.000	-0.007	0.039
-209.465	-88.472	0.222	-0.082
-208.450	129.478	0.322	-0.517
-207.436	-152.193	0.238	-0.021
-206.421	-112.607	0.313	0.078
-205.406	255.356	0.208	0.448
-204.392	-200.000	-0.030	0.210
-203.377	-189.502	-0.175	0.002
-202.363	-29.557	-0.108	-0.078
-201.348	-200.000	0.027	-0.227
-200.333	-108.829	0.548	0.146
-199.319	-13.312	-0.294	-0.239
-198.304	588.589	-0.211	0.657
-197.290	-6.601	-0.098	-0.083
-196.275	-42.287	0.189	-0.121
-195.260	-200.000	-0.021	0.132
-194.246	-136.750	0.580	-0.083
-193.231	-118.683	0.345	-0.076
-192.217	84.187	0.020	-0.027
-191.202	-200.000	-0.065	-0.553
-190.187	304.803	0.044	0.103
-189.173	-11.971	0.257	-0.210
-188.158	-43.483	0.187	-0.118
-187.144	-119.574	-0.180	-0.039
-186.129	-181.433	-0.821	0.020
-185.114	-156.284	-0.076	-0.006
-184.100	-4.506	-0.148	-0.128
-183.085	155.200	0.163	-0.281
-182.071	-155.749	0.402	-0.032
-181.056	-200.000	-0.049	-0.304
-180.042	-97.404	0.376	-0.122
-179.027	-108.428	0.173	-0.046
-178.012	-31.882	-0.324	0.227
-176.998	19.767	0.121	-0.122
-175.983	-68.160	-0.143	0.070
-174.969	-200.000	0.026	-0.272
-173.954	-62.419	-0.287	0.149
-172.939	272.388	0.083	0.184
-171.925	-147.881	0.530	0.055
-170.910	-200.000	0.018	-0.148
-169.896	-113.106	-0.257	0.063
-168.881	-200.000	-0.008	-0.155
-167.866	128.657	0.168	0.268
-166.852	178.025	0.039	-0.071
-165.837	-7.695	-0.095	0.081
-164.823	-200.000	-0.125	-0.000
-163.808	-81.292	-0.073	0.030
-162.793	401.356	-0.070	0.184
-161.779	-200.000	0.002	-0.278
-160.764	800.000	-0.079	-0.366
-159.750	-122.957	0.215	-0.043
-158.735	-133.130	0.569	0.089
-157.720	-120.449	-0.486	-0.103
-156.706	-200.000	0.016	0.192
-155.691	-166.670	-0.251	-0.013
-154.677	-200.000	-0.020	-0.132
-153.662	-200.000	-0.020	0.189
-152.647	338.404	-0.219	-0.536
-151.633	51.347	0.305	0.362
-150.618	-176.039	-0.237	-0.008
-149.604	27.637	0.132	-0.139
-148.589	-154.706	0.498	-0.041
-147.574	-31.590	0.363	-0.255
-146.560	87.649	0.069	0.096
-145.545	-96.125	0.171	-0.056
-144.531	-81.681	0.300	0.123
-143.516	-126.896	0.135	0.025
-142.502	-39.122	-0.548	-0.360
-141.487	32.043	-0.070	-0.075
-140.472	-200.000	-0.003	-0.186
-139.458	-5.088	0.104	-0.089
-138.443	17.424	0.183	0.182
-137.429	-92.100	-0.376	0.132
-136.414	-3.406	-0.410	0.357
-135.399	-97.918	-0.624	0.200
-134.385	15.473	0.381	0.374
-133.370	471.672	-0.105	0.297
-132.356	-153.296	-0.380	-0.033
-131.341	-200.000	-0.018	-0.321
-130.326	800.000	-0.058	0.264
-129.312	392.478	0.098	-0.255
-128.297	800.000	-0.076	-0.333
-127.283	24.708	0.180	0.186
-126.268	-200.000	0.081	-0.465
-125.253	800.000	-0.041	-0.223
-124.239	20.310	-0.078	-0.079
-123.224	-200.000	-0.010	0.118
