DTS Sentinel unit serial number:	SN409020Multiplexer serial number:	ORYXHardware model number:	OX4-SRSoftware version number:	ORYX F/W v3.00 Oryx Data Collector v3.7.2.0data status	okinstallation	HaddamTimeLapsedifferential loss correction	single-endedforward channel	channel 3reverse channel	N/Adate	2011/06/21time	18:06:17forward acquisition time	30.00reverse acquisition time	0.00gamma	498.7831k internal	0.1836k external	0.1836temperature offset calibration	1.0074default loss term (dB/km)	0.3790temperature slope calibration	1.3530multiplexer offset coefficient	1.0000multiplexer slope coefficient	1.0000fibre end	0.00T internal ref (°C)	36.41T ext. ref 1 (°C)	29.12T ext. ref 2 (°C)	0.27length (m)	temperature (°C)	Stokes	anti-Stokes-747.200	-200.000	-0.011	-0.200
-746.185	-150.589	0.709	0.068
-745.171	39.781	-0.333	-0.379
-744.156	-200.000	-0.002	0.936
-743.142	-143.527	-0.273	0.033
-742.127	-200.000	0.018	0.552
-741.112	-89.766	0.204	0.075
-740.098	-200.000	0.044	0.426
-739.083	-26.444	-0.356	0.264
-738.069	152.958	0.211	0.366
-737.054	-167.727	-0.127	0.006
-736.039	778.103	0.049	-0.171
-735.025	-5.632	0.360	-0.312
-734.010	-139.603	0.767	0.102
-732.996	-200.000	-0.026	0.235
-731.981	-140.207	-0.561	-0.074
-730.966	-62.881	0.302	0.158
-729.952	100.738	-0.102	-0.151
-728.937	160.178	0.058	0.102
-727.923	48.604	-0.418	-0.496
-726.908	18.403	-0.053	-0.053
-725.894	53.661	0.193	0.235
-724.879	78.577	-0.167	0.226
-723.864	704.794	-0.092	-0.309
-722.850	-15.414	-0.196	-0.158
-721.835	-31.432	-0.183	-0.130
-720.821	800.000	-0.081	-0.295
-719.806	-80.915	0.335	0.140
-718.791	549.512	0.015	-0.046
-717.777	116.108	0.044	-0.068
-716.762	-74.111	-0.284	0.129
-715.748	361.415	-0.135	0.343
-714.733	122.799	-0.302	-0.480
-713.718	353.029	-0.201	0.508
-712.704	-139.550	0.455	-0.061
-711.689	-200.000	-0.010	-0.289
-710.675	-200.000	-0.035	-0.611
-709.660	-158.454	-0.671	-0.048
-708.645	360.068	-0.006	0.016
-707.631	-200.000	-0.004	0.139
-706.616	800.000	0.044	0.237
-705.602	-189.977	-0.164	0.002
-704.587	-40.363	0.476	-0.312
-703.572	120.194	0.178	-0.280
-702.558	-104.625	-0.385	-0.112
-701.543	-136.392	0.238	0.035
-700.529	494.612	-0.106	-0.309
-699.514	-200.000	0.099	0.560
-698.499	29.823	-0.245	-0.263
-697.485	-142.007	0.330	0.041
-696.470	-151.288	-0.230	-0.021
-695.456	-85.506	-0.344	0.135
-694.441	800.000	0.072	-0.308
-693.426	25.955	0.259	-0.273
-692.412	-4.394	-0.329	0.288
-691.397	800.000	0.112	-0.554
-690.383	-74.787	0.304	-0.137
-689.368	215.371	-0.304	-0.612
-688.354	-200.000	-0.011	-0.264
-687.339	225.613	0.086	-0.178
-686.324	-135.697	0.094	-0.014
-685.310	17.821	0.151	-0.152
-684.295	-200.000	-0.013	-0.513
-683.281	800.000	0.132	-0.655
-682.266	-52.914	0.198	0.115
-681.251	-200.000	-0.001	-0.105
-680.237	-38.984	-0.245	-0.163
-679.222	56.375	-0.078	-0.096
-678.208	-200.000	0.061	0.369
-677.193	422.009	0.100	-0.274
-676.178	511.860	0.079	0.235
-675.164	89.312	-0.262	-0.370
-674.149	-78.245	0.474	-0.205
-673.135	-39.906	-0.136	0.089
-672.120	-193.220	0.288	-0.003
-671.105	-103.454	0.298	-0.088
-670.091	-200.000	-0.013	0.362
-669.076	-152.888	-0.409	0.036
-668.062	269.249	-0.164	0.364
-667.047	-171.861	0.135	-0.005
-666.032	-138.155	-0.216	-0.030
-665.018	275.906	-0.014	-0.030
-664.003	800.000	0.040	0.208
-662.989	58.378	-0.066	0.082
-661.974	10.673	0.169	0.163
-660.959	-200.000	0.039	-0.436
-659.945	800.000	-0.056	-0.207
-658.930	-48.519	0.454	0.275
-657.916	-102.694	-0.521	-0.156
-656.901	-45.572	-0.211	0.132
-655.886	-200.000	-0.002	-0.029
-654.872	-140.580	-0.147	0.019
-653.857	281.631	0.103	-0.233
-652.843	-122.881	0.145	-0.029
-651.828	222.930	-0.182	-0.371
-650.814	-200.000	-0.040	-0.320
-649.799	57.554	0.069	0.085
-648.784	193.030	0.230	-0.440
-647.770	-143.235	-0.082	-0.010
-646.755	800.000	0.054	0.251
-645.741	-78.115	-0.387	-0.167
-644.726	-200.000	-0.042	0.598
-643.711	-107.018	0.300	-0.083
-642.697	800.000	0.110	0.570
-641.682	774.899	0.118	-0.408
-640.668	-44.923	-0.156	0.097
-639.653	-200.000	-0.027	0.312
-638.638	254.987	0.155	0.337
-637.624	342.915	-0.196	0.487
-636.609	15.190	-0.247	0.244
-635.595	-33.676	-0.125	-0.087
-634.580	-109.839	-0.212	-0.056
-633.565	21.309	0.341	-0.349
-632.551	-70.557	0.174	-0.083
-631.536	77.353	0.211	-0.283
-630.522	-200.000	-0.000	0.170
-629.507	99.317	0.366	0.534
-628.492	-95.003	0.232	-0.079
-627.478	800.000	-0.049	0.189
-626.463	-154.673	0.233	0.019
-625.449	-175.864	0.419	-0.014
-624.434	800.000	-0.070	0.284
-623.419	-116.845	-0.412	0.094
-622.405	-130.629	0.484	0.082
-621.390	-200.000	0.003	0.619
-620.376	199.369	-0.039	0.076
-619.361	494.752	0.141	0.410
-618.346	-121.537	-0.171	0.035
-617.332	800.000	0.036	0.191
-616.317	-200.000	0.083	-0.564
-615.303	52.439	0.154	-0.185
-614.288	-2.772	-0.317	-0.279
-613.273	-40.475	-0.390	0.254
-612.259	-48.037	-0.369	0.224
-611.244	63.125	-0.192	0.243
-610.230	-143.919	-0.265	0.031
-609.215	550.238	0.079	0.241
-608.201	800.000	0.054	0.296
-607.186	-200.000	0.008	-0.167
-606.171	320.717	-0.042	0.100
-605.157	206.531	0.135	0.265
-604.142	-68.757	-0.086	0.042
-603.128	208.883	-0.038	-0.074
-602.113	80.881	-0.220	-0.299
-601.098	165.611	0.024	-0.042
-600.084	40.794	0.212	-0.240
-599.069	-177.052	0.180	0.006
-598.055	-200.000	-0.040	0.264
-597.040	69.120	-0.271	-0.351
-596.025	-200.000	-0.007	-0.872
-595.011	-200.000	-0.020	-0.153
-593.996	80.066	0.121	-0.164
-592.982	-96.197	0.514	-0.171
-591.967	-148.120	-0.371	-0.038
-590.952	96.990	0.059	-0.085
-589.938	800.000	-0.029	-0.156
-588.923	800.000	-0.056	-0.203
-587.909	321.441	0.197	0.473
-586.894	136.574	-0.148	-0.244
-585.879	-111.327	-0.333	-0.085
-584.865	13.726	0.130	0.127
-583.850	145.878	0.074	-0.125
-582.836	-90.852	0.410	0.148
-581.821	57.197	0.284	-0.349
-580.806	-78.224	-0.156	-0.067
-579.792	-43.486	-0.248	-0.157
-578.777	-54.759	-0.343	0.194
-577.763	-38.081	-0.347	-0.231
-576.748	54.165	-0.246	-0.298
-575.733	42.094	0.152	0.174
-574.719	800.000	0.021	0.091
-573.704	53.278	-0.325	-0.392
-572.690	-42.317	-0.402	-0.258
-571.675	148.947	0.212	-0.362
-570.661	-99.934	-0.746	0.233
-569.646	66.665	-0.033	0.042
-568.631	-2.059	-0.096	-0.085
-567.617	800.000	-0.190	0.754
-566.602	-12.192	-0.053	0.044
-565.588	-174.361	0.147	0.005
-564.573	102.263	0.126	0.185
-563.558	-91.629	0.200	0.071
-562.544	-81.882	0.177	0.073
-561.529	6.392	0.468	-0.437
-560.515	-60.428	0.220	-0.117
-559.500	-62.863	-0.191	-0.099
-558.485	-86.919	-0.337	0.128
-557.471	-10.904	0.440	-0.365
-556.456	510.116	-0.102	-0.300
-555.442	-70.253	0.094	0.045
-554.427	-200.000	0.009	0.070
-553.412	-85.209	-0.487	-0.191
-552.398	-200.000	0.017	-0.223
-551.383	-200.000	-0.004	-0.072
-550.369	-5.060	-0.309	0.267
-549.354	-87.939	-0.219	-0.082
-548.339	141.421	0.074	-0.124
-547.325	-68.757	-0.382	-0.185
-546.310	-116.597	-0.491	-0.113
-545.296	-14.802	0.236	-0.190
-544.281	-200.000	0.005	-0.379
-543.266	103.495	-0.257	-0.379
-542.252	-22.833	-0.363	-0.275
-541.237	-164.440	0.251	-0.014
-540.223	39.243	0.371	0.417
-539.208	-200.000	0.049	0.499
-538.193	-19.214	-0.044	-0.034
-537.179	-200.000	-0.023	0.295
-536.164	-121.427	-0.365	-0.076
-535.150	-200.000	-0.040	-0.304
-534.135	-51.643	-0.182	-0.106
-533.121	800.000	0.046	0.201
-532.106	-141.743	0.133	0.017
-531.091	-22.464	-0.238	0.181
-530.077	-93.560	0.278	-0.096
-529.062	-51.411	0.182	-0.106
-528.048	-95.650	-0.038	-0.013
-527.033	-200.000	0.075	0.449
-526.018	-148.898	-0.163	0.016
-525.004	43.604	-0.196	-0.226
-523.989	-57.404	-0.254	-0.140
-522.975	-38.111	-0.174	-0.116
-521.960	309.631	-0.189	0.447
-520.945	-83.752	-0.091	-0.036
-519.931	210.287	0.117	-0.231
-518.916	-200.000	-0.027	0.320
-517.902	-31.012	-0.264	0.186
-516.887	271.534	0.057	-0.127
-515.872	-170.337	-0.114	-0.005
-514.858	-200.000	0.020	0.196
-513.843	-2.978	-0.352	0.308
-512.829	666.781	-0.157	-0.511
-511.814	155.008	-0.175	-0.303
-510.799	800.000	0.219	-0.868
-509.785	800.000	0.062	-0.235
-508.770	-161.851	0.202	-0.013
-507.756	-151.679	-0.097	-0.009
-506.741	-162.018	0.243	0.015
-505.726	-135.348	0.151	-0.022
-504.712	194.776	0.112	-0.214
-503.697	800.000	0.128	-0.518
-502.683	-28.650	-0.326	-0.235
-501.668	-200.000	-0.062	0.361
-500.653	53.855	-0.125	-0.151
-499.639	50.102	-0.095	-0.112
-498.624	145.504	0.044	0.073
-497.610	473.104	-0.113	0.321
-496.595	-104.094	-0.068	0.020
-495.581	571.932	0.104	0.319
-494.566	-95.318	0.330	0.111
-493.551	-160.871	0.253	-0.016
-492.537	-76.898	0.071	0.031
-491.522	-37.887	0.195	0.129
-490.508	-200.000	0.006	0.417
-489.493	99.754	0.305	-0.443
-488.478	-131.320	0.380	-0.063
-487.464	-127.590	0.437	-0.079
-486.449	-200.000	0.045	-0.490
-485.435	-8.209	0.235	-0.198
-484.420	800.000	0.094	0.418
-483.405	-200.000	0.019	0.220
-482.391	11.590	-0.183	-0.176
-481.376	-69.245	-0.191	0.092
-480.362	624.443	0.099	-0.314
-479.347	211.773	-0.103	0.204
-478.332	400.295	0.049	-0.129
-477.318	-200.000	0.041	-0.252
-476.303	-121.104	-0.344	0.072
-475.289	112.625	0.160	0.243
-474.274	-161.139	0.419	-0.027
-473.259	-135.726	0.353	0.052
-472.245	120.929	-0.170	-0.266
-471.230	-200.000	0.008	0.287
-470.216	22.559	0.112	0.115
-469.201	800.000	-0.049	-0.215
-468.186	617.164	-0.063	-0.200
-467.172	291.594	0.192	0.440
-466.157	210.391	-0.116	-0.229
-465.143	121.182	-0.139	0.217
-464.128	36.115	-0.201	0.222
-463.113	166.396	-0.049	-0.087
-462.099	-200.000	-0.010	-0.149
-461.084	285.618	-0.064	0.145
-460.070	210.352	-0.084	0.166
-459.055	-107.174	-0.498	-0.137
-458.040	96.520	-0.267	0.383
-457.026	-117.695	0.483	-0.108
-456.011	-81.457	0.173	0.071
-454.997	-200.000	0.069	-0.502
-453.982	287.011	0.183	-0.415
-452.968	-117.301	0.267	0.060
-451.953	800.000	0.058	0.273
-450.938	-200.000	-0.081	0.517
-449.924	-156.912	0.091	0.007
-448.909	124.240	0.107	0.169
-447.895	-16.691	0.285	-0.225
-446.880	-45.601	-0.169	-0.105
-445.865	800.000	-0.096	0.434
-444.851	32.284	0.073	-0.078
-443.836	362.222	-0.028	-0.070
-442.822	52.621	-0.322	-0.385
-441.807	-46.816	0.076	-0.046
-440.792	104.680	0.112	0.165
-439.778	763.291	0.158	0.540
-438.763	-73.292	-0.370	0.169
-437.749	-125.466	-0.329	-0.062
-436.734	736.433	0.038	-0.127
-435.719	-66.831	0.335	-0.165
-434.705	209.805	0.132	-0.260
-433.690	58.609	0.098	0.120
-432.676	563.524	0.157	0.479
-431.661	-61.771	0.870	-0.454
-430.646	83.346	0.240	-0.327
-429.632	188.584	0.083	0.155
-428.617	24.219	0.136	0.141
-427.603	12.910	-0.146	0.142
-426.588	-154.705	-0.420	-0.034
-425.573	10.599	0.069	-0.066
-424.559	-109.691	-0.297	-0.078
-423.544	50.935	0.062	0.074
-422.530	-200.000	0.061	0.480
-421.515	2.419	-0.510	-0.461
-420.500	-132.775	-0.371	0.059
-419.486	411.228	-0.054	-0.145
-418.471	-18.001	0.397	-0.311
-417.457	800.000	0.086	-0.388
-416.442	-147.702	0.237	-0.025
-415.428	-69.712	-0.543	-0.259
-414.413	-32.549	-0.189	-0.131
-413.398	-108.880	-0.130	-0.034
-412.384	-105.039	0.458	-0.130
-411.369	-58.971	-0.133	-0.072
-410.355	-42.383	-0.060	-0.038
-409.340	54.488	0.484	-0.584
-408.325	434.935	0.105	0.287
-407.311	-200.000	0.035	0.206
-406.296	9.501	-0.191	-0.180
-405.282	-182.980	-0.104	0.002
-404.267	-67.606	0.475	0.232
-403.252	-200.000	0.019	-0.195
-402.238	-82.677	-0.051	-0.021
-401.223	-200.000	0.010	0.059
-400.209	-97.544	0.462	0.149
-399.194	577.747	-0.144	0.443
-398.179	708.773	0.149	0.494
-397.165	-46.822	0.304	0.185
-396.150	89.355	0.133	0.185
-395.136	35.771	0.027	0.030
-394.121	121.249	-0.086	-0.134
-393.106	-72.615	-0.366	-0.168
-392.092	800.000	0.045	0.209
-391.077	-64.188	-0.349	0.177
-390.063	-200.000	-0.010	0.160
-389.048	248.890	0.108	-0.229
-388.033	-200.000	-0.044	-0.500
-387.019	196.475	0.087	0.167
-386.004	-58.542	0.327	-0.177
-384.990	-59.143	-0.301	-0.161
-383.975	327.422	0.137	0.330
-382.960	-77.519	0.415	0.179
-381.946	89.700	0.156	-0.218
-380.931	21.647	-0.059	-0.060
-379.917	567.960	0.120	0.367
-378.902	-72.754	0.243	0.111
-377.888	56.394	-0.159	-0.193
-376.873	800.000	-0.172	-0.602
-375.858	427.990	-0.079	-0.214
-374.844	-200.000	-0.026	0.403
-373.829	-178.126	0.256	0.007
-372.815	-79.052	0.164	-0.069
-371.800	-181.451	-0.296	-0.007
-370.785	800.000	0.104	0.389
-369.771	-49.517	-0.760	-0.450
-368.756	6.179	0.406	0.376
-367.742	-8.388	-0.217	0.182
-366.727	-123.354	-0.143	0.028
-365.712	-44.061	-0.109	0.068
-364.698	-52.432	0.231	0.133
-363.683	-133.867	0.390	-0.060
-362.669	-31.162	-0.242	-0.170
-361.654	149.981	-0.162	-0.275
-360.639	-118.584	-0.334	-0.073
-359.625	37.095	-0.040	-0.044
-358.610	-181.261	0.271	0.007
-357.596	135.767	0.147	-0.240
-356.581	-52.420	-0.345	0.199
-355.566	-200.000	0.021	-0.299
-354.552	58.770	-0.192	-0.235
-353.537	-71.095	-0.201	-0.094
-352.523	-200.000	-0.006	0.046
-351.508	800.000	0.018	-0.069
-350.493	-200.000	-0.022	-0.182
-349.479	-189.449	0.092	0.001
-348.464	-160.855	-0.401	-0.026
-347.450	25.004	0.289	-0.299
-346.435	800.000	0.081	0.354
-345.420	-29.071	0.193	0.138
-344.406	92.418	-0.027	-0.037
-343.391	800.000	-0.033	0.171
-342.377	180.961	0.096	-0.177
-341.362	-90.979	-0.492	-0.175
-340.348	-200.000	0.010	-0.330
-339.333	800.000	0.045	-0.179
-338.318	-55.276	0.009	0.005
-337.304	-200.000	-0.013	0.089
-336.289	-111.880	0.266	-0.066
-335.275	1.622	0.093	-0.084
-334.260	-55.705	-0.160	0.089
-333.245	-159.344	0.215	0.015
-332.231	162.393	0.219	0.383
-331.216	-69.491	0.052	-0.025
-330.202	-147.014	-0.283	-0.030
-329.187	602.874	-0.277	-0.864
-328.172	-41.256	0.044	0.028
-327.158	800.000	-0.059	0.268
-326.143	-200.000	0.063	-0.431
-325.129	737.167	-0.121	0.408
-324.114	-62.427	0.225	-0.116
-323.099	-200.000	0.000	0.345
-322.085	-14.054	-0.212	0.170
-321.070	114.748	-0.246	0.374
-320.056	-200.000	-0.040	0.234
-319.041	-76.504	0.403	-0.176
-318.026	-42.532	0.458	0.290
-317.012	800.000	-0.076	0.384
-315.997	62.323	0.268	0.334
-314.983	-200.000	0.001	-0.111
-313.968	308.827	0.027	-0.063
-312.953	-28.291	0.370	-0.266
-311.939	61.180	-0.228	-0.282
-310.924	-117.922	-0.453	0.100
-309.910	-172.522	-0.315	-0.012
-308.895	73.056	-0.242	-0.316
-307.880	-57.239	-0.014	-0.008
-306.866	69.216	-0.267	-0.343
-305.851	-170.007	0.248	0.011
-304.837	-147.574	-0.213	0.022
-303.822	-200.000	0.040	-0.231
-302.807	332.550	0.130	-0.314
-301.793	-200.000	-0.015	0.354
-300.778	572.827	0.057	0.173
-299.764	-200.000	0.006	-0.180
-298.749	16.823	-0.094	0.092
-297.735	152.286	-0.069	-0.118
-296.720	-99.233	0.415	-0.130
-295.705	159.095	0.085	0.148
-294.691	-6.719	-0.327	0.276
-293.676	-114.423	-0.243	-0.058
-292.662	800.000	-0.053	0.260
-291.647	106.911	-0.231	0.342
-290.632	-78.019	-0.148	-0.063
-289.618	-64.935	-0.183	0.092
-288.603	-153.777	0.487	-0.041
-287.589	44.591	0.173	-0.198
-286.574	800.000	0.049	-0.172
-285.559	800.000	-0.034	0.149
-284.545	38.737	-0.127	0.141
-283.530	-42.263	0.080	0.051
-282.516	44.753	0.136	0.155
-281.501	-68.915	0.092	-0.044
-280.486	70.623	0.081	-0.105
-279.472	-92.045	0.131	-0.046
-278.457	-10.422	0.290	-0.239
-277.443	228.264	0.108	0.220
-276.428	-154.075	0.079	0.007
-275.413	-9.114	0.272	0.226
-274.399	119.360	0.133	0.206
-273.384	-68.517	-0.273	0.131
-272.370	135.007	-0.303	-0.491
-271.355	-129.561	0.167	0.028
-270.340	-64.970	-0.216	0.108
-269.326	158.431	-0.173	-0.300
-268.311	-87.505	0.688	-0.257
-267.297	241.720	0.057	0.118
-266.282	419.467	-0.104	0.278
-265.267	273.769	0.058	0.129
-264.253	-130.963	-0.083	-0.014
-263.238	-43.190	-0.457	0.287
-262.224	-200.000	-0.035	0.235
-261.209	-38.848	0.234	0.153
-260.195	40.538	-0.127	-0.142
-259.180	800.000	0.050	0.232
-258.165	-91.123	0.151	-0.054
-257.151	-21.272	0.078	-0.059
-256.136	800.000	0.130	0.500
-255.122	-120.111	-0.270	0.057
-254.107	261.381	-0.178	-0.385
-253.092	-146.480	0.288	0.031
-252.078	-31.279	-0.464	0.324
-251.063	-56.944	0.698	-0.381
-250.049	219.556	-0.204	-0.406
-249.034	-15.264	-0.154	0.123
-248.019	717.855	0.198	-0.656
-247.005	787.884	0.089	0.304
-245.990	-124.396	-0.253	-0.049
-244.976	725.187	0.034	0.114
-243.961	-92.893	-0.465	-0.160
-242.946	-59.622	0.144	0.076
-241.932	-86.964	-0.127	-0.048
-240.917	147.035	0.217	-0.364
-239.903	-110.615	0.318	0.081
-238.888	-135.150	0.527	-0.078
-237.873	1.782	0.272	-0.243
-236.859	-3.357	-0.436	0.377
-235.844	800.000	-0.042	0.182
-234.830	-72.287	0.098	0.045
-233.815	-72.964	0.215	0.098
-232.800	-93.394	0.364	-0.125
-231.786	-50.112	0.094	-0.055
-230.771	-200.000	-0.072	-0.708
-229.757	-162.534	0.205	-0.012
-228.742	-200.000	0.006	0.299
-227.727	17.406	0.223	-0.220
-226.713	-95.036	0.286	-0.095
-225.698	185.297	0.082	-0.152
-224.684	-200.000	-0.024	-0.137
-223.669	-97.463	0.208	0.067
-222.655	-101.097	-0.200	-0.060
-221.640	-7.271	0.128	0.108
-220.625	-111.267	0.576	0.145
-219.611	-119.193	-0.128	-0.028
-218.596	357.146	-0.129	0.320
-217.582	-200.000	-0.774	-0.001
-216.567	559.618	-0.017	-0.050
-215.552	99.474	-0.081	-0.117
-214.538	123.253	-0.107	-0.167
-213.523	168.004	-0.089	0.157
-212.509	61.109	-0.279	-0.344
-211.494	33.156	0.398	0.428
-210.479	-84.393	0.260	0.102
-209.465	56.014	0.186	0.223
-208.450	-148.380	0.296	-0.030
-207.436	215.546	0.146	-0.289
-206.421	226.498	-0.308	0.622
-205.406	-106.134	-0.400	-0.111
-204.392	800.000	-0.088	-0.316
-203.377	11.350	-0.047	0.045
-202.363	-109.641	0.480	-0.125
-201.348	54.662	0.091	0.109
-200.333	-93.138	-0.294	0.101
-199.319	-50.057	0.094	-0.055
-198.304	-76.270	0.198	0.086
-197.290	14.937	0.355	-0.344
-196.275	70.224	0.286	0.367
-195.260	-92.599	0.286	0.099
-194.246	154.909	-0.108	0.184
-193.231	-83.172	-0.585	0.232
-192.217	18.901	-0.027	-0.027
-191.202	118.025	0.074	0.113
-190.187	-48.086	-0.479	0.286
-189.173	-126.726	-0.279	0.051
-188.158	301.646	-0.142	0.326
-187.144	321.387	0.221	0.523
-186.129	270.786	-0.130	-0.285
-185.114	-139.262	-0.369	-0.049
-184.100	425.886	0.080	-0.213
-183.085	-200.000	0.243	0.000
-182.071	800.000	0.060	-0.226
-181.056	-103.572	0.405	-0.117
-180.042	285.415	0.148	-0.331
-179.027	63.071	0.174	0.216
-178.012	68.362	-0.387	-0.491
-176.998	73.368	0.150	-0.195
-175.983	4.124	-0.045	0.040
-174.969	462.539	0.089	-0.247
-173.954	0.603	0.267	0.236
-172.939	800.000	0.078	-0.304
-171.925	-50.737	-0.251	-0.146
-170.910	-108.394	0.184	-0.049
-169.896	16.495	-0.462	0.452
-168.881	-73.343	-0.187	-0.084
-167.866	-75.891	-0.481	0.210
-166.852	-53.621	-0.483	0.272
-165.837	-70.205	-0.710	0.333
-164.823	-70.253	0.420	-0.196
-163.808	188.343	-0.264	0.491
-162.793	-200.000	0.056	0.451
-161.779	68.633	0.107	0.136
-160.764	26.058	0.147	0.152
-159.750	-83.481	-0.208	-0.082
-158.735	-141.173	-0.327	0.041
-157.720	522.133	0.032	0.094
-156.706	19.960	0.175	-0.174
-155.691	15.961	0.167	0.162
-154.677	61.612	-0.223	0.275
-153.662	25.121	-0.167	-0.172
-152.647	136.384	-0.151	0.245
-151.633	-53.985	0.336	0.189
-150.618	-150.822	-0.217	0.020
-149.604	-144.535	-1.019	-0.115
-148.589	-146.758	-0.492	0.052
-147.574	-141.682	0.040	0.005
-146.560	-127.493	0.437	0.078
-145.545	-36.253	0.549	-0.365
-144.531	61.009	-0.351	-0.432
-143.516	-129.758	-0.194	-0.033
-142.502	118.342	-0.204	0.311
-141.487	-75.984	-0.440	-0.192
-140.472	230.578	0.201	0.409
-139.458	87.895	0.083	0.115
-138.443	-110.677	0.443	-0.112
-137.429	-23.807	0.054	0.040
-136.414	-112.500	0.095	-0.023
-135.399	-82.918	0.218	-0.087
-134.385	-100.045	-0.084	-0.026
-133.370	-82.178	0.387	0.155
-132.356	-85.714	0.440	-0.168
-131.341	174.057	-0.062	-0.111
-130.326	231.599	-0.086	-0.175
-129.312	-200.000	0.068	0.391
-128.297	-33.506	-0.094	0.064
-127.283	363.733	0.159	0.396
-126.268	-200.000	-0.071	0.427
-125.253	-13.234	0.499	-0.400
-124.239	66.213	0.238	-0.299
-123.224	287.254	-0.146	0.328
-122.210	546.572	0.021	-0.061
-121.195	-81.022	0.333	-0.136
