DTS Sentinel unit serial number:	SN409020Multiplexer serial number:	ORYXHardware model number:	OX4-SRSoftware version number:	ORYX F/W v3.00 Oryx Data Collector v3.7.2.0data status	okinstallation	HaddamTimeLapsedifferential loss correction	single-endedforward channel	channel 3reverse channel	N/Adate	2011/06/22time	00:36:17forward acquisition time	30.00reverse acquisition time	0.00gamma	498.7831k internal	0.1752k external	0.1752temperature offset calibration	1.0074default loss term (dB/km)	0.3790temperature slope calibration	1.3530multiplexer offset coefficient	1.0000multiplexer slope coefficient	1.0000fibre end	0.00T internal ref (°C)	22.59T ext. ref 1 (°C)	18.04T ext. ref 2 (°C)	0.06length (m)	temperature (°C)	Stokes	anti-Stokes-747.200	-71.245	-0.700	-0.347
-746.185	102.415	0.397	0.618
-745.171	800.000	0.061	0.353
-744.156	14.590	-0.345	0.358
-743.142	-200.000	-0.038	-0.632
-742.127	800.000	0.138	0.519
-741.112	-107.593	0.094	-0.027
-740.098	46.840	0.278	0.343
-739.083	800.000	0.076	0.416
-738.069	-79.763	0.178	0.079
-737.054	-97.777	-0.228	-0.078
-736.039	-55.150	-0.566	0.337
-735.025	-200.000	-0.088	0.541
-734.010	-110.906	0.353	0.096
-732.996	32.581	-0.322	0.370
-731.981	322.285	-0.086	-0.219
-730.966	-106.968	0.171	-0.050
-729.952	-70.236	-0.562	0.282
-728.937	197.574	-0.108	-0.219
-727.923	-200.000	-0.015	-0.158
-726.908	-96.601	-0.138	-0.048
-725.894	229.961	0.177	-0.386
-724.879	-133.939	-0.270	0.044
-723.864	-87.348	-0.539	0.216
-722.850	447.402	0.143	-0.418
-721.835	312.787	-0.054	-0.136
-720.821	-89.897	-0.693	-0.267
-719.806	-200.000	-0.051	-0.319
-718.791	-59.236	-0.067	0.038
-717.777	-138.622	0.133	0.019
-716.762	49.099	0.163	-0.203
-715.748	-200.000	0.000	0.049
-714.733	64.233	-0.267	0.357
-713.718	-200.000	-0.031	-0.271
-712.704	-4.988	-0.180	-0.164
-711.689	800.000	0.030	0.113
-710.675	-200.000	-0.069	-0.507
-709.660	64.039	-0.147	-0.196
-708.645	-28.614	0.241	-0.183
-707.631	-200.000	-0.042	0.377
-706.616	80.456	-0.114	-0.163
-705.602	-159.052	0.274	-0.020
-704.587	64.445	0.172	-0.230
-703.572	20.249	-0.190	-0.203
-702.558	109.860	0.181	-0.288
-701.543	800.000	-0.069	-0.344
-700.529	-24.970	-0.089	-0.070
-699.514	-200.000	-0.010	0.078
-698.499	-200.000	0.064	-0.613
-697.485	-36.194	-0.257	0.183
-696.470	41.460	-0.322	-0.387
-695.456	8.276	-0.171	-0.170
-694.441	-180.463	-0.342	0.009
-693.426	132.622	0.313	-0.537
-692.412	-22.705	0.251	0.201
-691.397	35.645	-0.057	-0.067
-690.383	2.025	-0.212	0.203
-689.368	-108.657	-0.372	0.105
-688.354	-159.658	0.148	-0.011
-687.339	52.471	0.045	-0.057
-686.324	32.614	-0.114	0.131
-685.310	-121.200	-0.163	0.036
-684.295	800.000	-0.054	0.268
-683.281	-6.725	-0.354	0.319
-682.266	800.000	-0.066	-0.261
-681.251	201.493	-0.117	-0.240
-680.237	58.793	0.222	-0.290
-679.222	92.104	0.257	-0.384
-678.208	800.000	0.081	-0.365
-677.193	-102.510	-0.333	-0.105
-676.178	800.000	0.024	0.090
-675.164	-200.000	0.049	0.523
-674.149	-200.000	0.050	0.348
-673.135	-54.314	0.341	0.204
-672.120	-40.157	-0.029	0.020
-671.105	57.903	-0.097	-0.126
-670.091	-109.779	0.434	-0.120
-669.076	800.000	-0.111	0.549
-668.062	-121.127	-0.422	-0.093
-667.047	141.490	-0.228	-0.400
-666.032	-10.406	0.393	0.344
-665.018	-178.916	-0.067	0.002
-664.003	-45.760	-0.227	0.148
-662.989	163.263	-0.137	-0.255
-661.974	-4.551	-0.241	-0.220
-660.959	59.686	-0.130	-0.170
-659.945	72.082	0.131	-0.180
-658.930	71.518	-0.263	-0.361
-657.916	-36.463	-0.390	-0.277
-656.901	-109.029	-0.148	0.042
-655.886	-53.007	-0.331	0.201
-654.872	-18.258	0.129	-0.107
-653.857	-82.298	0.266	-0.114
-652.843	-58.002	0.193	-0.111
-651.828	79.826	-0.188	-0.268
-650.814	-126.514	0.339	-0.066
-649.799	671.333	-0.177	-0.610
-648.784	48.770	0.153	-0.190
-647.770	-54.115	-0.183	0.110
-646.755	800.000	0.114	0.446
-645.741	-122.777	-0.052	0.011
-644.726	-168.595	-0.046	0.002
-643.711	505.250	0.091	0.281
-642.697	-132.145	-0.528	0.090
-641.682	-115.587	-0.158	0.039
-640.668	-181.946	-0.441	-0.011
-639.653	-28.088	-0.068	0.052
-638.638	800.000	-0.041	-0.176
-637.624	575.357	-0.100	-0.324
-636.609	-200.000	-0.025	0.255
-635.595	-72.512	-0.583	0.284
-634.580	26.457	0.375	0.415
-633.565	-200.000	0.000	-0.009
-632.551	-200.000	0.019	0.450
-631.536	477.742	-0.153	0.459
-630.522	293.386	-0.164	-0.396
-629.507	17.322	0.251	-0.263
-628.492	-103.213	-0.158	0.049
-627.478	195.231	-0.215	0.433
-626.463	-97.449	0.319	0.109
-625.449	-173.737	-0.158	-0.006
-624.434	75.335	-0.122	-0.170
-623.419	442.923	-0.122	-0.356
-622.405	75.668	0.541	-0.757
-621.390	121.585	-0.213	-0.352
-620.376	361.017	-0.045	0.120
-619.361	-52.108	-0.363	0.222
-618.346	205.386	0.055	-0.112
-617.332	650.107	0.041	-0.139
-616.317	-118.728	0.111	0.026
-615.303	-48.110	-0.452	-0.287
-614.288	-123.271	0.681	-0.143
-613.273	192.925	0.252	-0.505
-612.259	-200.000	-0.356	-0.001
-611.244	-25.501	-0.209	-0.163
-610.230	303.500	0.104	-0.256
-609.215	-77.743	0.184	-0.084
-608.201	-155.046	-0.054	-0.005
-607.186	-176.032	0.686	-0.024
-606.171	-36.902	-0.180	0.127
-605.157	380.578	-0.027	-0.073
-604.142	-85.421	-0.237	-0.097
-603.128	800.000	-0.042	0.178
-602.113	-124.359	-0.260	0.053
-601.098	34.425	0.458	-0.529
-600.084	-84.502	0.062	-0.026
-599.069	-110.034	0.049	0.013
-598.055	-69.707	-0.499	-0.251
-597.040	-200.000	0.070	0.504
-596.025	-60.902	0.300	0.167
-595.011	-52.920	0.466	-0.283
-593.996	31.928	-0.264	-0.300
-592.982	131.246	0.125	0.213
-591.967	-118.628	0.128	-0.029
-590.952	-158.142	0.149	-0.011
-589.938	144.661	-0.031	-0.055
-588.923	-105.427	0.524	-0.156
-587.909	105.581	0.212	-0.331
-586.894	135.804	0.167	-0.288
-585.879	-2.909	0.042	-0.039
-584.865	-173.086	0.273	-0.011
-583.850	-200.000	0.065	0.400
-582.836	-44.710	-0.140	0.092
-581.821	-200.000	0.024	0.504
-580.806	-140.535	-0.626	-0.085
-579.792	-47.334	-0.121	0.077
-578.777	-68.111	0.116	-0.059
-577.763	-0.139	-0.210	0.197
-576.748	800.000	0.106	0.399
-575.733	-147.115	0.068	-0.008
-574.719	-31.355	0.307	-0.227
-573.704	-45.699	-0.166	0.108
-572.690	800.000	-0.069	0.326
-571.675	-80.844	0.182	0.079
-570.661	-22.951	-0.125	-0.099
-569.646	22.678	-0.081	0.087
-568.631	-67.751	-0.332	-0.171
-567.617	47.302	0.084	-0.103
-566.602	-14.686	0.147	-0.124
-565.588	194.858	-0.249	0.500
-564.573	-17.662	0.218	0.180
-563.558	110.812	-0.106	-0.169
-562.544	-3.448	0.105	0.097
-561.529	253.979	-0.105	0.237
-560.515	196.374	0.077	0.155
-559.500	-137.565	-0.208	0.031
-558.485	-126.485	-0.288	0.056
-557.471	-5.002	-0.366	-0.332
-556.456	17.434	-0.264	-0.277
-555.442	293.823	-0.132	0.319
-554.427	-143.416	0.317	-0.040
-553.412	-102.636	0.148	-0.046
-552.398	-60.093	0.332	-0.186
-551.383	-151.057	0.198	0.019
-550.369	-93.968	-0.371	0.133
-549.354	-110.124	-0.532	0.145
-548.339	183.177	0.249	-0.486
-547.325	-90.636	0.453	0.172
-546.310	709.274	-0.109	-0.380
-545.296	-130.193	-0.464	0.083
-544.281	30.548	-0.322	-0.363
-543.266	-92.979	-0.118	0.043
-542.252	204.891	0.109	-0.223
-541.237	-200.000	-0.040	0.505
-540.223	172.995	0.194	0.368
-539.208	-142.453	-0.424	-0.054
-538.193	302.423	-0.115	-0.282
-537.179	-200.000	-0.050	-0.532
-536.164	246.401	-0.041	-0.091
-535.150	-60.891	0.373	0.207
-534.135	108.556	0.112	0.177
-533.121	-120.475	0.220	-0.049
-532.106	56.396	0.065	-0.083
-531.091	-200.000	0.015	-0.483
-530.077	-62.653	-0.348	0.189
-529.062	87.067	0.109	0.159
-528.048	-66.970	-0.240	0.124
-527.033	12.120	-0.145	-0.147
-526.018	-115.971	-0.544	-0.132
-525.004	-200.000	-0.014	-0.517
-523.989	-65.596	0.305	-0.160
-522.975	-200.000	0.010	-0.196
-521.960	-39.438	0.346	-0.239
-520.945	-83.342	0.429	0.180
-519.931	316.909	0.086	-0.214
-518.916	453.663	-0.207	-0.605
-517.902	800.000	0.048	-0.180
-516.887	-41.202	0.216	-0.146
-515.872	-200.000	0.001	-0.346
-514.858	35.248	0.083	-0.096
-513.843	-200.000	0.022	0.184
-512.829	-200.000	0.068	0.608
-511.814	-104.631	-0.175	0.053
-510.799	141.226	-0.057	0.100
-509.785	-196.016	-0.199	0.002
-508.770	422.671	0.157	0.444
-507.756	-27.283	-0.190	-0.145
-506.741	-128.976	-0.418	0.076
-505.726	-200.000	0.022	0.188
-504.712	398.651	-0.154	-0.427
-503.697	-103.969	0.197	0.060
-502.683	-7.683	-0.138	-0.123
-501.668	68.546	0.183	0.247
-500.653	-129.141	-0.365	-0.066
-499.639	-84.034	-0.148	0.061
-498.624	-114.488	0.167	0.042
-497.610	-200.000	0.030	0.527
-496.595	-112.319	-0.388	-0.101
-495.581	-23.329	0.327	-0.258
-494.566	4.018	-0.139	0.134
-493.551	800.000	-0.073	0.398
-492.537	60.251	-0.164	-0.213
-491.522	-200.000	0.003	0.195
-490.508	-68.411	-0.404	-0.206
-489.493	800.000	-0.025	0.093
-488.478	545.110	0.125	0.395
-487.464	21.886	-0.362	0.388
-486.449	53.838	-0.432	-0.545
-485.435	278.042	-0.076	-0.178
-484.420	-116.726	-0.670	0.161
-483.405	115.533	0.322	-0.518
-482.391	800.000	0.050	-0.279
-481.376	-200.000	-0.009	-0.369
-480.362	55.470	0.316	0.403
-479.347	-103.594	0.275	-0.084
-478.332	-107.777	0.093	0.026
-477.318	-18.810	0.261	0.213
-476.303	-7.516	0.472	0.419
-475.289	-7.559	0.206	-0.183
-474.274	66.681	0.150	-0.201
-473.259	-200.000	0.033	0.320
-472.245	-200.000	-0.028	0.384
-471.230	-78.707	0.382	0.171
-470.216	-156.263	0.289	0.024
-469.201	30.997	-0.055	0.062
-468.186	-50.752	-0.154	-0.095
-467.172	-200.000	0.018	0.115
-466.157	-200.000	0.022	0.299
-465.143	390.177	-0.022	0.059
-464.128	-40.468	0.487	0.331
-463.113	16.800	-0.056	-0.058
-462.099	800.000	-0.072	0.287
-461.084	-25.019	-0.247	0.192
-460.070	-25.681	0.217	0.168
-459.055	-177.905	-0.369	-0.011
-458.040	-40.524	0.266	0.181
-457.026	28.143	0.098	0.109
-456.011	-34.044	0.175	0.126
-454.997	-71.173	0.390	0.191
-453.982	-76.815	0.140	0.064
-452.968	256.250	-0.144	0.327
-451.953	245.115	0.258	0.572
-450.938	-161.447	0.178	0.012
-449.924	-20.122	-0.125	0.101
-448.909	50.404	-0.163	-0.202
-447.895	36.169	0.344	0.397
-446.880	-171.149	-0.562	0.025
-445.865	148.126	-0.077	0.136
-444.851	84.569	-0.149	0.215
-443.836	-200.000	-0.019	0.389
-442.822	-17.448	-0.260	0.214
-441.807	46.542	0.375	-0.456
-440.792	-7.461	-0.033	-0.029
-439.778	-132.011	0.021	-0.004
-438.763	-182.698	-0.324	0.008
-437.749	-41.385	0.512	-0.345
-436.734	-141.723	-0.264	-0.034
-435.719	62.429	-0.172	-0.225
-434.705	-85.793	-0.181	-0.073
-433.690	-42.242	0.188	0.126
-432.676	362.721	0.169	0.448
-431.661	-54.894	-0.171	0.101
-430.646	-200.000	0.006	-0.250
-429.632	20.624	-0.146	-0.155
-428.617	536.857	-0.015	-0.046
-427.603	-200.000	-0.030	-0.457
-426.588	126.693	0.160	0.266
-425.573	-89.543	-0.224	0.086
-424.559	-40.277	-0.388	-0.264
-423.544	-100.936	-0.248	0.079
-422.530	170.685	0.145	-0.273
-421.515	-133.678	0.574	0.093
-420.500	-200.000	0.043	0.334
-419.486	698.588	-0.066	-0.230
-418.471	-139.543	0.323	-0.045
-417.457	143.693	0.091	0.159
-416.442	8.574	0.257	-0.253
-415.428	292.305	-0.189	0.454
-414.413	38.790	-0.109	-0.128
-413.398	-6.258	-0.077	0.069
-412.384	-141.649	0.364	-0.047
-411.369	-44.543	0.233	-0.152
-410.355	117.625	0.117	0.189
-409.340	800.000	-0.076	-0.431
-408.325	-200.000	-0.054	0.552
-407.311	-200.000	0.072	0.438
-406.296	14.787	0.194	-0.199
-405.282	-95.575	-0.256	-0.089
-404.267	-127.817	-0.527	0.099
-403.252	-170.434	0.307	0.014
-402.238	404.820	0.046	0.127
-401.223	-28.816	0.248	0.187
-400.209	-200.000	-0.074	-0.799
-399.194	51.935	0.168	-0.210
-398.179	162.215	-0.075	-0.139
-397.165	-3.475	-0.297	-0.270
-396.150	213.558	-0.179	-0.373
-395.136	20.306	-0.160	0.169
-394.121	800.000	0.059	0.266
-393.106	-128.814	-0.398	0.073
-392.092	380.441	0.125	-0.337
-391.077	-129.144	0.404	-0.073
-390.063	-200.000	0.057	-0.479
-389.048	14.958	0.351	-0.360
-388.033	358.608	-0.142	0.374
-387.019	-72.572	-0.313	-0.151
-386.004	16.035	-0.195	0.202
-384.990	800.000	-0.028	-0.128
-383.975	91.222	0.131	-0.193
-382.960	150.013	0.053	-0.094
-381.946	-143.511	0.366	-0.045
-380.931	-200.000	-0.002	-0.553
-379.917	800.000	0.105	-0.501
-378.902	394.159	0.141	-0.386
-377.888	-67.065	-0.254	0.131
-376.873	-35.679	-0.194	-0.137
-375.858	-170.790	0.562	0.025
-374.844	95.534	-0.180	-0.270
-373.829	46.997	-0.027	-0.032
-372.815	-64.621	-0.214	-0.113
-371.800	-185.274	-0.490	0.010
-370.785	-167.605	-0.521	-0.027
-369.771	-96.904	0.511	-0.174
-368.756	-200.000	0.022	-0.209
-367.742	-60.325	0.158	0.088
-366.727	90.243	0.123	-0.181
-365.712	123.118	-0.101	-0.166
-364.698	27.768	0.258	-0.284
-363.683	397.123	0.150	-0.411
-362.669	-166.829	-0.624	-0.033
-361.654	-13.861	0.082	-0.069
-360.639	49.841	0.267	-0.329
-359.625	-60.690	0.391	0.216
-358.610	-15.677	-0.209	0.174
-357.596	-184.657	-0.423	0.009
-356.581	800.000	-0.033	-0.171
-355.566	-63.987	-0.241	0.128
-354.552	44.125	-0.074	0.089
-353.537	800.000	0.041	0.222
-352.523	-107.156	-0.647	-0.185
-351.508	800.000	-0.120	0.446
-350.493	87.177	-0.246	-0.356
-349.479	28.753	-0.272	-0.301
-348.464	234.042	-0.050	0.109
-347.450	129.030	-0.255	0.426
-346.435	800.000	-0.116	0.531
-345.420	43.736	-0.208	-0.249
-344.406	-151.441	-0.422	-0.041
-343.391	39.599	-0.355	0.417
-342.377	-100.871	0.339	-0.108
-341.362	169.315	0.204	0.382
-340.348	-165.876	-0.432	-0.024
-339.333	-35.732	-0.361	-0.255
-338.318	800.000	0.022	0.126
-337.304	353.637	-0.149	0.388
-336.289	29.107	0.220	0.244
-335.275	92.466	-0.060	0.089
-334.260	-200.000	-0.028	0.285
-333.245	-48.226	0.091	0.057
-332.231	-200.000	0.036	-0.576
-331.216	-124.765	0.827	0.166
-330.202	-200.000	-0.011	0.256
-329.187	-51.651	-0.130	0.079
-328.172	-101.132	-0.074	0.024
-327.158	-107.035	0.508	0.146
-326.143	-61.149	0.486	0.267
-325.129	-9.534	0.350	0.304
-324.114	-106.938	0.274	-0.079
-323.099	74.647	-0.173	-0.238
-322.085	-121.231	-0.243	0.053
-321.070	800.000	0.007	0.032
-320.056	-25.228	-0.183	0.141
-319.041	309.998	-0.062	-0.153
-318.026	643.818	-0.149	0.500
-317.012	-20.013	-0.215	0.173
-315.997	-54.214	0.030	0.017
-314.983	225.923	0.162	0.345
-313.968	-84.802	0.702	-0.287
-312.953	-121.494	0.091	-0.020
-311.939	115.235	0.049	0.079
-310.924	126.200	-0.121	0.200
-309.910	104.589	-0.240	-0.370
-308.895	-22.849	0.329	-0.259
-307.880	-124.943	-0.335	0.067
-306.866	214.732	-0.134	-0.279
-305.851	-54.059	-0.388	-0.229
-304.837	-54.849	-0.277	0.163
-303.822	-90.604	0.174	-0.065
-302.807	49.135	-0.243	-0.298
-301.793	800.000	0.031	0.179
-300.778	-55.101	-0.296	0.173
-299.764	800.000	-0.033	-0.132
-298.749	-200.000	-0.088	-0.566
-297.735	3.172	0.138	-0.131
-296.720	13.127	0.248	-0.251
-295.705	582.114	0.154	-0.496
-294.691	800.000	-0.053	-0.201
-293.676	-139.869	-0.099	0.013
-292.662	0.320	-0.415	0.386
-291.647	13.610	-0.251	-0.254
-290.632	-200.000	-0.015	0.321
-289.618	800.000	0.044	-0.254
-288.603	101.309	0.191	0.291
-287.589	800.000	-0.163	0.636
-286.574	-200.000	0.022	0.232
-285.559	113.953	0.047	0.075
-284.545	800.000	-0.146	-0.780
-283.530	238.246	-0.200	-0.435
-282.516	-173.056	0.946	0.037
-281.501	-135.997	0.825	0.125
-280.486	-138.879	0.563	-0.079
-279.472	-67.711	0.390	-0.198
-278.457	-37.317	-0.099	-0.069
-277.443	-188.065	0.081	-0.001
-276.428	155.589	-0.066	0.118
-275.413	345.333	0.085	0.220
-274.399	142.336	0.091	-0.159
-273.384	800.000	0.118	-0.498
-272.370	294.330	-0.247	-0.590
-271.355	-69.898	-0.064	-0.031
-270.340	-20.244	-0.519	0.416
-269.326	19.629	0.030	-0.031
-268.311	-149.198	0.500	0.052
-267.297	33.954	0.318	-0.361
-266.282	-200.000	0.077	0.565
-265.267	-100.684	-0.102	-0.032
-264.253	-200.000	0.033	-0.505
-263.238	-200.000	0.025	0.634
-262.224	-200.000	0.008	0.336
-261.209	-128.088	0.177	-0.033
-260.195	-14.403	0.039	-0.032
-259.180	84.067	0.160	-0.228
-258.165	-45.488	0.312	0.201
-257.151	-65.445	-0.149	0.078
-256.136	800.000	0.060	-0.234
-255.122	12.584	0.228	0.230
-254.107	206.835	0.070	0.142
-253.092	161.442	-0.066	0.121
-252.078	-200.000	0.003	-0.369
-251.063	-159.944	0.307	-0.022
-250.049	191.621	0.080	0.158
-249.034	-46.246	0.345	0.221
-248.019	-17.240	-0.235	-0.192
-247.005	-200.000	-0.104	-0.614
-245.990	-89.434	0.466	-0.178
-244.976	-163.055	0.228	0.014
-243.961	-47.371	-0.339	0.214
-242.946	-13.188	-0.088	0.074
-241.932	800.000	-0.141	0.654
-240.917	56.131	-0.400	0.505
-239.903	152.285	0.257	0.459
-238.888	162.950	0.269	0.493
-237.873	13.727	0.292	-0.295
-236.859	-28.961	-0.145	0.108
-235.844	-119.728	-0.501	-0.112
-234.830	68.727	-0.344	0.460
-233.815	48.345	0.291	-0.355
-232.800	98.294	-0.185	0.278
-231.786	-152.672	-0.437	-0.040
-230.771	563.051	0.005	0.017
-229.757	246.269	-0.195	0.429
-228.742	116.512	0.187	-0.300
-227.727	-200.000	-0.094	0.599
-226.713	-133.358	0.251	0.041
-225.698	-121.874	0.275	-0.058
-224.684	-77.313	-0.486	-0.219
-223.669	-9.207	-0.323	0.280
-222.655	-199.870	0.363	-0.002
-221.640	-94.779	0.486	-0.171
-220.625	-7.131	0.248	0.219
-219.611	-57.252	-0.493	0.281
-218.596	800.000	-0.054	-0.241
-217.582	-14.070	-0.339	-0.284
-216.567	-21.070	0.391	0.311
-215.552	14.482	-0.234	-0.238
-214.538	31.945	-0.163	-0.182
-213.523	-10.161	0.214	-0.184
-212.509	-62.260	0.398	-0.215
-211.494	481.127	0.132	-0.392
-210.479	433.631	0.049	-0.140
-209.465	674.283	0.075	0.254
-208.450	132.497	0.116	-0.195
-207.436	90.886	0.237	0.345
-206.421	-167.015	0.369	-0.019
-205.406	-36.683	-0.357	0.249
-204.392	-51.720	0.142	-0.086
-203.377	-82.831	-0.389	0.162
-202.363	800.000	-0.038	0.167
-201.348	39.121	-0.115	0.134
-200.333	301.957	-0.355	0.857
-199.319	-200.000	0.020	-0.263
-198.304	-150.047	0.328	-0.033
-197.290	36.491	-0.293	-0.337
-196.275	236.825	0.115	0.248
-195.260	800.000	0.054	0.196
-194.246	-57.565	-0.228	0.129
-193.231	333.574	-0.193	0.486
-192.217	28.620	-0.350	0.385
-191.202	-100.788	-0.081	-0.026
-190.187	20.373	0.320	0.336
-189.173	74.164	-0.172	-0.235
-188.158	345.670	0.185	0.473
-187.144	-84.180	-0.177	-0.073
-186.129	-22.672	0.256	-0.201
-185.114	-164.305	0.552	0.032
-184.100	11.098	0.168	-0.167
-183.085	-175.905	-0.354	-0.012
-182.071	-78.111	0.268	0.119
-181.056	68.837	0.231	0.309
-180.042	-46.750	0.117	0.074
-179.027	-2.560	-0.111	-0.101
-178.012	-26.260	0.375	-0.286
-176.998	-40.342	0.388	0.262
-175.983	7.999	-0.574	-0.559
-174.969	170.703	0.080	0.150
-173.954	-30.789	-0.201	-0.147
-172.939	37.092	0.433	0.498
-171.925	-125.073	-0.178	-0.035
-170.910	-120.764	0.232	0.050
-169.896	747.106	0.046	-0.161
-168.881	553.309	0.245	-0.769
-167.866	-200.000	0.024	0.194
-166.852	-120.899	-0.291	0.063
-165.837	450.104	0.099	-0.284
-164.823	-91.865	0.210	-0.077
-163.808	-77.079	-0.561	0.253
-162.793	-56.012	-0.455	0.262
-161.779	-37.569	0.288	-0.199
-160.764	-109.255	0.196	-0.054
-159.750	127.615	-0.145	-0.240
-158.735	-66.803	0.344	-0.176
-157.720	-9.278	-0.192	-0.166
-156.706	-158.560	-0.120	0.009
-155.691	37.918	-0.319	-0.368
-154.677	800.000	-0.049	-0.261
-153.662	-200.000	-0.028	-0.292
-152.647	-98.080	0.099	0.033
-151.633	368.528	0.185	0.488
-150.618	-163.004	-0.170	0.011
-149.604	-127.591	-0.545	-0.102
-148.589	-181.689	0.255	-0.006
-147.574	302.944	0.187	0.452
-146.560	456.341	-0.066	-0.190
-145.545	-200.000	0.025	0.149
-144.531	-158.830	-0.352	-0.026
-143.516	-129.901	-0.127	-0.022
-142.502	236.035	-0.102	0.220
-141.487	303.107	0.030	-0.072
-140.472	-200.000	-0.029	0.585
-139.458	530.620	-0.078	0.240
-138.443	-121.423	0.020	0.004
-137.429	319.983	-0.065	0.160
-136.414	99.849	-0.360	-0.542
-135.399	25.305	-0.028	0.030
-134.385	-123.608	-0.391	-0.080
-133.370	-200.000	0.035	0.349
-132.356	-166.397	-0.744	0.040
-131.341	-104.367	0.091	-0.027
-130.326	-131.928	-0.226	-0.038
-129.312	309.966	0.129	0.315
-128.297	-200.000	0.009	-0.089
-127.283	-42.152	0.391	-0.259
-126.268	-200.000	-0.035	-0.327
-125.253	30.503	-0.140	-0.155
-124.239	-200.000	0.038	-0.264
-123.224	583.801	-0.166	-0.533
-122.210	800.000	-0.109	-0.398
