DTS Sentinel unit serial number:	SN409020Multiplexer serial number:	ORYXHardware model number:	OX4-SRSoftware version number:	ORYX F/W v3.00 Oryx Data Collector v3.7.2.0data status	okinstallation	HaddamTimeLapsedifferential loss correction	single-endedforward channel	channel 3reverse channel	N/Adate	2011/06/22time	09:01:17forward acquisition time	30.00reverse acquisition time	0.00gamma	498.7831k internal	0.1797k external	0.1797temperature offset calibration	1.0074default loss term (dB/km)	0.3790temperature slope calibration	1.3530multiplexer offset coefficient	1.0000multiplexer slope coefficient	1.0000fibre end	0.00T internal ref (°C)	27.47T ext. ref 1 (°C)	24.19T ext. ref 2 (°C)	0.17length (m)	temperature (°C)	Stokes	anti-Stokes-747.200	800.000	-0.054	0.235
-746.185	32.142	0.403	0.450
-745.171	-23.204	-0.148	0.115
-744.156	240.906	0.074	0.161
-743.142	12.850	0.244	0.244
-742.127	317.106	-0.188	0.461
-741.112	-2.570	0.069	-0.063
-740.098	402.450	-0.130	0.354
-739.083	-96.054	-0.375	-0.128
-738.069	800.000	0.073	0.290
-737.054	-150.419	0.174	-0.017
-736.039	800.000	-0.133	0.487
-735.025	135.326	0.063	-0.106
-734.010	-13.019	0.412	0.346
-732.996	42.966	-0.051	-0.061
-731.981	269.454	0.144	-0.328
-730.966	-18.668	-0.346	-0.278
-729.952	18.135	-0.319	-0.329
-728.937	-200.000	-0.001	0.119
-727.923	72.183	-0.245	0.331
-726.908	-171.988	-0.496	0.020
-725.894	-73.830	0.140	0.065
-724.879	-200.000	0.015	-0.343
-723.864	323.869	-0.065	-0.160
-722.850	35.688	0.309	-0.351
-721.835	199.713	0.194	0.386
-720.821	582.108	0.136	-0.433
-719.806	-6.850	-0.350	-0.307
-718.791	-112.807	0.227	0.058
-717.777	487.593	0.110	-0.327
-716.762	279.968	0.196	0.454
-715.748	-114.291	0.567	0.140
-714.733	-100.454	-0.135	0.043
-713.718	-15.189	0.128	0.106
-712.704	80.120	0.294	0.409
-711.689	-56.404	0.518	0.296
-710.675	634.813	-0.156	-0.514
-709.660	94.668	0.249	-0.367
-708.645	143.431	-0.240	-0.413
-707.631	18.981	0.307	-0.318
-706.616	-142.670	-0.371	-0.046
-705.602	9.379	-0.289	-0.283
-704.587	-200.000	-0.016	-0.217
-703.572	284.670	0.083	-0.195
-702.558	-200.000	0.092	0.636
-701.543	60.688	-0.077	0.099
-700.529	98.100	0.218	0.326
-699.514	-120.170	0.547	-0.120
-698.499	-157.214	-0.124	0.010
-697.485	-200.000	0.017	-0.154
-696.470	-200.000	0.272	0.001
-695.456	-200.000	0.042	-0.577
-694.441	-14.099	0.355	-0.295
-693.426	-74.620	0.330	-0.153
-692.412	-128.326	-0.052	0.009
-691.397	-97.904	-0.374	0.124
-690.383	-200.000	0.415	0.002
-689.368	-70.975	-0.284	-0.138
-688.354	57.115	-0.236	-0.298
-687.339	-83.342	0.160	0.066
-686.324	-112.830	-0.228	-0.058
-685.310	523.909	0.075	0.229
-684.295	-54.239	-0.170	0.099
-683.281	-81.067	-0.179	0.076
-682.266	138.652	0.187	-0.318
-681.251	353.397	0.133	0.342
-680.237	341.802	-0.113	-0.286
-679.222	800.000	-0.036	0.184
-678.208	169.983	0.048	-0.089
-677.193	-25.769	0.116	-0.088
-676.178	264.392	-0.107	-0.241
-675.164	800.000	0.029	-0.120
-674.149	64.906	0.205	0.267
-673.135	-141.636	0.077	0.010
-672.120	-67.988	0.275	0.138
-671.105	-78.519	-0.318	-0.140
-670.091	-107.809	-0.443	-0.124
-669.076	99.247	-0.075	-0.112
-668.062	-32.444	0.091	0.065
-667.047	-76.445	-0.070	0.031
-666.032	-121.664	-0.422	0.089
-665.018	1.247	0.331	0.307
-664.003	-38.857	0.136	0.092
-662.989	-66.093	-0.504	0.258
-661.974	-200.000	0.036	0.281
-660.959	-200.000	0.042	0.304
-659.945	-2.402	0.281	-0.254
-658.930	-118.160	-0.427	0.097
-657.916	284.708	-0.050	-0.116
-656.901	-132.899	0.470	-0.076
-655.886	-44.438	0.175	-0.113
-654.872	-117.730	-0.373	0.086
-653.857	10.773	-0.088	-0.087
-652.843	45.588	0.259	-0.309
-651.828	6.801	0.338	0.324
-650.814	-200.000	0.466	-0.002
-649.799	126.217	-0.141	-0.231
-648.784	-26.031	0.226	-0.171
-647.770	47.830	-0.136	0.164
-646.755	46.069	-0.312	0.372
-645.741	27.355	-0.306	-0.332
-644.726	275.773	0.110	-0.253
-643.711	-200.000	-0.077	-0.700
-642.697	-44.827	-0.550	-0.353
-641.682	236.445	-0.105	0.224
-640.668	-200.000	0.002	0.364
-639.653	-162.172	-0.379	0.024
-638.638	257.468	0.191	-0.425
-637.624	347.696	0.055	-0.139
-636.609	160.324	0.213	-0.384
-635.595	145.172	0.198	-0.342
-634.580	-69.349	0.330	-0.162
-633.565	556.351	-0.072	0.225
-632.551	-38.705	0.383	0.260
-631.536	800.000	0.069	0.371
-630.522	800.000	-0.099	0.427
-629.507	-117.856	-0.478	-0.110
-628.492	800.000	-0.109	-0.409
-627.478	-200.000	-0.029	-0.305
-626.463	37.433	0.157	-0.179
-625.449	-100.940	-0.065	-0.020
-624.434	-114.912	-0.415	-0.101
-623.419	-36.499	-0.335	-0.232
-622.405	-45.805	-0.215	-0.136
-621.390	-80.272	0.231	0.099
-620.376	-200.000	0.001	-0.057
-619.361	-200.000	-0.004	0.380
-618.346	128.355	0.298	0.490
-617.332	800.000	0.042	0.190
-616.317	-152.173	-0.174	-0.016
-615.303	94.076	-0.287	0.420
-614.288	-108.647	-0.248	0.068
-613.273	242.906	-0.061	0.131
-612.259	-200.000	-0.040	0.500
-611.244	800.000	0.063	0.309
-610.230	-107.801	-0.211	-0.059
-609.215	-52.923	-0.232	-0.137
-608.201	-28.683	0.295	-0.218
-607.186	-123.722	0.361	0.073
-606.171	-70.362	0.258	0.125
-605.157	-163.776	0.132	-0.008
-604.142	-54.991	0.394	0.228
-603.128	1.611	-0.049	0.046
-602.113	-200.000	-0.004	0.310
-601.098	454.432	-0.115	0.330
-600.084	-35.907	-0.294	-0.204
-599.069	-19.060	0.119	-0.095
-598.055	-200.000	-0.015	0.141
-597.040	-45.235	-0.339	-0.216
-596.025	136.835	0.075	-0.126
-595.011	302.352	-0.108	0.259
-593.996	110.671	0.317	-0.491
-592.982	-190.804	0.491	-0.007
-591.967	-200.000	0.087	0.626
-590.952	48.505	-0.202	-0.243
-589.938	-114.719	-0.244	0.060
-588.923	-186.877	-0.153	0.003
-587.909	-200.000	0.052	0.297
-586.894	-76.723	0.236	-0.106
-585.879	79.147	0.250	0.345
-584.865	38.970	0.192	0.221
-583.850	-200.000	0.020	0.325
-582.836	149.398	0.358	0.625
-581.821	37.687	-0.100	0.114
-580.806	8.958	0.322	-0.312
-579.792	105.266	0.163	-0.247
-578.777	-17.555	0.114	-0.092
-577.763	105.216	0.085	0.130
-576.748	-93.175	0.172	-0.061
-575.733	-186.083	-0.390	0.007
-574.719	-134.579	-0.429	-0.067
-573.704	-119.770	-0.705	0.155
-572.690	30.848	0.380	0.419
-571.675	-75.963	-0.205	0.093
-570.661	-149.054	0.365	0.037
-569.646	-200.000	-0.023	-0.196
-568.631	800.000	-0.119	-0.435
-567.617	42.140	-0.446	-0.521
-566.602	-200.000	-0.016	-0.396
-565.588	-74.376	0.370	-0.171
-564.573	-96.068	0.507	0.172
-563.558	-168.830	-0.366	0.017
-562.544	-116.333	-0.036	0.008
-561.529	-161.314	-0.167	0.011
-560.515	-147.868	-0.504	0.053
-559.500	-34.816	0.511	0.358
-558.485	800.000	0.112	0.499
-557.471	-0.913	-0.222	-0.202
-556.456	-76.142	-0.643	-0.290
-555.442	103.199	-0.217	0.328
-554.427	-70.141	-0.493	0.240
-553.412	190.127	0.162	0.314
-552.398	110.293	0.114	-0.177
-551.383	580.565	-0.032	0.101
-550.369	-200.000	0.026	0.352
-549.354	800.000	0.032	0.173
-548.339	-146.104	0.389	-0.044
-547.325	132.628	-0.028	0.047
-546.310	-105.143	-0.313	-0.091
-545.296	-200.000	0.051	-0.605
-544.281	-97.460	-0.204	-0.068
-543.266	-200.000	0.025	0.401
-542.252	800.000	-0.105	-0.516
-541.237	800.000	-0.091	-0.433
-540.223	210.067	0.048	0.097
-539.208	67.061	0.063	-0.082
-538.193	68.370	-0.271	0.356
-537.179	253.884	0.065	0.142
-536.164	595.096	-0.100	-0.318
-535.150	71.633	-0.276	0.369
-534.135	-200.000	0.017	0.153
-533.121	-200.000	-0.002	0.639
-532.106	-43.797	-0.410	0.264
-531.091	-114.659	-0.115	0.028
-530.077	800.000	-0.090	-0.411
-529.062	-176.148	-0.225	-0.007
-528.048	133.839	-0.109	0.181
-527.033	-22.674	-0.387	0.300
-526.018	-106.163	0.510	0.146
-525.004	-104.360	0.345	-0.102
-523.989	700.871	-0.105	0.357
-522.975	409.171	0.233	0.636
-521.960	-200.000	-0.108	0.692
-520.945	-112.742	-0.159	0.040
-519.931	-200.000	-0.005	0.033
-518.916	-48.460	0.299	0.184
-517.902	-168.060	0.550	0.027
-516.887	23.207	-0.411	-0.433
-515.872	-41.250	-0.434	-0.286
-514.858	201.572	-0.119	0.236
-513.843	-142.591	0.110	0.014
-512.829	800.000	0.112	-0.436
-511.814	-26.293	-0.314	0.236
-510.799	-121.911	0.232	-0.049
-509.785	-0.826	-0.164	-0.149
-508.770	-70.165	-0.220	0.107
-507.756	-200.000	-0.076	-0.488
-506.741	206.785	-0.179	-0.358
-505.726	-106.192	-0.285	0.081
-504.712	434.006	-0.198	-0.553
-503.697	-200.000	-0.008	-0.106
-502.683	-3.853	-0.155	0.138
-501.668	-79.742	-0.070	-0.030
-500.653	-31.202	0.299	0.216
-499.639	68.337	0.167	0.219
-498.624	-200.000	-0.025	0.388
-497.610	-55.053	-0.204	-0.118
-496.595	101.614	-0.060	0.090
-495.581	238.480	-0.046	0.099
-494.566	15.857	-0.148	0.149
-493.551	-48.028	0.268	0.165
-492.537	121.950	-0.233	-0.373
-491.522	-50.980	-0.186	-0.112
-490.508	-33.584	0.258	0.182
-489.493	-200.000	0.235	0.000
-488.478	-172.594	0.206	0.008
-487.464	-172.429	-0.400	0.016
-486.449	-142.154	0.093	0.012
-485.435	800.000	0.071	0.283
-484.420	63.697	0.140	-0.180
-483.405	-101.837	-0.600	0.185
-482.391	-200.000	0.022	0.136
-481.376	-157.757	0.269	-0.020
-480.362	-200.000	-0.283	0.000
-479.347	197.945	-0.068	-0.134
-478.332	-37.733	0.298	0.203
-477.318	-91.477	-0.529	0.192
-476.303	-154.323	-0.314	-0.027
-475.289	-13.455	0.317	0.263
-474.274	800.000	0.042	0.236
-473.259	222.195	-0.104	0.214
-472.245	-10.313	-0.221	0.188
-471.230	800.000	0.027	-0.114
-470.216	63.181	-0.209	0.268
-469.201	48.213	-0.231	0.276
-468.186	-12.107	0.142	-0.119
-467.172	-117.651	-0.356	-0.081
-466.157	497.582	-0.130	0.386
-465.143	-154.257	0.196	0.017
-464.128	266.317	0.059	0.132
-463.113	77.030	0.293	0.399
-462.099	-200.000	-0.049	-0.286
-461.084	644.175	0.120	0.394
-460.070	800.000	0.092	-0.362
-459.055	800.000	0.064	-0.268
-458.040	-31.202	0.339	0.244
-457.026	-137.106	0.070	-0.010
-456.011	800.000	-0.068	0.266
-454.997	-33.071	0.061	0.043
-453.982	-200.000	-0.052	0.357
-452.968	645.466	0.029	-0.097
-451.953	-14.181	0.425	-0.350
-450.938	-160.428	0.354	-0.024
-449.924	286.422	-0.179	0.415
-448.909	-121.024	-0.183	0.039
-447.895	193.870	0.225	0.436
-446.880	-200.000	0.006	0.390
-445.865	-200.000	-0.054	-0.565
-444.851	-188.754	-0.179	-0.003
-443.836	-22.291	-0.289	-0.223
-442.822	-126.738	-0.188	-0.035
-441.807	3.849	0.105	-0.098
-440.792	800.000	-0.049	-0.203
-439.778	-132.453	-0.124	0.020
-438.763	175.662	0.202	-0.375
-437.749	-63.001	0.186	0.098
-436.734	29.035	-0.092	-0.100
-435.719	-107.813	0.487	-0.135
-434.705	-95.598	0.288	0.098
-433.690	210.932	-0.131	0.265
-432.676	-148.537	-0.248	-0.026
-431.661	-142.391	0.314	-0.039
-430.646	-97.670	0.401	-0.132
-429.632	-158.188	-0.398	-0.029
-428.617	-81.531	0.123	0.051
-427.603	-17.719	-0.097	0.078
-426.588	-42.480	0.138	0.090
-425.573	-200.000	0.018	0.249
-424.559	11.658	0.525	-0.514
-423.544	800.000	0.033	-0.138
-422.530	-200.000	-0.002	-0.431
-421.515	77.414	0.183	-0.249
-420.500	-200.000	0.004	-0.151
-419.486	65.353	-0.219	-0.284
-418.471	-187.104	0.410	-0.007
-417.457	-198.178	-0.356	0.003
-416.442	-29.241	-0.267	0.195
-415.428	198.063	-0.183	-0.358
-414.413	187.987	0.130	-0.248
-413.398	300.049	0.138	0.326
-412.384	800.000	0.091	0.437
-411.369	-52.831	-0.393	-0.231
-410.355	-52.180	0.380	0.224
-409.340	181.019	-0.108	-0.204
-408.325	-86.411	-0.466	0.182
-407.311	101.050	-0.102	-0.153
-406.296	-163.128	0.186	0.011
-405.282	800.000	0.173	0.851
-404.267	-49.962	-0.552	0.333
-403.252	-200.000	0.036	0.228
-402.238	38.145	-0.374	-0.425
-401.223	800.000	0.098	-0.417
-400.209	-92.013	-0.268	0.096
-399.194	59.050	0.203	-0.255
-398.179	-86.707	-0.427	-0.166
-397.165	-200.000	0.016	0.126
-396.150	-60.732	-0.426	-0.229
-395.136	21.929	0.138	0.143
-394.121	-113.672	-0.233	-0.058
-393.106	-119.242	0.424	0.094
-392.092	-149.739	0.433	0.043
-391.077	48.329	-0.206	-0.246
-390.063	-102.933	-0.350	-0.105
-389.048	129.576	-0.288	-0.470
-388.033	-58.202	0.250	0.139
-387.019	523.625	0.074	-0.224
-386.004	306.065	-0.311	-0.741
-384.990	137.391	-0.193	0.323
-383.975	275.526	0.161	0.365
-382.960	-123.525	0.429	-0.086
-381.946	-39.000	-0.167	0.112
-380.931	-166.846	-0.316	-0.016
-379.917	55.156	0.209	0.258
-378.902	-75.804	-0.145	0.066
-377.888	-200.000	0.054	0.451
-376.873	-150.825	-0.389	0.037
-375.858	84.742	0.427	-0.597
-374.844	-97.183	0.353	-0.117
-373.829	800.000	0.086	-0.405
-372.815	475.843	-0.070	0.203
-371.800	331.739	0.121	-0.300
-370.785	81.104	-0.152	0.209
-369.771	60.783	-0.060	-0.076
-368.756	-137.525	0.371	-0.053
-367.742	-181.654	0.166	0.004
-366.727	-111.426	0.474	0.122
-365.712	312.864	0.105	0.253
-364.698	-146.054	-0.197	-0.022
-363.683	124.935	0.095	-0.153
-362.669	-25.805	-0.154	-0.115
-361.654	-115.030	0.361	0.087
-360.639	-200.000	0.017	0.304
-359.625	800.000	-0.119	-0.666
-358.610	-2.577	0.164	0.146
-357.596	235.187	-0.186	0.394
-356.581	-200.000	-0.048	0.306
-355.566	1.154	-0.150	0.137
-354.552	-141.870	-0.237	0.030
-353.537	32.755	0.418	0.462
-352.523	148.125	-0.159	0.274
-351.508	-44.918	0.064	-0.041
-350.493	25.958	0.198	-0.211
-349.479	-200.000	0.017	-0.564
-348.464	-7.160	-0.228	-0.197
-347.450	67.064	-0.154	0.200
-346.435	-114.086	0.171	0.042
-345.420	-140.474	0.462	0.061
-344.406	-109.255	0.291	-0.078
-343.391	350.819	-0.122	0.308
-342.377	-21.807	-0.426	-0.330
-341.362	33.226	-0.260	-0.288
-340.348	22.617	0.293	-0.305
-339.333	800.000	0.093	-0.476
-338.318	-86.368	-0.325	0.127
-337.304	114.551	0.139	-0.216
-336.289	-12.175	-0.517	-0.431
-335.275	-178.629	-0.359	-0.010
-334.260	-200.000	-0.116	0.840
-333.245	800.000	-0.084	0.445
-332.231	800.000	-0.017	0.061
-331.216	-9.672	0.318	0.270
-330.202	-128.601	0.545	0.097
-329.187	-145.536	-0.418	-0.047
-328.172	4.408	-0.079	-0.073
-327.158	-51.691	0.236	-0.140
-326.143	-200.000	-0.005	-0.400
-325.129	-200.000	-0.006	-0.220
-324.114	800.000	0.064	-0.266
-323.099	-153.567	0.188	0.016
-322.085	-64.323	-0.128	0.066
-321.070	-83.856	-0.234	-0.094
-320.056	122.437	-0.143	-0.228
-319.041	187.721	-0.167	0.319
-318.026	26.522	0.226	0.241
-317.012	-110.472	0.420	0.110
-315.997	-8.885	-0.209	-0.178
-314.983	12.119	-0.405	0.397
-313.968	-200.000	-0.029	0.194
-312.953	192.456	0.185	-0.356
-311.939	215.044	0.182	-0.368
-310.924	-184.455	0.168	-0.003
-309.910	-111.423	-0.490	-0.126
-308.895	-200.000	-0.052	-0.511
-307.880	477.098	0.111	-0.321
-306.866	-200.000	0.009	-0.394
-305.851	-147.662	-0.541	0.057
-304.837	-200.000	0.068	0.561
-303.822	-200.000	-0.012	0.225
-302.807	-12.862	0.412	-0.341
-301.793	421.284	0.026	0.072
-300.778	-58.577	-0.033	0.018
-299.764	800.000	-0.124	-0.471
-298.749	392.551	0.071	0.189
-297.735	623.180	0.146	-0.469
-296.720	-171.311	0.417	0.018
-295.705	-106.169	-0.131	-0.037
-294.691	92.191	-0.170	0.244
-293.676	-200.000	-0.054	-0.483
-292.662	127.750	-0.197	-0.320
-291.647	-200.000	-0.006	0.212
-290.632	-200.000	-0.015	0.138
-289.618	115.813	-0.120	0.188
-288.603	-200.000	-0.042	-0.452
-287.589	-200.000	0.006	0.166
-286.574	33.561	-0.195	0.215
-285.559	-122.978	0.348	-0.071
-284.545	-78.897	0.361	-0.156
-283.530	104.103	-0.196	-0.294
-282.516	241.613	-0.190	-0.405
-281.501	-200.000	0.010	0.130
-280.486	109.387	-0.257	0.392
-279.472	5.804	-0.319	-0.299
-278.457	-200.000	-0.092	0.639
-277.443	78.675	0.246	-0.335
-276.428	273.477	-0.059	-0.132
-275.413	-38.649	-0.066	-0.044
-274.399	-39.685	-0.299	0.198
-273.384	-50.175	0.221	-0.133
-272.370	-71.348	0.169	-0.080
-271.355	-147.493	0.436	0.046
-270.340	-200.000	0.006	-0.096
-269.326	800.000	0.151	-0.595
-268.311	238.889	-0.069	-0.146
-267.297	-83.557	0.424	0.171
-266.282	-129.062	0.378	-0.067
-265.267	596.897	0.041	0.129
-264.253	-73.106	0.271	-0.126
-263.238	-172.223	0.264	-0.011
-262.224	70.404	-0.185	0.243
-261.209	433.014	-0.059	-0.163
-260.195	275.464	0.108	-0.245
-259.180	165.286	-0.144	-0.260
-258.165	-135.178	-0.112	0.017
-257.151	-114.901	0.452	-0.108
-256.136	-152.466	0.211	0.019
-255.122	-200.000	-0.010	0.226
-254.107	196.777	0.167	0.325
-253.092	-49.840	-0.286	0.172
-252.078	-117.052	-0.493	0.113
-251.063	-67.944	0.335	-0.166
-250.049	198.636	-0.023	-0.045
-249.034	-152.918	-0.092	-0.008
-248.019	781.658	-0.032	-0.112
-247.005	-94.040	-0.087	-0.030
-245.990	-200.000	-0.053	-0.528
-244.976	-200.000	-0.015	0.307
-243.961	76.513	0.217	0.292
-242.946	52.419	-0.126	-0.153
-241.932	117.844	-0.154	0.241
-240.917	-69.270	-0.412	0.200
-239.903	-51.509	0.291	-0.172
-238.888	-181.676	-0.135	0.003
-237.873	106.729	0.176	0.265
-236.859	-168.704	0.079	0.004
-235.844	498.246	0.146	-0.430
-234.830	800.000	0.143	0.676
-233.815	-39.423	0.321	0.213
-232.800	53.862	0.188	-0.229
-231.786	-85.187	-0.370	0.146
-230.771	155.401	-0.074	0.130
-229.757	-66.838	0.210	0.105
-228.742	36.245	0.078	0.087
-227.727	-55.114	0.147	-0.083
-226.713	800.000	0.115	0.431
-225.698	-114.480	0.392	-0.095
-224.684	249.373	0.092	0.199
-223.669	-16.029	0.031	-0.025
-222.655	-67.109	-0.148	-0.074
-221.640	800.000	-0.060	-0.230
-220.625	50.624	-0.082	-0.099
-219.611	-9.469	-0.240	-0.203
-218.596	98.413	0.149	0.217
-217.582	800.000	0.084	-0.321
-216.567	-138.029	-0.316	0.044
-215.552	30.053	-0.260	-0.281
-214.538	2.274	-0.312	-0.285
-213.523	-200.000	-0.005	-0.462
-212.509	-136.433	0.437	0.064
-211.494	106.499	0.160	0.240
-210.479	-71.186	-0.148	0.070
-209.465	-123.529	0.277	-0.055
-208.450	-140.954	-0.215	-0.028
-207.436	48.185	0.099	0.117
-206.421	-10.538	0.360	0.302
-205.406	800.000	0.026	0.137
-204.392	43.461	-0.175	-0.203
-203.377	-200.000	0.074	-0.601
-202.363	-124.450	0.333	-0.065
-201.348	-100.789	0.373	0.116
-200.333	-2.372	0.211	-0.187
-199.319	-200.000	-0.007	0.041
-198.304	207.194	0.129	-0.256
-197.290	-101.300	0.505	0.155
-196.275	-156.862	0.197	0.015
-195.260	-52.001	0.356	-0.209
-194.246	-43.822	0.394	-0.251
-193.231	27.274	0.366	-0.389
-192.217	41.460	0.434	-0.498
-191.202	-61.364	-0.306	0.162
-190.187	528.299	0.052	-0.157
-189.173	16.743	0.078	0.078
-188.158	188.673	0.134	-0.255
-187.144	-108.324	0.199	0.054
-186.129	-50.330	0.192	-0.115
-185.114	182.507	0.113	-0.212
-184.100	631.130	-0.078	0.252
-183.085	-24.443	0.370	0.278
-182.071	-139.160	-0.526	0.071
-181.056	-103.312	-0.412	0.122
-180.042	800.000	-0.049	0.177
-179.027	47.447	0.057	0.068
-178.012	-200.000	0.020	-0.578
-176.998	-200.000	0.009	-0.424
-175.983	-112.405	0.177	-0.045
-174.969	-200.000	0.005	0.243
-173.954	-55.077	0.379	0.215
-172.939	800.000	-0.046	0.223
-171.925	-200.000	-0.032	-0.557
-170.910	-152.401	-0.419	-0.038
-169.896	74.494	0.158	-0.210
-168.881	800.000	-0.053	-0.238
-167.866	-134.473	-0.345	0.053
-166.852	123.946	-0.064	0.101
-165.837	-124.779	0.103	0.020
-164.823	-80.972	-0.352	-0.147
-163.808	-46.004	-0.340	0.212
-162.793	-35.192	-0.391	0.269
-161.779	5.799	0.215	-0.201
-160.764	-101.540	-0.193	-0.059
-159.750	287.944	-0.042	-0.097
-158.735	-85.809	0.416	0.162
-157.720	1.333	0.449	0.407
-156.706	-142.864	0.560	0.068
-155.691	800.000	-0.024	0.089
-154.677	-115.796	-0.437	0.102
-153.662	154.103	0.098	0.170
-152.647	-200.000	0.060	0.384
-151.633	84.724	-0.074	-0.102
-150.618	800.000	-0.027	0.113
-149.604	-16.196	-0.050	-0.040
-148.589	-200.000	-0.014	-0.256
-147.574	717.138	-0.182	-0.614
-146.560	439.498	-0.164	0.454
-145.545	-200.000	-0.008	0.165
-144.531	-105.910	-0.286	-0.081
-143.516	-200.000	0.006	0.121
-142.502	27.323	0.277	0.295
-141.487	49.715	-0.156	0.186
-140.472	107.689	0.180	-0.271
-139.458	-200.000	-0.033	-0.285
-138.443	119.685	0.157	0.247
-137.429	-22.087	0.108	-0.083
-136.414	-84.751	-0.337	0.133
-135.399	-26.161	0.523	0.388
-134.385	800.000	-0.130	0.576
-133.370	-107.684	-0.320	0.088
-132.356	146.013	-0.177	0.301
-131.341	-179.958	-0.266	0.007
-130.326	-200.000	0.001	-0.093
-129.312	-52.929	-0.103	-0.060
-128.297	-200.000	0.013	-0.678
-127.283	19.828	0.204	-0.208
-126.268	-6.380	-0.121	-0.105
-125.253	-200.000	0.017	-0.549
-124.239	-46.721	-0.438	-0.270
-123.224	-160.637	0.050	-0.003
-122.210	-112.744	-0.142	0.035
