DTS Sentinel unit serial number:	SN409020Multiplexer serial number:	ORYXHardware model number:	OX4-SRSoftware version number:	ORYX F/W v3.00 Oryx Data Collector v3.7.2.0data status	okinstallation	HaddamTimeLapsedifferential loss correction	single-endedforward channel	channel 3reverse channel	N/Adate	2011/06/21time	17:41:18forward acquisition time	30.00reverse acquisition time	0.00gamma	498.7831k internal	0.1830k external	0.1830temperature offset calibration	1.0074default loss term (dB/km)	0.3790temperature slope calibration	1.3530multiplexer offset coefficient	1.0000multiplexer slope coefficient	1.0000fibre end	0.00T internal ref (°C)	35.00T ext. ref 1 (°C)	29.33T ext. ref 2 (°C)	0.27length (m)	temperature (°C)	Stokes	anti-Stokes-747.200	-200.000	0.056	-0.506
-746.185	36.535	0.326	-0.366
-745.171	-66.594	0.285	0.143
-744.156	175.139	0.168	0.310
-743.142	238.048	-0.068	-0.144
-742.127	-196.131	-0.216	-0.002
-741.112	-200.000	-0.064	-0.398
-740.098	-200.000	0.000	0.080
-739.083	223.959	-0.103	0.212
-738.069	47.210	0.197	0.233
-737.054	-88.387	-0.488	0.184
-736.039	38.478	-0.133	0.151
-735.025	-115.205	-0.274	-0.065
-734.010	-200.000	0.015	-0.183
-732.996	800.000	-0.090	-0.411
-731.981	800.000	-0.057	-0.221
-730.966	-51.718	0.212	0.125
-729.952	148.682	-0.057	-0.098
-728.937	286.671	0.294	-0.677
-727.923	-19.975	-0.318	-0.249
-726.908	413.628	0.123	-0.334
-725.894	-53.867	-0.037	-0.021
-724.879	-200.000	0.043	-0.336
-723.864	1.322	-0.485	-0.442
-722.850	-182.570	-0.321	0.007
-721.835	72.211	0.288	-0.382
-720.821	-29.295	-0.464	0.337
-719.806	-149.945	-0.463	-0.045
-718.791	-28.394	-0.484	-0.354
-717.777	-110.439	-0.262	0.068
-716.762	-200.000	-0.004	0.372
-715.748	-114.945	-0.354	0.085
-714.733	269.242	0.069	-0.153
-713.718	-156.556	0.297	-0.023
-712.704	-12.118	0.533	-0.443
-711.689	-94.568	-0.378	0.130
-710.675	329.317	0.068	0.168
-709.660	143.016	0.349	-0.591
-708.645	800.000	0.060	-0.266
-707.631	800.000	-0.087	0.445
-706.616	-68.537	-0.670	0.328
-705.602	-105.254	-0.307	0.088
-704.587	-102.715	0.151	-0.045
-703.572	56.395	0.112	0.138
-702.558	0.122	0.171	-0.154
-701.543	642.597	-0.106	-0.345
-700.529	-44.395	-0.088	0.056
-699.514	-200.000	-0.016	0.368
-698.499	-200.000	0.041	-0.306
-697.485	-66.448	0.595	-0.299
-696.470	-82.668	0.242	-0.099
-695.456	-122.329	-0.265	0.054
-694.441	-200.000	0.039	-0.312
-693.426	161.544	-0.139	0.247
-692.412	-144.293	0.336	-0.039
-691.397	117.807	0.152	-0.238
-690.383	49.859	-0.090	-0.108
-689.368	-200.000	0.016	-0.432
-688.354	180.337	-0.045	0.085
-687.339	178.511	0.233	-0.432
-686.324	33.060	0.271	-0.298
-685.310	-145.889	-0.521	-0.058
-684.295	800.000	0.119	-0.499
-683.281	-200.000	0.038	0.304
-682.266	-99.119	-0.499	0.159
-681.251	-83.572	0.118	-0.048
-680.237	-66.725	0.321	0.160
-679.222	-78.398	0.369	0.160
-678.208	-45.585	-0.468	0.293
-677.193	107.648	0.207	-0.312
-676.178	-156.614	-0.491	0.038
-675.164	51.318	-0.173	0.208
-674.149	117.657	-0.143	0.224
-673.135	139.632	0.217	-0.363
-672.120	152.807	0.045	-0.079
-671.105	138.776	0.090	-0.150
-670.091	-191.840	0.185	-0.002
-669.076	-69.953	0.312	-0.150
-668.062	493.099	0.112	-0.327
-667.047	-70.448	-0.183	-0.088
-666.032	85.524	-0.136	0.189
-665.018	149.933	0.027	-0.046
-664.003	134.401	0.222	-0.366
-662.989	-200.000	-0.030	0.518
-661.974	292.486	-0.187	-0.434
-660.959	223.844	-0.236	0.484
-659.945	520.443	0.246	0.734
-658.930	-44.158	0.059	0.037
-657.916	-47.225	-0.157	-0.097
-656.901	800.000	-0.075	-0.275
-655.886	-148.950	-0.066	0.007
-654.872	-154.256	0.091	0.008
-653.857	-137.923	-0.255	-0.036
-652.843	370.202	-0.140	0.360
-651.828	-114.889	0.186	-0.045
-650.814	-200.000	-0.308	-0.000
-649.799	92.046	-0.363	0.519
-648.784	-117.250	-0.090	-0.021
-647.770	-65.811	-0.329	0.166
-646.755	456.930	-0.157	0.444
-645.741	-68.837	-0.421	0.205
-644.726	-162.573	0.422	0.026
-643.711	800.000	0.023	0.118
-642.697	-103.820	0.140	-0.041
-641.682	-89.210	-0.133	0.049
-640.668	-129.680	0.347	0.060
-639.653	-200.000	0.022	0.336
-638.638	-81.476	0.212	0.088
-637.624	141.062	-0.093	-0.156
-636.609	-46.364	0.199	-0.123
-635.595	-136.026	0.372	-0.055
-634.580	-2.217	0.445	-0.395
-633.565	-90.432	0.094	-0.034
-632.551	-200.000	0.047	-0.301
-631.536	246.985	0.164	0.352
-630.522	16.223	0.373	-0.372
-629.507	-21.376	0.255	0.197
-628.492	115.747	0.151	-0.234
-627.478	-60.339	0.382	-0.205
-626.463	60.437	0.175	-0.219
-625.449	-200.000	-0.042	0.305
-624.434	85.898	0.346	0.482
-623.419	444.485	-0.213	-0.594
-622.405	-166.493	-0.303	0.016
-621.390	438.267	-0.172	-0.477
-620.376	44.311	0.276	0.321
-619.361	9.524	-0.135	0.129
-618.346	800.000	-0.045	0.167
-617.332	-51.168	-0.457	-0.270
-616.317	152.741	0.074	0.128
-615.303	-100.418	-0.081	-0.025
-614.288	-0.824	-0.136	-0.122
-613.273	45.350	-0.210	0.245
-612.259	-75.644	-0.090	-0.040
-611.244	83.521	-0.215	0.297
-610.230	-44.511	-0.106	0.067
-609.215	-114.388	0.070	0.017
-608.201	800.000	-0.122	0.524
-607.186	48.711	-0.424	0.503
-606.171	2.896	-0.035	-0.032
-605.157	73.251	0.331	0.438
-604.142	-85.776	0.258	0.101
-603.128	-75.699	-0.362	-0.162
-602.113	-24.947	-0.346	-0.259
-601.098	104.915	0.347	0.518
-600.084	402.422	0.178	0.475
-599.069	-12.928	0.398	0.327
-598.055	457.970	0.145	-0.408
-597.040	-12.172	-0.236	0.195
-596.025	-155.182	0.049	-0.004
-595.011	-161.125	-0.191	-0.012
-593.996	-23.215	0.369	0.280
-592.982	-81.692	-0.422	0.174
-591.967	-167.874	-0.507	0.025
-590.952	265.087	0.129	0.286
-589.938	-72.989	-0.632	0.292
-588.923	-86.511	0.561	0.216
-587.909	-184.456	0.405	0.008
-586.894	-52.962	-0.316	0.183
-585.879	195.381	-0.194	0.373
-584.865	800.000	-0.022	0.117
-583.850	-109.490	-0.464	-0.123
-582.836	-51.998	-0.509	-0.298
-581.821	-126.665	-0.101	0.019
-580.806	15.996	0.141	0.140
-579.792	-6.836	0.491	0.421
-578.777	-200.000	0.007	0.145
-577.763	18.324	0.027	-0.027
-576.748	10.054	0.063	0.060
-575.733	308.623	-0.077	0.182
-574.719	-32.779	0.037	-0.026
-573.704	-200.000	0.044	0.298
-572.690	-200.000	0.012	-0.356
-571.675	267.093	-0.066	-0.145
-570.661	-1.272	0.297	0.265
-569.646	-200.000	0.045	0.411
-568.631	-111.482	0.423	0.108
-567.617	117.523	-0.093	-0.144
-566.602	-193.608	-0.291	-0.003
-565.588	-131.452	0.447	-0.074
-564.573	-167.136	0.240	-0.012
-563.558	-43.555	0.097	-0.061
-562.544	9.919	-0.155	0.148
-561.529	800.000	0.062	-0.300
-560.515	-95.548	-0.074	0.025
-559.500	-114.460	-0.271	0.065
-558.485	-81.971	-0.392	-0.161
-557.471	68.316	0.319	-0.412
-556.456	-12.043	-0.137	0.113
-555.442	325.786	-0.028	-0.068
-554.427	72.247	0.233	-0.307
-553.412	800.000	0.042	-0.224
-552.398	178.585	0.129	-0.238
-551.383	-140.623	0.576	0.075
-550.369	-150.888	0.431	-0.041
-549.354	453.131	-0.011	0.030
-548.339	-154.010	-0.063	0.005
-547.325	51.374	0.122	-0.146
-546.310	-115.680	0.188	-0.044
-545.296	-1.638	0.160	-0.142
-544.281	82.754	-0.206	-0.282
-543.266	-83.776	-0.534	0.214
-542.252	800.000	-0.114	0.432
-541.237	-186.812	0.375	-0.006
-540.223	108.906	-0.039	-0.059
-539.208	-200.000	-0.016	0.202
-538.193	-8.793	-0.331	0.279
-537.179	-97.677	-0.283	-0.092
-536.164	8.692	-0.081	0.076
-535.150	240.036	0.066	0.140
-534.135	-97.225	0.657	-0.215
-533.121	-2.223	-0.161	0.142
-532.106	-89.934	0.317	-0.116
-531.091	800.000	0.018	0.073
-530.077	-26.728	-0.162	-0.119
-529.062	-162.909	-0.468	0.028
-528.048	-200.000	-0.005	-0.121
-527.033	-37.873	0.350	0.234
-526.018	43.859	0.160	-0.185
-525.004	-100.316	0.298	0.093
-523.989	-66.717	-0.231	-0.115
-522.975	-22.668	-0.089	0.068
-521.960	-73.919	0.203	-0.093
-520.945	-4.962	-0.310	-0.269
-519.931	292.579	0.107	-0.247
-518.916	-152.486	0.289	-0.026
-517.902	-200.000	-0.088	-0.556
-516.887	105.641	0.122	-0.182
-515.872	506.215	0.215	-0.632
-514.858	-148.752	-0.024	0.002
-513.843	800.000	0.049	0.254
-512.829	-61.719	-0.049	-0.026
-511.814	57.491	-0.126	0.155
-510.799	-85.029	0.198	-0.078
-509.785	-200.000	0.049	0.435
-508.770	-63.175	-0.619	0.321
-507.756	63.299	0.055	0.070
-506.741	-200.000	-0.339	-0.001
-505.726	685.059	0.024	0.079
-504.712	-130.187	-0.301	-0.051
-503.697	-200.000	-0.043	0.358
-502.683	-61.725	0.058	0.031
-501.668	800.000	0.045	-0.195
-500.653	-180.120	-0.231	0.006
-499.639	-200.000	0.079	-0.489
-498.624	-61.554	0.301	0.159
-497.610	-200.000	-0.010	-0.207
-496.595	-180.497	0.305	-0.008
-495.581	-169.896	0.410	-0.018
-494.566	-134.535	-0.328	0.050
-493.551	-161.488	-0.578	0.037
-492.537	-200.000	0.010	0.448
-491.522	-135.554	0.716	-0.106
-490.508	-76.136	0.113	-0.050
-489.493	135.533	-0.169	-0.278
-488.478	41.622	0.173	0.197
-487.464	-4.722	0.177	0.154
-486.449	-72.550	-0.519	-0.240
-485.435	92.832	-0.318	-0.453
-484.420	-139.944	-0.491	-0.065
-483.405	-90.180	0.233	-0.085
-482.391	47.488	-0.204	-0.240
-481.376	-171.421	0.141	0.006
-480.362	301.600	-0.028	0.066
-479.347	-39.075	0.273	-0.180
-478.332	170.940	0.292	0.528
-477.318	68.803	-0.090	0.117
-476.303	-74.455	-0.340	-0.154
-475.289	800.000	-0.132	0.600
-474.274	387.391	-0.160	0.418
-473.259	247.050	0.031	0.066
-472.245	-200.000	0.040	-0.257
-471.230	25.590	0.086	0.090
-470.216	-200.000	0.020	0.653
-469.201	-80.619	-0.327	0.136
-468.186	-51.220	0.343	-0.201
-467.172	155.884	0.163	0.283
-466.157	-141.172	0.407	0.052
-465.143	160.445	0.212	0.373
-464.128	-200.000	0.024	-0.362
-463.113	-200.000	-0.018	-0.428
-462.099	-172.676	0.351	0.014
-461.084	553.901	0.151	-0.459
-460.070	-200.000	-0.029	-0.263
-459.055	-200.000	0.042	0.236
-458.040	168.465	-0.093	0.167
-457.026	364.813	0.198	0.502
-456.011	-75.358	0.217	0.097
-454.997	-200.000	0.100	-0.658
-453.982	-200.000	0.073	-0.423
-452.968	190.047	-0.168	0.318
-451.953	-186.600	0.475	-0.008
-450.938	-200.000	0.030	-0.324
-449.924	-16.502	0.213	0.169
-448.909	-27.315	-0.222	0.162
-447.895	39.500	0.244	-0.275
-446.880	278.854	0.216	-0.486
-445.865	-105.769	0.302	-0.085
-444.851	189.526	0.227	-0.429
-443.836	-200.000	0.076	-0.526
-442.822	-156.409	0.176	-0.014
-441.807	-52.209	0.455	0.264
-440.792	0.219	0.335	0.300
-439.778	-70.345	0.832	0.395
-438.763	-168.706	0.273	-0.013
-437.749	73.923	-0.047	-0.061
-436.734	-12.552	0.199	0.163
-435.719	303.098	0.109	-0.255
-434.705	262.265	-0.078	-0.171
-433.690	-32.057	0.318	0.223
-432.676	-124.973	-0.597	-0.114
-431.661	-71.019	-0.407	-0.191
-430.646	-88.836	0.219	0.081
-429.632	568.943	0.165	-0.507
-428.617	133.013	-0.438	-0.713
-427.603	-35.573	-0.190	0.129
-426.588	272.434	0.168	0.373
-425.573	-178.204	-0.411	-0.012
-424.559	-153.010	0.074	0.006
-423.544	-41.759	0.231	-0.149
-422.530	46.235	0.252	0.293
-421.515	-101.490	0.133	-0.040
-420.500	800.000	0.084	-0.422
-419.486	6.080	-0.230	0.214
-418.471	-153.981	0.149	0.013
-417.457	-3.010	-0.196	-0.172
-416.442	-65.661	-0.342	-0.172
-415.428	-128.421	0.480	-0.085
-414.413	-200.000	-0.016	0.282
-413.398	-200.000	0.011	0.106
-412.384	69.530	0.108	-0.140
-411.369	-22.893	0.148	0.112
-410.355	-174.410	0.040	-0.001
-409.340	-68.505	-0.465	0.225
-408.325	-51.805	-0.346	-0.201
-407.311	-23.877	-0.244	-0.183
-406.296	-140.640	0.133	-0.017
-405.282	91.567	-0.115	0.163
-404.267	198.718	-0.181	-0.348
-403.252	-136.583	-0.424	-0.061
-402.238	17.242	0.220	0.219
-401.223	-82.056	0.190	-0.077
-400.209	-29.733	0.114	0.082
-399.194	58.314	-0.142	0.174
-398.179	499.829	0.095	0.276
-397.165	-25.697	-0.277	0.204
-396.150	16.592	0.299	-0.297
-395.136	800.000	-0.047	-0.242
-394.121	-115.046	0.306	0.072
-393.106	-126.905	0.163	-0.030
-392.092	-20.131	-0.180	-0.139
-391.077	-200.000	-0.123	0.000
-390.063	-200.000	0.016	0.429
-389.048	-200.000	0.009	-0.252
-388.033	-150.347	-0.086	-0.008
-387.019	-97.094	-0.171	-0.056
-386.004	176.883	-0.181	-0.330
-384.990	800.000	0.041	-0.199
-383.975	772.751	0.103	0.355
-382.960	91.524	-0.008	-0.011
-381.946	541.901	0.159	-0.477
-380.931	248.897	-0.279	-0.594
-379.917	-11.559	0.226	-0.186
-378.902	-59.543	0.158	0.085
-377.888	-181.846	-0.199	0.005
-376.873	-156.756	0.565	0.043
-375.858	800.000	0.090	0.374
-374.844	695.553	0.038	0.126
-373.829	-123.988	-0.306	-0.060
-372.815	-200.000	-0.008	-0.090
-371.800	-58.435	-0.294	0.159
-370.785	-26.381	0.107	-0.078
-369.771	-1.406	-0.326	0.288
-368.756	44.481	-0.113	0.130
-367.742	-39.005	0.062	-0.041
-366.727	-156.116	0.336	-0.026
-365.712	-76.617	0.426	0.186
-364.698	62.217	-0.381	-0.476
-363.683	70.722	0.094	0.122
-362.669	-108.931	-0.350	0.093
-361.654	22.224	-0.249	0.255
-360.639	113.785	0.350	0.534
-359.625	-138.044	0.405	0.056
-358.610	241.064	0.016	-0.033
-357.596	-133.187	0.308	0.048
-356.581	306.665	0.086	-0.201
-355.566	-44.979	-0.246	-0.153
-354.552	-73.206	-0.519	-0.237
-353.537	13.456	0.365	0.355
-352.523	-61.155	-0.391	0.205
-351.508	-32.439	-0.175	-0.122
-350.493	-200.000	-0.061	-0.535
-349.479	135.345	-0.195	-0.318
-348.464	800.000	0.101	0.528
-347.450	22.533	0.087	-0.089
-346.435	650.310	0.237	-0.764
-345.420	-160.226	-0.029	-0.002
-344.406	204.642	-0.101	0.198
-343.391	-181.211	-0.079	-0.002
-342.377	2.033	-0.418	-0.378
-341.362	-70.213	-0.171	-0.081
-340.348	159.913	-0.311	0.543
-339.333	800.000	0.068	0.260
-338.318	-200.000	0.641	-0.001
-337.304	43.850	0.267	0.306
-336.289	-84.999	0.147	-0.057
-335.275	800.000	0.100	0.463
-334.260	-156.093	-0.181	0.014
-333.245	-90.684	0.275	0.099
-332.231	75.903	0.290	0.384
-331.216	98.734	-0.141	0.203
-330.202	-125.576	-0.256	-0.048
-329.187	-4.980	-0.177	-0.152
-328.172	-107.452	-0.206	-0.056
-327.158	-67.714	0.474	0.231
-326.143	-200.000	-0.017	-0.237
-325.129	376.300	-0.097	0.248
-324.114	-12.835	-0.319	-0.260
-323.099	15.109	-0.164	-0.161
-322.085	-107.673	0.185	-0.050
-321.070	449.982	-0.098	0.273
-320.056	-200.000	0.010	-0.599
-319.041	51.437	0.201	-0.238
-318.026	-200.000	-0.306	-0.001
-317.012	298.466	-0.084	0.194
-315.997	800.000	-0.078	-0.274
-314.983	63.914	-0.296	-0.372
-313.968	510.899	-0.154	-0.450
-312.953	-19.510	0.119	0.092
-311.939	94.578	0.448	-0.638
-310.924	472.565	0.074	-0.209
-309.910	-200.000	-0.005	0.414
-308.895	20.106	-0.267	0.269
-307.880	-74.226	-0.337	-0.152
-306.866	77.246	0.296	-0.394
-305.851	212.426	-0.324	-0.641
-304.837	221.298	-0.171	-0.344
-303.822	560.717	-0.197	0.598
-302.807	-200.000	0.048	0.345
-301.793	345.099	-0.113	0.279
-300.778	800.000	0.117	0.436
-299.764	221.872	0.118	-0.238
-298.749	-143.706	0.222	-0.026
-297.735	-141.143	0.613	-0.077
-296.720	15.233	-0.328	-0.321
-295.705	239.311	0.157	0.327
-294.691	60.768	0.139	-0.172
-293.676	-184.372	0.268	0.005
-292.662	-200.000	-0.048	0.436
-291.647	-99.169	0.210	0.066
-290.632	63.362	-0.091	-0.114
-289.618	51.360	-0.273	-0.324
-288.603	290.531	0.057	0.130
-287.589	-167.097	-0.413	-0.021
-286.574	-55.300	-0.558	-0.312
-285.559	-11.199	-0.549	0.451
-284.545	-149.456	-0.309	0.030
-283.530	-110.668	0.461	0.118
-282.516	800.000	0.045	0.204
-281.501	-138.811	0.289	-0.039
-280.486	-40.144	-0.205	0.133
-279.472	-100.090	-0.088	-0.027
-278.457	-120.982	-0.294	0.061
-277.443	63.189	0.230	0.288
-276.428	-144.386	-0.561	-0.064
-275.413	91.985	-0.061	-0.086
-274.399	126.163	0.103	0.162
-273.384	-87.854	-0.087	-0.033
-272.370	-124.794	-0.172	-0.033
-271.355	-108.701	-0.353	-0.094
-270.340	-131.606	-0.416	-0.068
-269.326	158.900	-0.024	-0.042
-268.311	-200.000	-0.001	-0.385
-267.297	548.873	-0.089	-0.266
-266.282	294.363	0.140	-0.320
-265.267	-1.167	0.252	-0.222
-264.253	-61.039	-0.645	-0.338
-263.238	-186.078	0.135	0.002
-262.224	560.113	-0.077	0.235
-261.209	-200.000	0.034	-0.241
-260.195	-200.000	-0.031	-0.485
-259.180	-16.006	0.267	-0.212
-258.165	-88.141	0.250	-0.093
-257.151	-98.237	-0.180	0.057
-256.136	-21.097	-0.350	0.267
-255.122	-142.248	-0.328	-0.040
-254.107	-19.801	0.025	-0.019
-253.092	-19.303	0.319	0.246
-252.078	-28.674	0.392	-0.281
-251.063	-59.642	-0.522	-0.278
-250.049	511.321	-0.152	-0.443
-249.034	-92.437	0.210	-0.073
-248.019	-49.258	-0.200	0.119
-247.005	8.500	-0.353	0.331
-245.990	29.804	-0.282	0.300
-244.976	178.394	-0.247	0.451
-243.961	-75.709	0.404	-0.178
-242.946	-142.205	-0.056	0.007
-241.932	392.202	-0.071	0.186
-240.917	19.393	0.319	0.319
-239.903	-38.471	0.291	0.192
-238.888	-124.744	0.441	-0.084
-237.873	446.384	0.218	-0.601
-236.859	-38.320	0.087	-0.057
-235.844	-119.064	0.185	0.040
-234.830	33.195	0.186	-0.201
-233.815	-200.000	0.009	-0.408
-232.800	800.000	0.061	0.256
-231.786	55.909	0.119	-0.144
-230.771	-139.921	0.470	0.061
-229.757	-103.169	-0.306	0.089
-228.742	-67.568	-0.494	-0.240
-227.727	19.897	-0.457	-0.458
-226.713	350.818	0.079	0.196
-225.698	-153.499	0.396	-0.034
-224.684	-177.596	-0.052	-0.002
-223.669	32.363	-0.555	-0.597
-222.655	164.128	0.104	0.182
-221.640	800.000	0.146	0.621
-220.625	-59.815	-0.323	-0.172
-219.611	-47.555	0.307	-0.185
-218.596	800.000	-0.037	-0.139
-217.582	-121.963	-0.505	0.103
-216.567	-145.689	-0.504	0.055
-215.552	-16.378	0.174	0.138
-214.538	-167.937	0.174	0.008
-213.523	81.107	0.231	0.311
-212.509	-14.575	-0.027	-0.021
-211.494	800.000	0.016	-0.057
-210.479	119.400	-0.132	0.205
-209.465	-200.000	0.037	-0.431
-208.450	-44.069	-0.237	0.148
-207.436	580.476	0.073	-0.224
-206.421	95.007	0.029	-0.041
-205.406	-200.000	0.008	-0.197
-204.392	-78.800	-0.298	0.126
-203.377	338.604	-0.086	-0.210
-202.363	-30.532	0.122	-0.086
-201.348	-200.000	0.010	0.299
-200.333	108.794	0.206	0.307
-199.319	-12.688	0.292	0.237
-198.304	94.752	-0.184	0.260
-197.290	456.162	0.074	0.204
-196.275	378.560	0.126	-0.322
-195.260	-130.131	0.099	0.017
-194.246	-114.990	-0.583	0.137
-193.231	-172.249	-0.305	-0.012
-192.217	-124.411	-0.341	-0.066
-191.202	108.429	-0.228	-0.340
-190.187	-120.598	-0.168	0.035
-189.173	-72.182	-0.123	0.056
-188.158	-104.446	-0.238	0.068
-187.144	-200.000	0.060	0.347
-186.129	800.000	-0.049	-0.253
-185.114	-62.640	0.406	0.209
-184.100	180.131	0.390	-0.713
-183.085	-94.223	0.129	-0.044
-182.071	783.234	-0.152	0.519
-181.056	-1.629	-0.354	0.310
-180.042	408.123	0.138	-0.364
-179.027	14.794	0.161	-0.157
-178.012	800.000	0.081	0.339
-176.998	-19.568	-0.294	0.226
-175.983	16.366	-0.433	0.424
-174.969	-101.658	0.153	0.046
-173.954	-31.737	-0.394	-0.274
-172.939	149.857	-0.245	0.413
-171.925	-69.343	0.379	-0.180
-170.910	-182.505	0.172	0.004
-169.896	38.574	-0.278	-0.309
-168.881	-200.000	0.039	-0.274
-167.866	34.663	-0.138	0.150
-166.852	800.000	0.051	0.236
-165.837	-200.000	-0.033	0.401
-164.823	274.123	0.126	-0.278
-163.808	38.895	-0.155	-0.173
-162.793	2.328	0.344	-0.309
-161.779	49.476	-0.180	-0.211
-160.764	650.241	-0.020	0.064
-159.750	-29.773	0.279	0.198
-158.735	-200.000	0.026	0.397
-157.720	-200.000	-0.040	0.397
-156.706	554.173	-0.084	-0.253
-155.691	-96.598	0.107	0.035
-154.677	595.811	0.254	-0.786
-153.662	-42.659	0.184	0.116
-152.647	-162.733	-0.254	0.015
-151.633	230.783	0.187	0.381
-150.618	-200.000	0.003	-0.425
-149.604	272.993	-0.161	-0.355
-148.589	-200.000	-0.024	0.217
-147.574	82.530	-0.396	0.534
-146.560	-195.896	0.141	0.001
-145.545	22.078	-0.302	-0.306
-144.531	-120.985	-0.070	0.015
-143.516	18.899	-0.136	0.135
-142.502	-200.000	0.008	0.447
-141.487	-200.000	0.032	0.302
-140.472	594.783	-0.153	0.471
-139.458	800.000	0.072	0.374
-138.443	31.805	-0.206	0.220
-137.429	-88.163	-0.379	-0.140
-136.414	-63.680	0.462	-0.234
-135.399	-45.656	-0.129	-0.079
-134.385	-183.380	-0.292	-0.006
-133.370	-158.944	0.122	-0.008
-132.356	772.131	-0.130	0.443
-131.341	732.178	-0.131	-0.439
-130.326	-97.796	-0.405	-0.129
-129.312	10.934	-0.326	-0.309
-128.297	39.059	-0.155	0.172
-127.283	-82.899	-0.385	-0.154
-126.268	-78.798	-0.401	0.169
-125.253	330.552	-0.033	-0.078
-124.239	-105.622	-0.175	-0.049
-123.224	800.000	0.054	0.240
-122.210	-82.068	0.077	-0.031
