DTS Sentinel unit serial number:	SN409020Multiplexer serial number:	ORYXHardware model number:	OX4-SRSoftware version number:	ORYX F/W v3.00 Oryx Data Collector v3.7.2.0data status	okinstallation	HaddamTimeLapsedifferential loss correction	single-endedforward channel	channel 3reverse channel	N/Adate	2011/06/21time	21:06:17forward acquisition time	30.00reverse acquisition time	0.00gamma	498.7831k internal	0.1766k external	0.1766temperature offset calibration	1.0074default loss term (dB/km)	0.3790temperature slope calibration	1.3530multiplexer offset coefficient	1.0000multiplexer slope coefficient	1.0000fibre end	0.00T internal ref (°C)	27.53T ext. ref 1 (°C)	20.42T ext. ref 2 (°C)	0.03length (m)	temperature (°C)	Stokes	anti-Stokes-747.200	81.610	-0.206	-0.294
-746.185	-158.053	0.476	0.036
-745.171	-90.337	0.142	-0.054
-744.156	-120.109	0.229	0.051
-743.142	-200.000	0.276	-0.000
-742.127	-200.000	0.019	0.143
-741.112	161.990	-0.289	-0.534
-740.098	62.339	-0.194	0.255
-739.083	81.195	-0.085	0.121
-738.069	578.405	-0.136	0.442
-737.054	49.482	0.183	-0.227
-736.039	235.334	0.124	0.272
-735.025	195.984	-0.152	0.306
-734.010	-60.263	-0.116	-0.065
-732.996	-13.299	-0.253	-0.216
-731.981	246.366	-0.120	-0.268
-730.966	362.466	0.105	-0.279
-729.952	45.004	-0.366	0.444
-728.937	81.647	0.113	0.162
-727.923	305.070	0.069	-0.171
-726.908	-174.488	0.315	-0.012
-725.894	45.080	0.385	0.467
-724.879	-47.818	0.428	0.272
-723.864	203.891	0.093	-0.189
-722.850	-200.000	0.001	-0.362
-721.835	-165.373	0.227	-0.013
-720.821	127.658	-0.054	0.090
-719.806	-200.000	-0.053	-0.364
-718.791	47.492	0.237	-0.291
-717.777	178.755	-0.130	-0.251
-716.762	-66.900	-0.541	-0.280
-715.748	93.974	-0.245	0.367
-714.733	356.336	0.145	0.381
-713.718	-32.714	-0.156	-0.114
-712.704	-3.420	0.323	0.295
-711.689	800.000	-0.051	-0.243
-710.675	8.167	0.413	-0.407
-709.660	-136.865	0.121	-0.018
-708.645	140.463	0.254	-0.443
-707.631	240.724	-0.014	-0.031
-706.616	-32.854	-0.453	0.331
-705.602	800.000	-0.112	-0.431
-704.587	-115.550	0.067	0.016
-703.572	-133.296	-0.500	0.082
-702.558	-119.221	0.329	-0.075
-701.543	25.633	0.283	-0.310
-700.529	-48.796	-0.211	0.132
-699.514	-69.625	-0.319	0.160
-698.499	-144.043	0.549	-0.067
-697.485	800.000	-0.030	0.156
-696.470	-200.000	-0.032	-0.362
-695.456	-107.402	-0.344	0.099
-694.441	-200.000	-0.037	-0.577
-693.426	14.214	-0.054	-0.055
-692.412	-200.000	0.014	-0.209
-691.397	-66.303	0.140	-0.073
-690.383	-32.810	0.047	-0.035
-689.368	55.422	-0.195	0.248
-688.354	-200.000	-0.030	-0.387
-687.339	-133.619	-0.240	-0.039
-686.324	152.558	0.209	-0.376
-685.310	-92.817	-0.195	0.071
-684.295	-171.235	-0.091	0.004
-683.281	36.271	0.207	0.240
-682.266	118.140	0.211	-0.343
-681.251	-200.000	0.000	-0.205
-680.237	75.404	0.188	-0.262
-679.222	-46.805	0.376	-0.241
-678.208	39.303	0.425	0.500
-677.193	-153.824	0.257	0.023
-676.178	800.000	0.086	0.318
-675.164	-64.546	0.396	0.210
-674.149	-99.909	0.088	0.029
-673.135	-15.763	0.267	0.223
-672.120	-45.519	0.359	0.233
-671.105	-73.098	0.138	0.066
-670.091	-18.104	0.223	-0.183
-669.076	70.196	-0.094	0.128
-668.062	-50.173	-0.149	0.092
-667.047	-129.634	0.095	-0.017
-666.032	-200.000	-0.011	-0.316
-665.018	-70.674	-0.290	0.143
-664.003	-73.664	-0.471	-0.224
-662.989	800.000	-0.074	-0.341
-661.974	181.037	0.202	-0.391
-660.959	-200.000	0.027	-0.167
-659.945	125.409	0.070	-0.116
-658.930	-22.323	0.202	-0.160
-657.916	800.000	-0.084	0.325
-656.901	-166.832	0.344	-0.018
-655.886	68.270	0.096	-0.129
-654.872	-42.819	-0.126	-0.084
-653.857	-26.354	-0.113	0.086
-652.843	-200.000	0.030	0.189
-651.828	-163.381	0.593	0.037
-650.814	-200.000	-0.013	0.371
-649.799	320.721	-0.146	-0.365
-648.784	800.000	-0.045	0.206
-647.770	38.883	-0.179	0.210
-646.755	-125.192	-0.509	-0.101
-645.741	33.977	0.186	0.212
-644.726	800.000	-0.100	0.457
-643.711	740.189	-0.138	0.490
-642.697	-80.994	0.436	-0.188
-641.682	-112.360	0.308	-0.080
-640.668	132.576	0.105	-0.178
-639.653	-162.787	-0.321	0.020
-638.638	-200.000	-0.014	0.230
-637.624	-113.047	0.136	-0.035
-636.609	-148.452	-0.231	0.025
-635.595	41.636	-0.113	0.134
-634.580	193.154	-0.058	0.116
-633.565	769.033	0.017	-0.060
-632.551	266.222	0.273	-0.627
-631.536	-200.000	0.028	-0.364
-630.522	106.206	0.210	-0.327
-629.507	-71.011	-0.099	-0.049
-628.492	-120.947	0.457	-0.100
-627.478	-61.735	0.468	0.256
-626.463	95.842	0.049	0.074
-625.449	39.729	-0.181	0.213
-624.434	-110.530	-0.271	0.073
-623.419	52.012	-0.301	-0.376
-622.405	78.278	-0.207	0.290
-621.390	549.118	0.138	0.435
-620.376	130.810	-0.200	-0.337
-619.361	-200.000	0.026	-0.200
-618.346	-162.234	-0.334	0.022
-617.332	-164.028	0.259	0.015
-616.317	-8.150	-0.240	-0.212
-615.303	-152.632	0.437	-0.040
-614.288	800.000	0.095	-0.479
-613.273	298.356	0.112	-0.272
-612.259	-200.000	-0.007	0.251
-611.244	-65.746	-0.111	-0.058
-610.230	-119.904	-0.328	-0.073
-609.215	-135.614	-0.578	0.089
-608.201	225.220	0.159	0.337
-607.186	419.578	-0.188	0.529
-606.171	-105.630	0.331	0.098
-605.157	-200.000	0.076	0.638
-604.142	-42.936	-0.296	0.196
-603.128	14.634	0.187	0.192
-602.113	-70.919	-0.199	0.098
-601.098	168.980	0.197	0.370
-600.084	800.000	0.065	0.327
-599.069	-91.028	-0.172	0.064
-598.055	-94.927	0.178	-0.063
-597.040	-200.000	0.005	0.180
-596.025	-105.312	0.190	-0.056
-595.011	206.934	0.146	-0.298
-593.996	-60.283	-0.578	-0.321
-592.982	800.000	-0.006	-0.034
-591.967	-200.000	0.004	0.037
-590.952	-200.000	-0.059	0.400
-589.938	-26.193	-0.157	-0.120
-588.923	-96.533	0.236	0.081
-587.909	-114.865	-0.369	0.091
-586.894	-155.659	0.300	-0.025
-585.879	-123.978	0.475	-0.097
-584.865	-94.412	-0.243	-0.086
-583.850	366.252	0.016	-0.042
-582.836	800.000	-0.109	-0.410
-581.821	-200.000	-0.050	0.386
-580.806	-12.727	-0.506	0.431
-579.792	137.043	0.157	0.268
-578.777	-127.871	-0.150	0.028
-577.763	-25.475	-0.108	-0.084
-576.748	201.016	-0.122	-0.246
-575.733	75.278	0.191	-0.263
-574.719	-25.507	-0.282	0.218
-573.704	-33.982	-0.315	-0.226
-572.690	-49.099	-0.220	-0.137
-571.675	-42.564	-0.230	-0.153
-570.661	-42.686	0.485	-0.322
-569.646	-163.110	-0.471	0.029
-568.631	211.078	0.227	-0.469
-567.617	-60.738	0.206	-0.114
-566.602	-138.839	-0.948	0.134
-565.588	259.686	0.088	-0.200
-564.573	132.801	-0.056	0.095
-563.558	100.188	0.255	-0.388
-562.544	2.123	-0.074	0.070
-561.529	-200.000	-0.014	-0.240
-560.515	-121.738	-0.326	-0.070
-559.500	-71.096	0.505	-0.247
-558.485	8.129	0.567	-0.557
-557.471	-113.225	0.140	0.036
-556.456	-127.146	-0.147	-0.028
-555.442	-152.838	-0.716	0.066
-554.427	-200.000	0.059	-0.633
-553.412	800.000	0.105	-0.416
-552.398	-200.000	-0.014	0.080
-551.383	-82.277	-0.327	0.138
-550.369	-128.834	-0.388	-0.071
-549.354	-54.668	-0.222	-0.131
-548.339	-38.293	-0.278	0.192
-547.325	99.845	0.081	-0.124
-546.310	765.684	-0.002	-0.008
-545.296	-83.282	-0.448	0.187
-544.281	-14.188	-0.089	0.075
-543.266	-43.009	-0.327	0.216
-542.252	-122.317	-0.241	0.051
-541.237	16.504	-0.277	-0.285
-540.223	164.960	0.152	-0.281
-539.208	-99.496	0.068	0.022
-538.193	-150.507	0.103	0.010
-537.179	15.044	0.217	0.222
-536.164	-91.151	0.374	-0.139
-535.150	-68.801	-0.761	-0.382
-534.135	-140.103	0.330	0.045
-533.121	-44.405	0.061	0.039
-532.106	307.199	-0.243	-0.595
-531.091	-200.000	0.009	-0.175
-530.077	-139.379	-0.155	0.021
-529.062	551.480	-0.030	0.094
-528.048	75.859	-0.296	-0.409
-527.033	-142.754	0.376	0.047
-526.018	9.448	-0.100	-0.098
-525.004	-118.272	0.230	-0.053
-523.989	292.763	-0.107	0.256
-522.975	-200.000	0.218	-0.001
-521.960	96.580	0.078	0.116
-520.945	-200.000	-0.035	-0.258
-519.931	-26.154	0.235	0.180
-518.916	-25.653	0.429	0.330
-517.902	-125.989	0.314	0.061
-516.887	25.356	0.042	-0.045
-515.872	-60.740	-0.238	0.131
-514.858	-139.522	-0.024	-0.003
-513.843	244.449	-0.169	0.372
-512.829	800.000	0.015	0.071
-511.814	109.540	0.185	-0.290
-510.799	-129.541	-0.322	-0.058
-509.785	-98.984	-0.306	0.101
-508.770	74.029	0.217	-0.297
-507.756	-88.551	0.406	-0.157
-506.741	39.327	0.256	-0.299
-505.726	58.801	-0.035	0.045
-504.712	-69.260	-0.454	-0.227
-503.697	-200.000	-0.076	-0.439
-502.683	-128.343	-0.210	-0.039
-501.668	-200.000	0.018	-0.178
-500.653	-98.273	0.127	0.042
-499.639	800.000	-0.037	-0.175
-498.624	-46.892	0.213	0.135
-497.610	280.813	0.018	0.042
-496.595	-158.126	0.342	0.026
-495.581	-200.000	0.012	-0.270
-494.566	-4.341	0.099	-0.089
-493.551	-144.090	0.175	0.021
-492.537	-146.451	0.629	0.071
-491.522	-187.140	0.105	0.002
-490.508	-111.690	-0.449	0.118
-489.493	278.370	-0.082	0.191
-488.478	-52.133	-0.206	-0.125
-487.464	-200.000	0.083	-0.520
-486.449	69.706	-0.138	-0.186
-485.435	-121.850	-0.431	0.092
-484.420	-100.454	-0.250	0.080
-483.405	1.869	0.371	-0.348
-482.391	76.707	-0.188	-0.260
-481.376	-70.850	0.260	-0.127
-480.362	403.084	-0.127	-0.349
-479.347	-130.685	-0.476	-0.083
-478.332	800.000	0.082	0.307
-477.318	800.000	-0.085	0.322
-476.303	268.981	0.138	-0.316
-475.289	-200.000	0.009	-0.300
-474.274	-26.725	0.116	-0.088
-473.259	-125.981	-0.380	0.074
-472.245	107.833	0.057	-0.089
-471.230	-197.884	-0.607	0.005
-470.216	84.223	0.265	0.378
-469.201	-113.353	0.237	-0.060
-468.186	-145.462	0.122	0.014
-467.172	261.019	-0.050	-0.114
-466.157	108.898	0.190	-0.296
-465.143	106.439	-0.024	0.037
-464.128	-64.423	-0.608	-0.321
-463.113	134.181	-0.084	0.141
-462.099	391.334	0.065	0.176
-461.084	-16.856	0.210	-0.173
-460.070	177.883	0.216	0.411
-459.055	-200.000	0.424	-0.000
-458.040	773.646	-0.009	-0.031
-457.026	-131.759	-0.208	-0.035
-456.011	104.596	0.215	-0.331
-454.997	-200.000	0.026	-0.210
-453.982	-60.527	-0.182	0.100
-452.968	-0.868	-0.158	-0.145
-451.953	106.093	-0.260	0.402
-450.938	-200.000	-0.030	0.333
-449.924	-52.847	0.166	0.099
-448.909	105.294	-0.112	0.173
-447.895	-100.494	-0.462	0.148
-446.880	-157.452	-0.243	-0.019
-445.865	387.833	0.200	0.540
-444.851	-173.706	0.224	-0.009
-443.836	800.000	-0.109	-0.537
-442.822	-200.000	-0.114	-0.751
-441.807	-200.000	0.018	0.140
-440.792	-21.248	-0.096	-0.076
-439.778	49.053	-0.065	-0.079
-438.763	-99.925	0.421	0.136
-437.749	-22.739	-0.300	0.235
-436.734	247.197	-0.179	0.394
-435.719	131.869	0.188	-0.315
-434.705	-58.313	-0.729	-0.411
-433.690	129.285	0.238	-0.396
-432.676	800.000	-0.046	-0.178
-431.661	-194.965	-0.047	0.000
-430.646	-200.000	-0.025	0.289
-429.632	-200.000	0.025	-0.362
-428.617	297.798	0.193	-0.462
-427.603	13.313	0.116	-0.116
-426.588	-55.060	0.402	0.235
-425.573	170.465	-0.251	-0.468
-424.559	-23.108	-0.432	0.338
-423.544	-35.354	0.344	0.242
-422.530	-200.000	0.014	0.167
-421.515	366.848	-0.045	0.119
-420.500	36.512	-0.317	-0.364
-419.486	-77.034	0.569	0.257
-418.471	-16.301	0.127	0.105
-417.457	-200.000	-0.015	-0.157
-416.442	-102.817	0.381	-0.117
-415.428	-162.980	-0.259	0.016
-414.413	521.489	-0.126	-0.385
-413.398	-110.789	-0.243	-0.065
-412.384	-139.489	-0.310	-0.043
-411.369	18.113	0.140	0.145
-410.355	-55.665	0.416	-0.241
-409.340	-134.624	0.409	0.064
-408.325	293.788	0.152	-0.362
-407.311	-200.000	-0.018	-0.487
-406.296	74.115	0.181	-0.248
-405.282	800.000	-0.057	-0.246
-404.267	56.894	-0.130	-0.165
-403.252	330.388	0.183	-0.461
-402.238	-200.000	0.032	0.343
-401.223	-200.000	0.019	-0.308
-400.209	-1.683	0.158	0.144
-399.194	-14.965	0.155	0.129
-398.179	-4.198	0.459	0.413
-397.165	-200.000	0.021	0.202
-396.150	-200.000	0.002	0.057
-395.136	800.000	-0.090	0.443
-394.121	277.008	-0.017	0.041
-393.106	24.188	-0.133	-0.143
-392.092	-152.365	0.186	0.017
-391.077	-199.471	-0.630	-0.004
-390.063	-167.147	0.248	0.013
-389.048	13.514	0.249	-0.251
-388.033	-84.625	-0.244	0.100
-387.019	-173.273	0.168	0.007
-386.004	-102.170	0.377	-0.117
-384.990	-76.488	0.538	-0.245
-383.975	-40.668	0.266	-0.179
-382.960	-94.260	0.584	0.206
-381.946	-41.540	0.154	0.102
-380.931	-138.681	0.310	0.044
-379.917	-19.387	-0.229	-0.184
-378.902	-70.717	0.143	-0.070
-377.888	-4.191	0.092	-0.083
-376.873	-28.041	-0.109	-0.082
-375.858	640.253	0.051	-0.168
-374.844	-87.687	-0.214	-0.083
-373.829	73.363	-0.275	-0.374
-372.815	69.715	0.144	0.193
-371.800	-200.000	0.008	0.347
-370.785	373.311	-0.088	-0.232
-369.771	-96.318	-0.168	-0.057
-368.756	-106.523	-0.478	0.137
-367.742	-25.326	0.418	0.321
-366.727	-84.878	0.588	-0.238
-365.712	-33.263	-0.329	0.236
-364.698	240.184	0.167	0.362
-363.683	523.200	-0.185	0.567
-362.669	-88.789	-0.122	0.047
-361.654	35.462	-0.292	-0.333
-360.639	60.873	-0.068	-0.087
-359.625	-65.708	-0.381	-0.197
-358.610	-200.000	-0.002	0.041
-357.596	800.000	-0.067	-0.274
-356.581	-162.781	0.164	-0.010
-355.566	-162.474	-0.102	0.006
-354.552	-12.319	-0.260	-0.220
-353.537	-128.031	-0.294	0.054
-352.523	97.961	0.104	0.155
-351.508	-39.972	-0.563	0.380
-350.493	-138.049	-0.219	-0.031
-349.479	-200.000	-0.004	-0.407
-348.464	800.000	-0.096	0.402
-347.450	800.000	0.051	-0.218
-346.435	-15.518	0.176	0.145
-345.420	216.905	0.169	-0.351
-344.406	-100.134	0.249	-0.080
-343.391	595.911	-0.030	-0.097
-342.377	12.864	0.192	0.193
-341.362	-76.955	0.217	0.098
-340.348	-66.722	0.267	0.136
-339.333	47.480	-0.280	0.339
-338.318	-103.089	-0.091	0.028
-337.304	-48.176	0.248	-0.154
-336.289	197.839	-0.293	-0.583
-335.275	-171.145	0.137	-0.006
-334.260	212.848	-0.089	-0.183
-333.245	-51.165	0.334	0.202
-332.231	-200.000	0.044	0.374
-331.216	800.000	-0.020	-0.075
-330.202	-200.000	0.015	0.184
-329.187	471.529	0.109	0.320
-328.172	-114.342	-0.467	0.116
-327.158	55.748	-0.364	0.457
-326.143	-200.000	-0.060	0.449
-325.129	-30.397	-0.061	0.044
-324.114	66.178	0.257	-0.339
-323.099	-83.941	-0.453	-0.186
-322.085	79.049	0.210	0.292
-321.070	-200.000	-0.011	0.286
-320.056	-200.000	-0.013	0.495
-319.041	-110.265	0.027	-0.007
-318.026	-79.106	-0.367	0.161
-317.012	185.431	-0.136	-0.262
-315.997	248.500	-0.116	0.255
-314.983	-79.420	-0.334	0.145
-313.968	-9.280	0.153	0.132
-312.953	53.347	-0.139	-0.172
-311.939	11.724	-0.161	-0.160
-310.924	220.916	0.141	-0.294
-309.910	-180.709	0.338	-0.009
-308.895	-124.880	0.252	-0.050
-307.880	-98.862	0.239	-0.078
-306.866	-121.395	-0.362	0.077
-305.851	131.032	-0.196	-0.326
-304.837	-119.774	0.469	-0.104
-303.822	-84.162	0.305	0.124
-302.807	-113.275	0.379	-0.096
-301.793	-110.367	-0.434	0.116
-300.778	13.953	-0.696	0.701
-299.764	-71.385	0.212	0.102
-298.749	507.789	-0.030	0.092
-297.735	43.225	-0.120	0.141
-296.720	129.216	-0.170	0.282
-295.705	-93.827	-0.254	-0.090
-294.691	-79.998	0.362	-0.156
-293.676	-127.403	-0.359	-0.067
-292.662	82.319	0.188	0.264
-291.647	336.680	0.073	0.185
-290.632	554.099	0.059	-0.184
-289.618	-65.866	0.084	-0.043
-288.603	800.000	0.075	-0.359
-287.589	-112.426	0.668	-0.171
-286.574	51.743	-0.063	0.078
-285.559	-131.581	-0.623	-0.105
-284.545	800.000	-0.030	0.153
-283.530	-200.000	-0.021	0.388
-282.516	-200.000	-0.034	-0.344
-281.501	-161.723	-0.163	-0.011
-280.486	-200.000	0.030	-0.251
-279.472	-117.372	-0.156	0.036
-278.457	-200.000	0.024	-0.168
-277.443	505.958	-0.100	-0.302
-276.428	-139.087	0.544	0.075
-275.413	89.028	0.168	-0.242
-274.399	110.332	0.210	-0.327
-273.384	81.237	-0.127	0.178
-272.370	-17.107	-0.354	0.288
-271.355	113.727	-0.218	0.343
-270.340	86.048	0.191	0.272
-269.326	-166.456	0.268	0.014
-268.311	-102.737	0.162	0.050
-267.297	800.000	-0.054	0.220
-266.282	41.432	-0.067	0.078
-265.267	7.297	0.124	-0.119
-264.253	-200.000	-0.024	0.165
-263.238	29.525	-0.085	0.094
-262.224	-119.403	0.627	0.140
-261.209	-200.000	0.149	-0.000
-260.195	61.449	-0.089	0.115
-259.180	800.000	0.101	0.365
-258.165	-0.191	0.111	-0.102
-257.151	-0.489	0.191	-0.175
-256.136	-67.586	0.437	0.221
-255.122	163.810	0.359	0.655
-254.107	-200.000	0.024	-0.210
-253.092	-9.773	0.176	0.151
-252.078	-129.921	0.300	-0.053
-251.063	143.072	-0.065	0.112
-250.049	-132.890	0.311	-0.051
-249.034	163.644	-0.074	0.135
-248.019	145.723	-0.052	-0.090
-247.005	-4.895	0.222	-0.198
-245.990	421.282	-0.072	0.202
-244.976	800.000	0.044	-0.179
-243.961	128.356	-0.013	0.021
-242.946	-132.814	0.092	-0.015
-241.932	141.651	0.137	-0.235
-240.917	800.000	-0.058	-0.319
-239.903	-200.000	-0.016	0.348
-238.888	-162.117	-0.140	-0.009
-237.873	73.218	0.144	-0.195
-236.859	-174.691	0.342	0.012
-235.844	49.113	0.259	-0.314
-234.830	-200.000	-0.078	-0.629
-233.815	216.435	-0.131	0.270
-232.800	-200.000	0.088	0.544
-231.786	-200.000	-0.001	-0.330
-230.771	-101.003	0.399	0.126
-229.757	-143.325	-0.346	-0.042
-228.742	148.170	-0.158	0.275
-227.727	-22.573	-0.185	-0.144
-226.713	275.391	-0.026	-0.060
-225.698	-200.000	0.046	0.339
-224.684	481.369	-0.061	0.179
-223.669	-17.798	0.295	-0.239
-222.655	206.504	0.203	-0.410
-221.640	800.000	0.032	0.174
-220.625	-125.287	0.172	-0.034
-219.611	-82.249	-0.439	0.184
-218.596	-10.987	0.405	0.344
-217.582	49.576	0.078	-0.095
-216.567	-142.232	-0.335	-0.042
-215.552	-18.794	-0.263	0.211
-214.538	-25.792	-0.023	0.017
-213.523	800.000	0.177	0.681
-212.509	-144.163	-0.205	0.025
-211.494	-41.125	0.102	0.068
-210.479	210.750	0.105	0.214
-209.465	-22.173	0.203	-0.158
-208.450	800.000	0.131	-0.537
-207.436	12.329	0.290	0.288
-206.421	-109.784	-0.265	0.071
-205.406	21.166	0.117	0.123
-204.392	-200.000	-0.032	-0.000
-203.377	-53.450	0.310	-0.183
-202.363	-1.960	0.383	0.347
-201.348	800.000	0.077	0.280
-200.333	26.772	0.250	-0.270
-199.319	4.581	0.021	0.019
-198.304	112.483	-0.098	0.154
-197.290	-85.856	-0.194	-0.077
-196.275	-151.865	-0.242	-0.023
-195.260	329.271	-0.069	-0.171
-194.246	-103.056	-0.235	0.071
-193.231	-200.000	-0.011	0.273
-192.217	81.871	-0.071	-0.099
-191.202	-129.707	0.523	-0.092
-190.187	-125.267	0.287	0.056
-189.173	800.000	-0.054	0.208
-188.158	-65.189	-0.344	0.178
-187.144	161.454	0.097	-0.176
-186.129	-200.000	0.021	-0.379
-185.114	-200.000	-0.035	0.270
-184.100	-43.357	-0.230	0.149
-183.085	-14.028	0.301	0.250
-182.071	-145.965	-0.539	-0.061
-181.056	-200.000	0.008	-0.211
-180.042	-48.301	0.308	0.191
-179.027	-52.005	-0.354	-0.211
-178.012	41.731	-0.374	0.437
-176.998	-61.100	0.258	-0.140
-175.983	71.225	-0.349	-0.466
-174.969	239.906	-0.159	0.342
-173.954	121.730	-0.081	0.131
-172.939	-200.000	-0.016	-0.110
-171.925	-19.058	0.461	0.369
-170.910	79.887	-0.335	0.464
-169.896	-92.268	-0.269	0.097
-168.881	-174.816	0.120	-0.004
-167.866	-200.000	-0.006	0.068
-166.852	118.362	0.099	0.158
-165.837	-158.617	0.358	0.026
-164.823	55.281	-0.122	0.153
-163.808	-58.783	0.197	-0.110
-162.793	361.591	-0.099	0.255
-161.779	-200.000	-0.006	0.292
-160.764	-99.795	0.438	-0.140
-159.750	-28.417	-0.112	0.083
-158.735	-200.000	-0.024	0.166
-157.720	-27.602	0.137	0.103
-156.706	-71.816	-0.160	-0.076
-155.691	800.000	0.066	0.340
-154.677	352.892	-0.078	0.199
-153.662	-200.000	-0.005	0.278
-152.647	-167.501	0.139	-0.007
-151.633	-3.382	-0.091	-0.082
-150.618	-200.000	0.042	0.388
-149.604	-90.938	0.315	-0.116
-148.589	-32.062	-0.294	-0.211
-147.574	-156.450	-0.410	-0.032
-146.560	-56.891	-0.324	-0.184
-145.545	230.889	0.015	0.032
-144.531	-52.881	0.125	0.074
-143.516	-74.026	0.185	0.086
-142.502	101.822	-0.020	0.030
-141.487	-200.000	0.051	0.502
-140.472	-39.814	0.684	0.459
-139.458	-62.202	0.484	0.259
-138.443	298.426	-0.157	0.374
-137.429	-125.085	-0.081	0.016
-136.414	-58.289	-0.432	0.241
-135.399	-110.214	-0.264	0.070
-134.385	800.000	-0.124	-0.487
-133.370	-181.226	-0.370	-0.009
-132.356	-96.867	0.387	-0.130
-131.341	20.354	0.350	-0.364
-130.326	-200.000	-0.012	0.484
-129.312	-87.689	0.217	0.084
-128.297	-38.375	0.332	0.225
-127.283	-16.239	0.220	-0.179
-126.268	-47.902	0.254	-0.158
-125.253	-68.242	0.309	0.154
-124.239	598.601	-0.105	0.338
-123.224	-98.225	0.598	0.196
-122.210	563.644	-0.208	-0.652
