DTS Sentinel unit serial number:	SN409020Multiplexer serial number:	ORYXHardware model number:	OX4-SRSoftware version number:	ORYX F/W v3.00 Oryx Data Collector v3.7.2.0data status	okinstallation	HaddamTimeLapsedifferential loss correction	single-endedforward channel	channel 3reverse channel	N/Adate	2011/06/21time	15:46:17forward acquisition time	30.00reverse acquisition time	0.00gamma	498.7831k internal	0.1806k external	0.1806temperature offset calibration	1.0074default loss term (dB/km)	0.3790temperature slope calibration	1.3530multiplexer offset coefficient	1.0000multiplexer slope coefficient	1.0000fibre end	0.00T internal ref (°C)	36.56T ext. ref 1 (°C)	27.74T ext. ref 2 (°C)	0.23length (m)	temperature (°C)	Stokes	anti-Stokes-747.200	-46.455	-0.371	-0.234
-746.185	800.000	-0.146	0.829
-745.171	-67.761	-0.332	-0.166
-744.156	291.273	-0.043	0.100
-743.142	-165.555	-0.543	0.030
-742.127	-36.555	-0.467	0.322
-741.112	295.069	0.165	0.390
-740.098	-200.000	0.086	0.838
-739.083	206.871	0.155	-0.313
-738.069	-120.298	0.194	-0.042
-737.054	-97.772	-0.189	-0.062
-736.039	10.942	0.047	0.046
-735.025	164.104	-0.195	-0.354
-734.010	149.719	-0.187	0.327
-732.996	102.901	0.252	-0.381
-731.981	722.988	0.044	0.152
-730.966	362.729	-0.053	-0.139
-729.952	311.382	0.115	-0.278
-728.937	-30.132	-0.252	0.184
-727.923	6.230	-0.219	-0.209
-726.908	-35.592	0.324	0.226
-725.894	-136.146	0.380	0.057
-724.879	375.300	-0.069	-0.182
-723.864	-36.491	-0.049	0.034
-722.850	800.000	0.075	0.406
-721.835	800.000	0.136	-0.702
-720.821	800.000	-0.077	-0.281
-719.806	109.017	0.114	0.176
-718.791	-49.648	0.320	0.195
-717.777	47.566	-0.144	-0.173
-716.762	-133.827	0.293	-0.046
-715.748	800.000	0.082	-0.449
-714.733	800.000	-0.052	0.274
-713.718	158.161	0.180	-0.322
-712.704	-116.935	-0.261	-0.061
-711.689	175.725	-0.077	0.144
-710.675	-186.969	-0.264	0.005
-709.660	34.795	0.687	0.773
-708.645	800.000	-0.046	0.217
-707.631	79.567	0.294	0.406
-706.616	-155.773	0.569	0.046
-705.602	722.693	-0.029	0.099
-704.587	-44.474	-0.362	-0.232
-703.572	-157.608	-0.495	0.038
-702.558	20.549	0.324	-0.337
-701.543	240.887	-0.179	-0.384
-700.529	800.000	-0.048	-0.224
-699.514	-200.000	0.009	-0.740
-698.499	117.267	-0.266	-0.422
-697.485	-12.234	0.484	-0.406
-696.470	160.435	0.266	-0.477
-695.456	-77.442	0.128	0.057
-694.441	20.846	0.445	-0.463
-693.426	2.687	0.208	0.193
-692.412	445.154	0.050	0.142
-691.397	-117.546	0.218	0.050
-690.383	70.724	0.052	-0.070
-689.368	397.358	0.046	-0.125
-688.354	-154.302	0.386	0.033
-687.339	-200.000	0.043	-0.714
-686.324	-101.476	-0.048	-0.015
-685.310	-88.574	-0.387	0.147
-684.295	-200.000	-0.000	0.018
-683.281	106.793	-0.209	0.319
-682.266	-84.705	0.181	0.073
-681.251	800.000	0.014	-0.076
-680.237	-136.553	-0.736	-0.108
-679.222	-200.000	-0.040	0.278
-678.208	-98.596	0.030	0.010
-677.193	-20.060	0.176	-0.139
-676.178	-58.304	0.174	-0.097
-675.164	74.370	-0.372	-0.502
-674.149	129.096	0.124	0.203
-673.135	-86.018	-0.135	-0.053
-672.120	207.618	0.199	0.399
-671.105	390.459	-0.212	0.568
-670.091	-78.213	-0.408	-0.179
-669.076	-200.000	-0.039	0.284
-668.062	-112.791	-0.394	-0.100
-667.047	-200.000	0.003	-0.133
-666.032	-121.844	0.113	-0.024
-665.018	-75.112	0.437	0.200
-664.003	-200.000	0.015	0.683
-662.989	-64.585	-0.273	-0.141
-661.974	71.910	-0.173	-0.231
-660.959	-73.137	-0.139	0.065
-659.945	-15.312	-0.145	-0.119
-658.930	-200.000	0.021	-0.213
-657.916	-80.508	0.310	0.132
-656.901	91.719	0.248	-0.359
-655.886	-15.292	-0.091	-0.075
-654.872	110.501	0.263	-0.406
-653.857	-17.081	-0.015	0.012
-652.843	-50.330	-0.389	0.235
-651.828	-200.000	-0.002	0.137
-650.814	138.814	-0.066	-0.111
-649.799	191.832	0.109	-0.211
-648.784	474.172	-0.152	0.442
-647.770	800.000	-0.054	0.236
-646.755	-177.102	-0.366	0.012
-645.741	-7.568	0.169	-0.147
-644.726	-1.944	-0.225	0.203
-643.711	-87.137	-0.138	-0.053
-642.697	66.284	0.133	0.174
-641.682	-183.790	-0.201	-0.004
-640.668	-200.000	0.028	0.503
-639.653	-130.989	-0.020	-0.003
-638.638	-148.971	-0.142	0.014
-637.624	-155.672	-0.207	-0.017
-636.609	-54.660	-0.045	0.026
-635.595	-200.000	-0.006	-0.338
-634.580	-168.826	0.322	-0.015
-633.565	-104.227	-0.776	0.229
-632.551	-129.911	-0.347	-0.060
-631.536	164.231	0.253	-0.458
-630.522	-200.000	-0.062	-0.578
-629.507	-114.967	-0.425	-0.103
-628.492	-5.583	-0.257	-0.226
-627.478	-139.625	-0.250	-0.034
-626.463	1.142	0.181	0.167
-625.449	-55.307	-0.202	-0.116
-624.434	-111.451	-0.429	-0.111
-623.419	-3.398	0.748	-0.666
-622.405	800.000	-0.062	-0.231
-621.390	93.274	-0.094	0.137
-620.376	335.564	-0.050	-0.125
-619.361	-200.000	0.002	0.068
-618.346	-18.999	-0.176	-0.140
-617.332	694.307	-0.057	0.193
-616.317	-119.887	-0.222	0.048
-615.303	800.000	-0.115	-0.425
-614.288	-103.587	0.418	0.125
-613.273	-40.662	0.094	0.062
-612.259	176.339	0.171	0.319
-611.244	-3.678	0.532	0.474
-610.230	9.892	-0.135	0.131
-609.215	4.930	0.147	-0.138
-608.201	128.654	-0.081	0.133
-607.186	112.098	-0.135	0.209
-606.171	139.086	-0.141	0.238
-605.157	-141.046	-0.163	-0.021
-604.142	463.251	0.126	0.362
-603.128	157.192	-0.070	-0.125
-602.113	96.071	0.266	-0.389
-601.098	-71.305	-0.146	-0.070
-600.084	-48.565	0.201	0.123
-599.069	-200.000	-0.026	-0.295
-598.055	-107.546	0.070	-0.019
-597.040	-93.245	-0.373	0.132
-596.025	-52.800	0.215	0.126
-595.011	-200.000	0.007	-0.562
-593.996	800.000	-0.101	-0.376
-592.982	32.058	0.110	-0.121
-591.967	-107.196	-0.085	-0.024
-590.952	139.716	0.283	0.478
-589.938	-99.618	0.262	0.084
-588.923	-68.835	-0.174	0.085
-587.909	139.761	0.122	-0.205
-586.894	-200.000	0.014	0.252
-585.879	-131.124	0.198	-0.033
-584.865	-28.733	0.585	-0.430
-583.850	-200.000	-0.025	-0.369
-582.836	800.000	0.149	-0.606
-581.821	176.600	-0.061	-0.115
-580.806	800.000	-0.114	-0.446
-579.792	329.250	-0.007	0.018
-578.777	33.178	-0.135	-0.150
-577.763	-29.440	-0.159	-0.116
-576.748	-59.685	-0.146	-0.080
-575.733	-137.649	-0.236	-0.034
-574.719	-200.000	-0.037	-0.228
-573.704	64.252	-0.348	-0.449
-572.690	67.252	0.070	-0.091
-571.675	-195.916	0.260	-0.002
-570.661	5.526	0.017	-0.016
-569.646	344.399	-0.178	-0.448
-568.631	422.227	-0.099	-0.273
-567.617	-102.353	-0.251	0.077
-566.602	41.758	-0.134	0.156
-565.588	-119.581	0.150	-0.033
-564.573	55.547	0.173	0.214
-563.558	69.087	-0.206	0.271
-562.544	114.246	0.241	0.375
-561.529	-8.379	0.093	-0.080
-560.515	243.386	-0.008	0.016
-559.500	28.656	-0.232	-0.252
-558.485	234.537	-0.059	0.124
-557.471	329.737	-0.196	-0.484
-556.456	183.043	0.214	-0.404
-555.442	-83.666	0.161	-0.065
-554.427	-114.963	-0.143	0.034
-553.412	87.164	0.175	-0.247
-552.398	-200.000	-0.008	-0.340
-551.383	19.876	-0.379	0.390
-550.369	800.000	0.038	-0.155
-549.354	-72.978	-0.445	0.208
-548.339	-200.000	0.009	0.215
-547.325	-111.967	-0.227	-0.058
-546.310	800.000	0.059	-0.284
-545.296	138.812	0.044	0.074
-544.281	-200.000	-0.000	-0.108
-543.266	800.000	-0.079	-0.345
-542.252	-40.724	-0.197	-0.130
-541.237	255.751	0.220	-0.484
-540.223	-102.022	0.353	0.108
-539.208	-177.224	-0.492	-0.015
-538.193	-125.458	0.135	-0.026
-537.179	-1.398	-0.434	-0.391
-536.164	-148.258	-0.480	-0.050
-535.150	-1.195	0.298	0.269
-534.135	800.000	0.124	0.568
-533.121	-73.721	-0.073	-0.034
-532.106	217.919	-0.150	0.307
-531.091	97.353	0.284	0.417
-530.077	-200.000	0.005	0.480
-529.062	48.203	0.110	-0.131
-528.048	-55.088	0.546	0.313
-527.033	23.985	-0.127	0.134
-526.018	-56.849	-0.354	0.199
-525.004	-143.923	0.431	0.051
-523.989	-88.718	-0.555	0.209
-522.975	-155.670	-0.181	-0.015
-521.960	97.551	-0.109	0.160
-520.945	98.132	-0.078	-0.114
-519.931	-172.089	-0.414	0.017
-518.916	-63.512	0.327	-0.171
-517.902	-200.000	-0.052	0.428
-516.887	194.025	0.143	-0.277
-515.872	123.240	0.203	-0.325
-514.858	62.104	-0.175	-0.223
-513.843	-62.159	-0.689	-0.366
-512.829	-59.572	-0.277	-0.151
-511.814	-16.424	-0.110	0.089
-510.799	116.588	0.253	-0.397
-509.785	-200.000	0.045	-0.345
-508.770	-87.222	0.145	0.056
-507.756	-100.656	-0.227	-0.071
-506.741	-68.964	0.321	0.157
-505.726	306.005	-0.084	0.201
-504.712	190.539	-0.180	0.345
-503.697	-52.000	-0.145	-0.086
-502.683	-36.043	0.268	0.185
-501.668	-158.258	-0.321	0.024
-500.653	-162.719	-0.484	-0.030
-499.639	72.047	-0.084	-0.112
-498.624	-89.055	0.299	0.112
-497.610	-200.000	0.394	0.001
-496.595	377.434	-0.159	0.417
-495.581	-11.959	-0.609	-0.508
-494.566	-59.188	-0.180	-0.098
-493.551	-200.000	0.025	0.441
-492.537	314.603	0.109	-0.262
-491.522	-6.171	0.217	0.188
-490.508	-56.954	0.533	-0.299
-489.493	-12.397	-0.102	0.085
-488.478	356.213	0.169	-0.431
-487.464	-111.128	0.271	-0.070
-486.449	-200.000	-0.034	0.356
-485.435	17.272	0.262	0.265
-484.420	-97.044	0.290	0.096
-483.405	-40.966	-0.206	0.135
-482.391	-200.000	-0.023	0.243
-481.376	-41.269	0.365	-0.239
-480.362	169.119	0.142	-0.260
-479.347	102.522	0.279	0.417
-478.332	30.802	0.056	0.061
-477.318	214.451	-0.147	-0.297
-476.303	38.050	-0.277	-0.314
-475.289	-41.706	0.090	0.059
-474.274	-100.938	0.456	0.142
-473.259	483.552	0.136	0.395
-472.245	171.663	0.162	0.297
-471.230	-200.000	0.078	0.505
-470.216	-200.000	-0.100	0.601
-469.201	-200.000	0.048	0.279
-468.186	503.542	0.106	0.315
-467.172	-101.465	0.044	0.013
-466.157	-191.389	-0.339	0.004
-465.143	-68.521	-0.150	-0.074
-464.128	108.558	0.123	-0.187
-463.113	59.229	-0.288	-0.362
-462.099	-119.205	-0.226	-0.050
-461.084	251.633	-0.049	0.106
-460.070	-200.000	-0.065	-0.595
-459.055	211.236	-0.259	-0.520
-458.040	117.545	0.123	0.193
-457.026	-82.058	-0.294	-0.122
-456.011	-93.108	-0.051	0.018
-454.997	89.520	0.252	-0.358
-453.982	-119.125	0.275	0.061
-452.968	-200.000	-0.016	-0.122
-451.953	161.855	0.101	0.181
-450.938	800.000	0.103	-0.411
-449.924	-200.000	-0.094	-0.648
-448.909	24.759	-0.281	0.297
-447.895	800.000	-0.119	0.638
-446.880	405.674	0.129	0.348
-445.865	314.390	-0.119	0.285
-444.851	-43.738	0.228	-0.146
-443.836	-0.697	0.381	0.344
-442.822	0.412	-0.111	-0.101
-441.807	297.264	-0.068	-0.158
-440.792	-200.000	0.008	-0.689
-439.778	448.920	0.178	-0.502
-438.763	-92.923	0.343	-0.121
-437.749	175.016	-0.171	-0.316
-436.734	-159.768	-0.193	-0.013
-435.719	-200.000	0.013	0.196
-434.705	-69.868	-0.381	-0.184
-433.690	30.581	-0.196	0.213
-432.676	468.520	0.100	0.286
-431.661	372.574	-0.070	-0.183
-430.646	189.711	-0.063	-0.120
-429.632	-151.692	-0.340	0.031
-428.617	19.428	0.203	-0.208
-427.603	139.794	-0.155	0.260
-426.588	800.000	-0.048	-0.232
-425.573	50.722	-0.425	0.513
-424.559	375.244	0.007	0.018
-423.544	702.644	-0.250	0.843
-422.530	96.415	0.102	-0.149
-421.515	-124.288	0.176	-0.035
-420.500	-149.650	-0.241	-0.024
-419.486	30.251	-0.442	0.480
-418.471	198.293	0.080	0.156
-417.457	-21.871	0.281	-0.217
-416.442	150.063	0.177	0.306
-415.428	-200.000	0.078	-0.663
-414.413	-11.883	0.271	0.225
-413.398	-18.332	0.150	0.119
-412.384	235.565	0.112	0.236
-411.369	266.379	0.110	-0.246
-410.355	-38.042	0.238	-0.160
-409.340	-2.707	0.075	-0.067
-408.325	91.932	0.145	-0.208
-407.311	441.092	0.142	0.396
-406.296	800.000	-0.034	0.175
-405.282	-131.523	0.509	-0.084
-404.267	261.769	0.078	0.171
-403.252	-169.982	-0.137	0.006
-402.238	800.000	0.104	-0.493
-401.223	800.000	-0.044	-0.248
-400.209	-200.000	0.019	-0.147
-399.194	-200.000	-0.034	0.320
-398.179	-110.616	0.657	-0.171
-397.165	90.716	-0.296	-0.422
-396.150	91.113	-0.141	-0.201
-395.136	-77.312	-0.078	0.034
-394.121	142.742	-0.088	-0.148
-393.106	74.384	-0.293	-0.392
-392.092	-200.000	0.022	-0.148
-391.077	-111.598	-0.416	-0.106
-390.063	-90.041	-0.363	0.134
-389.048	-100.316	0.073	0.023
-388.033	109.339	0.383	0.584
-387.019	-34.792	-0.015	0.010
-386.004	2.760	-0.054	0.050
-384.990	-200.000	-0.026	-0.706
-383.975	64.686	0.323	0.414
-382.960	217.142	-0.166	-0.336
-381.946	-79.060	-0.125	0.054
-380.931	800.000	0.055	0.226
-379.917	-157.731	0.400	0.030
-378.902	800.000	0.088	-0.330
-377.888	-45.879	0.218	0.136
-376.873	311.531	0.085	-0.203
-375.858	-200.000	0.027	-0.362
-374.844	318.117	0.050	-0.122
-373.829	-200.000	-0.013	0.228
-372.815	126.146	-0.125	-0.200
-371.800	-1.312	-0.598	-0.535
-370.785	-36.646	0.123	-0.084
-369.771	-103.071	0.416	0.124
-368.756	-109.502	-0.329	0.088
-367.742	482.855	-0.205	-0.594
-366.727	-45.233	-0.425	-0.267
-365.712	-94.412	-0.051	-0.018
-364.698	-200.000	-0.048	-0.276
-363.683	-200.000	0.024	0.299
-362.669	-123.707	0.418	-0.083
-361.654	-19.529	-0.349	0.274
-360.639	-37.563	-0.249	-0.168
-359.625	340.216	0.052	0.130
-358.610	-188.796	0.283	0.004
-357.596	-22.284	-0.220	0.169
-356.581	-63.789	0.189	0.098
-355.566	-200.000	0.021	-0.252
-354.552	269.960	0.136	0.305
-353.537	651.523	0.100	0.326
-352.523	676.309	-0.111	0.368
-351.508	-90.773	-0.462	-0.168
-350.493	123.967	-0.055	0.087
-349.479	800.000	-0.095	-0.382
-348.464	800.000	0.012	-0.065
-347.450	-200.000	-0.024	-0.246
-346.435	800.000	0.020	-0.099
-345.420	33.823	-0.017	0.019
-344.406	-200.000	0.017	0.097
-343.391	-200.000	-0.038	-0.380
-342.377	454.849	0.107	0.302
-341.362	-77.004	0.260	0.115
-340.348	-133.062	-0.424	-0.068
-339.333	-56.971	-0.622	0.347
-338.318	118.500	-0.203	0.318
-337.304	-38.102	0.194	0.130
-336.289	43.488	0.288	0.334
-335.275	10.462	0.089	0.086
-334.260	800.000	-0.120	-0.571
-333.245	-40.516	-0.131	0.086
-332.231	-200.000	0.069	-0.575
-331.216	-119.227	0.323	-0.071
-330.202	449.480	-0.254	0.713
-329.187	35.851	0.249	0.277
-328.172	137.776	0.068	0.113
-327.158	705.736	0.066	0.221
-326.143	-53.923	0.284	0.164
-325.129	-78.971	0.557	-0.239
-324.114	224.585	0.079	0.162
-323.099	-148.215	0.456	0.047
-322.085	373.095	-0.039	0.101
-321.070	397.011	0.094	0.251
-320.056	-7.245	-0.256	-0.219
-319.041	800.000	-0.053	0.217
-318.026	42.645	0.413	-0.476
-317.012	110.381	0.156	-0.238
-315.997	-12.337	-0.286	-0.237
-314.983	800.000	-0.090	0.484
-313.968	-63.955	-0.047	-0.024
-312.953	-190.549	0.333	0.004
-311.939	18.707	0.154	0.156
-310.924	-14.286	-0.220	0.179
-309.910	57.853	0.219	0.271
-308.895	800.000	0.123	0.630
-307.880	238.564	0.137	0.290
-306.866	-200.000	-0.063	0.444
-305.851	-60.856	0.405	-0.216
-304.837	-200.000	0.507	-0.002
-303.822	-146.812	-0.041	-0.004
-302.807	-200.000	0.002	0.458
-301.793	-163.705	0.168	0.010
-300.778	-200.000	0.023	0.149
-299.764	-200.000	0.034	0.217
-298.749	-74.921	-0.651	-0.294
-297.735	57.673	-0.527	0.652
-296.720	28.547	0.061	-0.065
-295.705	-107.912	0.459	-0.125
-294.691	-200.000	-0.013	0.358
-293.676	-200.000	0.000	0.247
-292.662	-88.022	0.329	-0.124
-291.647	-91.486	-0.353	0.127
-290.632	-22.009	-0.295	-0.226
-289.618	53.033	-0.250	-0.303
-288.603	15.288	0.238	-0.237
-287.589	-141.115	0.122	-0.016
-286.574	-131.692	0.226	0.037
-285.559	-113.954	0.404	-0.098
-284.545	-120.763	0.401	-0.085
-283.530	254.199	-0.183	-0.398
-282.516	-30.498	0.174	0.125
-281.501	-124.568	0.472	0.092
-280.486	-200.000	0.021	0.441
-279.472	58.243	0.084	0.104
-278.457	591.006	-0.080	-0.252
-277.443	-121.338	0.080	0.017
-276.428	-140.813	0.581	0.075
-275.413	-116.136	0.295	0.069
-274.399	-10.298	-0.170	0.143
-273.384	428.764	-0.076	0.210
-272.370	-200.000	0.037	-0.316
-271.355	-38.642	0.194	-0.129
-270.340	-27.677	-0.135	0.099
-269.326	213.586	-0.027	0.054
-268.311	495.106	-0.032	0.094
-267.297	-26.885	-0.417	0.307
-266.282	220.142	0.176	-0.357
-265.267	221.943	0.114	0.233
-264.253	800.000	0.074	-0.294
-263.238	52.377	0.165	-0.199
-262.224	800.000	-0.078	0.375
-261.209	23.930	0.351	0.366
-260.195	-1.174	-0.196	-0.174
-259.180	-25.579	0.265	-0.197
-258.165	28.806	-0.246	0.263
-257.151	13.507	-0.206	0.202
-256.136	149.898	-0.353	-0.607
-255.122	-200.000	-0.005	-0.313
-254.107	179.463	0.121	-0.225
-253.092	-200.000	-0.059	-0.636
-252.078	800.000	0.163	0.757
-251.063	-102.603	0.178	-0.053
-250.049	228.906	-0.165	0.341
-249.034	73.624	0.321	0.426
-248.019	34.370	0.237	-0.261
-247.005	-200.000	0.047	-0.396
-245.990	-84.914	0.414	-0.163
-244.976	-64.952	0.216	-0.110
-243.961	137.395	0.146	-0.242
-242.946	147.424	-0.342	-0.583
-241.932	206.829	0.207	-0.409
-240.917	800.000	0.051	-0.190
-239.903	-200.000	-0.045	0.396
-238.888	-92.224	-0.289	0.102
-237.873	-65.092	-0.375	0.190
-236.859	-90.384	-0.180	-0.065
-235.844	280.928	-0.068	-0.155
-234.830	-43.401	0.164	0.104
-233.815	236.877	0.143	-0.301
-232.800	-141.162	-0.110	0.014
-231.786	800.000	-0.137	0.601
-230.771	101.407	-0.191	0.281
-229.757	-8.035	-0.281	0.239
-228.742	32.417	0.358	0.391
-227.727	-63.172	0.285	0.148
-226.713	-103.856	0.290	-0.085
-225.698	-127.202	-0.195	0.036
-224.684	23.178	0.102	0.105
-223.669	-63.381	0.417	-0.216
-222.655	38.080	0.216	0.243
-221.640	-68.732	-0.298	-0.145
-220.625	-68.034	-0.223	-0.109
-219.611	-43.131	-0.005	-0.003
-218.596	291.188	-0.194	0.447
-217.582	-200.000	-0.110	-0.681
-216.567	-200.000	-0.037	-0.324
-215.552	-11.865	-0.081	-0.067
-214.538	-40.858	-0.251	-0.163
-213.523	-6.309	-0.358	0.308
-212.509	272.255	-0.315	0.704
-211.494	-152.235	-0.565	-0.051
-210.479	31.516	-0.201	0.218
-209.465	259.183	-0.247	0.539
-208.450	-200.000	-0.012	0.385
-207.436	-200.000	-0.041	-0.552
-206.421	313.947	-0.247	-0.588
-205.406	-114.896	-0.384	-0.092
-204.392	225.821	-0.071	-0.146
-203.377	800.000	-0.037	-0.134
-202.363	80.662	0.292	-0.397
-201.348	-168.338	-0.314	0.015
-200.333	-200.000	0.046	0.378
-199.319	7.549	0.163	0.153
-198.304	-200.000	0.037	0.531
-197.290	174.049	-0.122	0.223
-196.275	358.764	0.108	-0.272
-195.260	32.054	0.217	0.236
-194.246	148.453	-0.156	0.267
-193.231	495.779	-0.124	0.362
-192.217	529.125	0.046	0.137
-191.202	253.446	0.241	0.521
-190.187	-101.534	-0.147	-0.045
-189.173	-54.709	0.317	0.180
-188.158	-198.369	-0.373	-0.003
-187.144	5.143	-0.134	0.124
-186.129	-56.473	-0.183	0.102
-185.114	114.134	-0.120	0.184
-184.100	-109.294	0.387	-0.103
-183.085	-58.678	0.097	0.053
-182.071	-0.633	-0.082	0.073
-181.056	84.418	-0.096	0.132
-180.042	5.506	-0.150	-0.139
-179.027	800.000	-0.073	-0.285
-178.012	-200.000	-0.003	0.226
-176.998	-144.502	-0.367	-0.042
-175.983	-83.255	-0.261	0.105
-174.969	570.170	0.129	0.397
-173.954	-156.099	0.332	-0.026
-172.939	-200.000	-0.011	0.248
-171.925	800.000	0.017	0.087
-170.910	-37.842	0.160	-0.107
-169.896	-148.448	0.446	0.045
-168.881	800.000	-0.042	-0.210
-167.866	-127.880	0.183	0.033
-166.852	40.489	-0.204	0.231
-165.837	49.506	0.081	0.096
-164.823	-74.930	0.292	0.131
-163.808	-54.669	0.213	0.121
-162.793	-138.678	-0.069	0.009
-161.779	-39.519	0.202	-0.133
-160.764	248.263	0.177	-0.378
-159.750	125.905	-0.197	-0.313
-158.735	399.012	-0.112	-0.296
-157.720	631.880	0.065	-0.210
-156.706	-200.000	-0.003	0.129
-155.691	-133.457	0.415	0.065
-154.677	-94.374	0.462	-0.158
-153.662	800.000	0.050	0.269
-152.647	99.594	0.291	-0.424
-151.633	800.000	0.069	0.294
-150.618	-135.652	-0.302	-0.045
-149.604	-200.000	-0.020	-0.404
-148.589	-146.128	-0.335	0.037
-147.574	-83.141	0.114	0.046
-146.560	128.933	-0.097	-0.156
-145.545	144.139	0.123	-0.206
-144.531	800.000	0.069	0.271
-143.516	96.619	0.201	0.291
-142.502	-44.088	0.319	-0.201
-141.487	-48.125	0.256	0.155
-140.472	18.688	-0.107	0.108
-139.458	-79.743	0.411	-0.173
-138.443	-83.753	-0.452	-0.181
-137.429	756.789	0.044	0.152
-136.414	35.928	-0.185	0.205
-135.399	-200.000	0.092	-0.558
-134.385	-114.035	0.580	0.140
-133.370	-1.706	0.098	-0.087
-132.356	25.838	-0.142	-0.148
-131.341	358.208	-0.102	-0.256
-130.326	-88.791	0.360	-0.134
-129.312	800.000	0.077	0.406
-128.297	800.000	-0.058	-0.237
-127.283	-6.898	0.261	0.223
-126.268	-131.745	0.240	0.039
-125.253	-200.000	-0.016	0.264
-124.239	-62.099	0.146	-0.076
-123.224	125.774	-0.184	0.293
-122.210	67.907	0.318	0.410
-121.195	-27.287	-0.277	0.202
