DTS Sentinel unit serial number:	SN409020Multiplexer serial number:	ORYXHardware model number:	OX4-SRSoftware version number:	ORYX F/W v3.00 Oryx Data Collector v3.7.2.0data status	okinstallation	HaddamTimeLapsedifferential loss correction	single-endedforward channel	channel 3reverse channel	N/Adate	2011/06/22time	01:51:17forward acquisition time	30.00reverse acquisition time	0.00gamma	498.7831k internal	0.1751k external	0.1751temperature offset calibration	1.0074default loss term (dB/km)	0.3790temperature slope calibration	1.3530multiplexer offset coefficient	1.0000multiplexer slope coefficient	1.0000fibre end	0.00T internal ref (°C)	22.44T ext. ref 1 (°C)	17.72T ext. ref 2 (°C)	0.00length (m)	temperature (°C)	Stokes	anti-Stokes-747.200	1.947	0.227	-0.218
-746.185	-200.000	0.021	0.485
-745.171	-87.435	0.372	-0.149
-744.156	800.000	-0.051	0.244
-743.142	7.189	-0.165	0.163
-742.127	53.729	-0.094	-0.120
-741.112	-107.108	0.370	-0.108
-740.098	709.348	0.092	-0.324
-739.083	-200.000	-0.000	-0.221
-738.069	-189.648	-0.413	-0.006
-737.054	-200.000	-0.005	0.187
-736.039	-200.000	0.014	0.278
-735.025	-54.466	0.319	0.191
-734.010	274.179	0.235	-0.555
-732.996	-160.752	-0.184	-0.013
-731.981	-200.000	-0.042	-0.480
-730.966	-122.663	0.061	-0.013
-729.952	34.631	-0.105	0.122
-728.937	-200.000	-0.006	-0.059
-727.923	37.253	-0.178	0.209
-726.908	-200.000	-0.063	-0.513
-725.894	135.785	-0.222	0.384
-724.879	573.972	-0.134	0.435
-723.864	-200.000	-0.048	-0.344
-722.850	-27.411	0.217	0.167
-721.835	-177.541	0.629	0.020
-720.821	70.250	-0.030	0.041
-719.806	625.395	-0.137	0.461
-718.791	-9.633	-0.149	0.131
-717.777	-98.666	0.262	-0.088
-716.762	-38.496	-0.398	-0.278
-715.748	20.180	-0.187	0.200
-714.733	-200.000	0.088	0.620
-713.718	-175.832	-0.073	-0.003
-712.704	-54.035	0.730	-0.440
-711.689	-200.000	0.001	0.059
-710.675	129.399	-0.018	0.031
-709.660	-72.924	0.057	0.028
-708.645	-78.311	-0.333	0.151
-707.631	296.097	0.284	0.692
-706.616	208.212	-0.096	-0.199
-705.602	-137.757	0.466	0.069
-704.587	-65.375	-0.500	0.266
-703.572	-200.000	-0.053	-0.507
-702.558	-16.219	0.201	-0.169
-701.543	800.000	0.133	0.505
-700.529	2.595	-0.386	-0.371
-699.514	531.746	-0.084	-0.264
-698.499	-17.859	-0.323	-0.268
-697.485	-200.000	-0.035	-0.530
-696.470	800.000	-0.077	-0.380
-695.456	-39.098	0.272	0.189
-694.441	-133.133	0.220	0.037
-693.426	800.000	-0.020	0.089
-692.412	-172.550	-0.246	-0.010
-691.397	-44.576	0.167	-0.111
-690.383	-106.740	0.256	0.075
-689.368	-98.049	0.122	-0.041
-688.354	536.774	0.016	0.050
-687.339	-113.336	0.586	-0.151
-686.324	-151.966	-0.072	-0.007
-685.310	456.629	-0.107	0.316
-684.295	-32.243	0.398	0.294
-683.281	0.607	0.157	0.149
-682.266	-80.815	0.061	0.027
-681.251	-90.021	0.254	0.098
-680.237	184.343	-0.166	0.327
-679.222	-19.889	-0.286	-0.234
-678.208	-99.880	0.154	-0.051
-677.193	-37.734	0.097	0.068
-676.178	54.688	-0.262	0.335
-675.164	-87.135	0.089	-0.036
-674.149	-200.000	-0.020	-0.726
-673.135	-200.000	0.010	-0.094
-672.120	800.000	-0.094	0.356
-671.105	800.000	-0.049	0.238
-670.091	364.683	-0.210	-0.564
-669.076	800.000	-0.061	0.265
-668.062	527.948	0.120	0.378
-667.047	231.659	-0.112	-0.243
-666.032	649.134	-0.105	-0.356
-665.018	19.214	0.366	0.389
-664.003	115.123	-0.230	0.373
-662.989	-36.179	0.188	0.134
-661.974	-60.612	0.433	0.243
-660.959	20.775	0.115	-0.123
-659.945	125.873	-0.152	0.255
-658.930	334.393	0.133	0.343
-657.916	-77.499	-0.260	-0.119
-656.901	-70.212	-0.484	-0.242
-655.886	-200.000	-0.035	0.290
-654.872	-184.024	-0.307	0.007
-653.857	-8.583	0.098	-0.087
-652.843	290.626	-0.026	0.064
-651.828	-114.007	-0.175	-0.045
-650.814	-44.120	-0.401	-0.266
-649.799	-150.924	0.634	-0.063
-648.784	758.285	0.153	-0.552
-647.770	-42.625	0.467	0.314
-646.755	-86.238	-0.376	0.153
-645.741	-200.000	-0.015	-0.273
-644.726	-200.000	0.014	0.214
-643.711	9.246	-0.226	0.226
-642.697	75.260	0.211	-0.295
-641.682	75.471	-0.224	0.313
-640.668	-25.725	-0.275	-0.214
-639.653	-70.819	-0.294	0.146
-638.638	-130.138	0.182	0.033
-637.624	-200.000	-0.014	-0.207
-636.609	-95.538	-0.477	-0.168
-635.595	-182.212	0.221	-0.005
-634.580	181.030	-0.149	0.290
-633.565	-122.996	-0.713	0.150
-632.551	-200.000	0.054	-0.391
-631.536	-127.611	-0.447	0.085
-630.522	341.346	-0.056	0.145
-629.507	-56.102	0.582	0.342
-628.492	-49.802	-0.111	0.070
-627.478	-140.459	-0.592	0.081
-626.463	60.047	0.355	-0.464
-625.449	-111.393	-0.103	-0.027
-624.434	-50.142	0.386	-0.241
-623.419	-200.000	0.014	0.276
-622.405	-200.000	-0.073	-0.486
-621.390	-41.526	0.536	-0.364
-620.376	-157.323	0.179	-0.014
-619.361	800.000	-0.081	-0.453
-618.346	-156.077	0.498	-0.041
-617.332	-32.988	-0.370	0.271
-616.317	800.000	-0.036	0.209
-615.303	172.639	-0.277	-0.529
-614.288	-70.857	0.241	0.120
-613.273	45.391	-0.206	-0.251
-612.259	-115.934	-0.459	0.112
-611.244	-52.168	-0.145	0.088
-610.230	-183.424	-0.136	0.003
-609.215	-145.256	0.378	0.045
-608.201	12.785	-0.339	-0.346
-607.186	-168.106	0.515	0.026
-606.171	110.163	-0.053	-0.085
-605.157	104.658	-0.154	-0.241
-604.142	139.456	0.079	-0.137
-603.128	-132.290	-0.275	0.047
-602.113	98.303	0.221	-0.337
-601.098	-160.367	0.396	0.028
-600.084	-45.989	0.183	-0.119
-599.069	-75.534	0.279	0.130
-598.055	-5.803	-0.498	0.450
-597.040	-54.715	0.177	0.105
-596.025	93.002	0.194	-0.289
-595.011	-85.951	0.766	0.311
-593.996	70.475	0.098	-0.135
-592.982	800.000	0.074	0.368
-591.967	41.232	0.251	0.300
-590.952	-200.000	-0.014	0.255
-589.938	-146.182	0.435	-0.050
-588.923	41.190	-0.114	-0.136
-587.909	391.275	0.109	-0.300
-586.894	-113.730	-0.204	-0.052
-585.879	421.105	0.093	-0.264
-584.865	161.969	0.086	-0.160
-583.850	-69.200	0.447	-0.226
-582.836	-118.175	0.279	0.065
-581.821	130.786	-0.217	-0.368
-580.806	144.274	0.125	-0.221
-579.792	-67.370	0.408	0.211
-578.777	800.000	-0.064	0.299
-577.763	127.391	-0.133	0.224
-576.748	-83.557	0.533	0.224
-575.733	-28.232	-0.290	0.221
-574.719	-89.968	0.275	-0.105
-573.704	-128.052	0.075	-0.014
-572.690	-66.220	-0.329	0.172
-571.675	-157.342	-0.288	0.023
-570.661	-181.520	-0.076	-0.002
-569.646	800.000	0.133	0.544
-568.631	-200.000	0.031	-0.283
-567.617	-101.309	0.175	0.056
-566.602	-101.993	-0.156	0.049
-565.588	32.848	0.111	-0.126
-564.573	-78.165	0.717	-0.324
-563.558	50.076	-0.153	0.191
-562.544	5.307	0.397	0.386
-561.529	107.259	-0.213	-0.335
-560.515	50.968	-0.076	0.095
-559.500	26.158	0.129	0.143
-558.485	-47.382	-0.437	-0.280
-557.471	239.811	0.165	-0.363
-556.456	67.760	0.522	-0.705
-555.442	-169.588	-0.075	0.004
-554.427	-80.162	0.441	0.194
-553.412	800.000	-0.129	0.531
-552.398	-63.252	-0.673	-0.364
-551.383	-14.761	0.410	-0.347
-550.369	20.943	0.336	-0.359
-549.354	800.000	-0.036	-0.208
-548.339	64.586	-0.142	-0.188
-547.325	-44.857	-0.325	0.213
-546.310	-200.000	-0.014	0.185
-545.296	-180.709	0.283	-0.007
-544.281	622.410	0.027	0.089
-543.266	-200.000	0.032	0.198
-542.252	503.774	-0.046	-0.140
-541.237	-45.228	-0.531	0.347
-540.223	81.725	0.270	0.386
-539.208	456.166	0.091	0.266
-538.193	-128.213	-0.353	0.066
-537.179	662.406	-0.124	0.423
-536.164	-15.785	-0.069	-0.058
-535.150	-54.114	-0.170	-0.102
-534.135	-200.000	-0.006	0.512
-533.121	-20.178	-0.170	-0.138
-532.106	458.998	-0.217	-0.640
-531.091	800.000	-0.060	0.293
-530.077	-60.397	0.084	-0.047
-529.062	-200.000	0.054	0.509
-528.048	317.413	0.056	0.140
-527.033	800.000	-0.133	0.749
-526.018	97.680	0.026	0.040
-525.004	-200.000	0.036	-0.256
-523.989	-114.466	-0.579	-0.145
-522.975	553.158	-0.112	0.357
-521.960	-49.973	0.229	0.143
-520.945	-200.000	-0.021	-0.139
-519.931	494.423	0.051	-0.156
-518.916	-36.450	-0.191	-0.135
-517.902	800.000	-0.053	0.207
-516.887	-20.223	-0.234	0.190
-515.872	-75.530	0.242	0.113
-514.858	-15.834	-0.071	0.060
-513.843	-34.938	-0.100	0.071
-512.829	800.000	0.015	0.072
-511.814	43.412	0.286	0.344
-510.799	-200.000	-0.022	0.153
-509.785	-134.603	0.305	-0.049
-508.770	-22.023	-0.259	0.207
-507.756	-139.839	0.213	-0.029
-506.741	39.492	-0.216	0.254
-505.726	-31.037	0.284	-0.210
-504.712	-200.000	-0.010	-0.518
-503.697	11.966	0.132	-0.134
-502.683	22.175	-0.156	0.168
-501.668	-75.434	0.316	0.147
-500.653	24.371	0.153	-0.166
-499.639	-88.703	-0.314	0.122
-498.624	-50.536	0.216	0.133
-497.610	-101.237	0.474	0.152
-496.595	-71.742	0.326	0.160
-495.581	-76.013	0.296	0.137
-494.566	-200.000	0.026	-0.281
-493.551	393.980	0.058	-0.159
-492.537	-200.000	0.015	-0.207
-491.522	328.148	0.165	-0.419
-490.508	396.601	0.048	-0.132
-489.493	208.567	0.143	-0.295
-488.478	-13.322	0.109	-0.093
-487.464	19.101	0.358	-0.378
-486.449	-45.858	-0.800	-0.518
-485.435	800.000	0.071	-0.287
-484.420	800.000	-0.046	-0.264
-483.405	-25.540	0.029	-0.023
-482.391	377.054	-0.043	0.117
-481.376	-141.382	-0.127	0.017
-480.362	119.615	0.251	-0.410
-479.347	800.000	-0.093	0.430
-478.332	59.032	0.431	-0.558
-477.318	-2.930	0.399	-0.366
-476.303	-131.460	-0.228	-0.039
-475.289	-122.639	-0.307	0.065
-474.274	-145.833	-0.300	0.035
-473.259	-115.586	-0.118	-0.029
-472.245	14.742	-0.232	-0.238
-471.230	-65.502	0.591	-0.311
-470.216	453.664	-0.032	0.093
-469.201	800.000	0.055	0.293
-468.186	-200.000	-0.022	-0.209
-467.172	6.957	0.279	-0.273
-466.157	-110.884	0.330	-0.089
-465.143	800.000	-0.063	-0.260
-464.128	-200.000	0.016	0.172
-463.113	-200.000	-0.024	0.169
-462.099	-15.558	-0.161	-0.135
-461.084	-20.865	-0.265	0.213
-460.070	800.000	-0.032	0.154
-459.055	-26.056	-0.261	-0.201
-458.040	-28.857	-0.224	-0.169
-457.026	800.000	0.156	0.618
-456.011	-38.113	0.035	-0.025
-454.997	609.408	0.059	0.194
-453.982	-101.308	-0.095	-0.030
-452.968	-138.856	0.275	0.039
-451.953	-91.019	0.198	0.074
-450.938	8.678	-0.146	-0.145
-449.924	-200.000	0.031	-0.422
-448.909	191.275	-0.168	-0.332
-447.895	-116.602	-0.167	0.040
-446.880	-42.837	0.605	0.402
-445.865	800.000	-0.090	0.381
-444.851	159.691	-0.034	0.063
-443.836	585.300	0.025	-0.082
-442.822	69.564	-0.236	-0.319
-441.807	-18.025	0.172	-0.141
-440.792	44.662	-0.178	-0.215
-439.778	-48.897	0.033	-0.021
-438.763	104.703	0.175	-0.271
-437.749	41.163	0.150	0.177
-436.734	267.754	0.086	0.199
-435.719	692.611	-0.125	-0.433
-434.705	-187.531	0.417	0.007
-433.690	-118.092	0.369	0.086
-432.676	15.845	-0.283	0.292
-431.661	-145.449	0.355	0.041
-430.646	-96.165	0.251	-0.087
-429.632	47.670	0.172	-0.211
-428.617	-4.302	0.271	-0.246
-427.603	299.782	0.061	-0.147
-426.588	-200.000	0.033	0.269
-425.573	-127.283	0.401	0.076
-424.559	-200.000	-0.021	-0.292
-423.544	131.687	0.137	-0.232
-422.530	108.184	-0.260	0.408
-421.515	-200.000	0.027	0.469
-420.500	129.841	-0.065	0.109
-419.486	-200.000	-0.007	0.072
-418.471	-200.000	0.016	0.300
-417.457	-72.494	0.318	-0.154
-416.442	83.365	0.264	0.377
-415.428	-106.649	-0.167	-0.049
-414.413	22.761	-0.076	-0.081
-413.398	110.144	-0.067	0.105
-412.384	-95.013	-0.262	-0.093
-411.369	-159.795	-0.112	0.008
-410.355	62.719	0.132	0.173
-409.340	39.655	0.238	-0.280
-408.325	-175.742	-0.146	-0.005
-407.311	39.596	0.113	-0.133
-406.296	800.000	-0.067	-0.314
-405.282	-22.259	-0.028	0.022
-404.267	2.944	0.099	0.094
-403.252	232.191	-0.185	0.399
-402.238	748.565	-0.079	0.280
-401.223	-50.061	-0.214	0.133
-400.209	-127.588	-0.604	-0.114
-399.194	-144.823	0.382	0.045
-398.179	594.356	-0.060	0.196
-397.165	593.762	-0.049	0.159
-396.150	-67.186	0.161	-0.083
-395.136	335.319	0.085	0.217
-394.121	-107.194	0.354	0.102
-393.106	-88.792	0.268	0.104
-392.092	312.354	-0.097	0.240
-391.077	-65.141	-0.106	0.056
-390.063	-200.000	-0.002	0.057
-389.048	99.139	-0.219	0.332
-388.033	-155.878	0.543	0.045
-387.019	-200.000	0.004	-0.124
-386.004	-153.860	-0.142	0.013
-384.990	2.150	-0.123	-0.117
-383.975	800.000	-0.050	-0.205
-382.960	-23.509	0.159	0.125
-381.946	31.453	-0.094	-0.106
-380.931	-40.074	-0.322	0.220
-379.917	800.000	0.147	0.592
-378.902	45.655	-0.108	0.131
-377.888	-128.700	0.499	-0.091
-376.873	-36.934	0.124	0.087
-375.858	-16.259	-0.441	0.366
-374.844	-162.989	-0.470	0.029
-373.829	-62.341	-0.494	-0.268
-372.815	800.000	0.076	-0.392
-371.800	-61.457	0.328	-0.180
-370.785	800.000	-0.097	-0.453
-369.771	-200.000	-0.049	0.329
-368.756	-126.986	-0.321	-0.061
-367.742	202.204	-0.123	0.248
-366.727	-81.793	-0.136	-0.058
-365.712	123.544	-0.076	0.124
-364.698	796.107	0.050	0.182
-363.683	-3.930	-0.225	0.204
-362.669	-95.252	-0.428	-0.150
-361.654	-68.608	-0.190	0.096
-360.639	171.828	-0.293	0.552
-359.625	-200.000	-0.015	0.167
-358.610	202.631	0.052	-0.105
-357.596	-200.000	-0.014	0.339
-356.581	-24.681	-0.070	0.055
-355.566	-145.848	-0.243	-0.028
-354.552	-200.000	-0.043	-0.347
-353.537	684.115	0.087	-0.297
-352.523	800.000	0.058	0.295
-351.508	-74.752	0.195	0.091
-350.493	-200.000	-0.079	0.731
-349.479	-112.729	-0.174	0.045
-348.464	152.422	-0.176	-0.315
-347.450	90.459	0.132	0.193
-346.435	-200.000	-0.005	-0.303
-345.420	141.260	-0.038	-0.066
-344.406	-56.464	0.133	0.077
-343.391	110.282	0.172	0.271
-342.377	-38.684	0.128	-0.088
-341.362	-2.114	-0.100	0.092
-340.348	-19.203	-0.087	0.071
-339.333	599.594	0.108	-0.353
-338.318	-35.089	0.288	0.204
-337.304	-200.000	-0.001	-0.038
-336.289	-200.000	0.056	0.326
-335.275	-200.000	-0.022	-0.216
-334.260	800.000	0.077	0.304
-333.245	-200.000	0.040	0.285
-332.231	39.688	-0.228	0.267
-331.216	76.442	-0.182	-0.252
-330.202	-200.000	-0.004	-0.100
-329.187	-132.084	-0.287	-0.048
-328.172	-70.805	-0.360	-0.177
-327.158	78.201	-0.259	-0.362
-326.143	-76.797	0.199	0.091
-325.129	-19.433	0.169	-0.136
-324.114	-200.000	-0.009	-0.164
-323.099	745.632	-0.082	-0.292
-322.085	36.018	0.145	-0.167
-321.070	-114.113	0.372	0.093
-320.056	800.000	-0.049	0.200
-319.041	-67.002	0.070	-0.036
-318.026	800.000	-0.043	0.231
-317.012	-56.605	-0.704	-0.406
-315.997	-120.240	-0.153	0.034
-314.983	-131.293	0.405	-0.069
-313.968	20.984	-0.179	-0.190
-312.953	10.610	-0.222	0.221
-311.939	100.817	-0.219	0.332
-310.924	-122.125	0.298	-0.063
-309.910	118.325	0.284	-0.459
-308.895	-200.000	0.045	-0.283
-307.880	395.812	-0.070	-0.191
-306.866	-56.621	0.223	-0.129
-305.851	-113.455	-0.256	-0.065
-304.837	-56.057	-0.354	0.205
-303.822	194.257	-0.196	0.388
-302.807	-50.774	-0.196	-0.120
-301.793	-69.475	0.217	0.108
-300.778	-39.093	-0.349	-0.239
-299.764	-168.106	-0.496	0.025
-298.749	530.003	0.103	0.319
-297.735	-156.354	-0.136	0.011
-296.720	800.000	0.083	-0.379
-295.705	21.901	-0.189	0.201
-294.691	-0.226	-0.474	0.440
-293.676	404.283	-0.055	0.151
-292.662	96.781	0.273	0.408
-291.647	5.131	0.393	0.377
-290.632	-119.962	-0.315	-0.070
-289.618	-148.183	-0.179	0.019
-288.603	102.354	-0.183	0.280
-287.589	134.701	0.116	0.197
-286.574	-110.615	-0.239	-0.064
-285.559	-127.024	-0.523	0.099
-284.545	203.990	-0.256	-0.519
-283.530	-42.728	-0.110	0.073
-282.516	-59.504	0.247	0.138
-281.501	-27.822	-0.090	-0.068
-280.486	42.111	0.020	-0.023
-279.472	347.178	0.070	-0.181
-278.457	-146.768	0.066	0.007
-277.443	113.855	0.178	-0.283
-276.428	667.009	-0.037	-0.124
-275.413	286.982	-0.056	-0.131
-274.399	-164.203	-0.343	0.020
-273.384	-149.418	0.566	0.058
-272.370	130.178	-0.114	-0.190
-271.355	-57.456	0.206	0.118
-270.340	82.498	-0.196	-0.277
-269.326	-31.839	0.333	-0.243
-268.311	-200.000	-0.033	-0.670
-267.297	-193.073	0.515	0.006
-266.282	-200.000	-0.017	-0.106
-265.267	185.884	0.142	0.277
-264.253	25.623	-0.164	-0.178
-263.238	-89.329	-0.186	0.071
-262.224	57.765	0.431	0.550
-261.209	119.567	-0.255	0.413
-260.195	800.000	-0.112	0.582
-259.180	-142.777	-0.351	0.044
-258.165	95.321	-0.115	0.171
-257.151	-116.917	-0.119	0.028
-256.136	-73.301	0.138	-0.066
-255.122	180.446	0.172	0.329
-254.107	-9.562	-0.282	-0.245
-253.092	60.824	-0.183	-0.237
-252.078	-185.647	-0.226	0.004
-251.063	-172.696	0.338	0.014
-250.049	437.310	-0.054	0.155
-249.034	800.000	-0.038	-0.147
-248.019	-200.000	0.013	0.455
-247.005	-136.159	0.240	-0.036
-245.990	159.113	-0.119	-0.217
-244.976	5.035	0.069	-0.066
-243.961	-200.000	0.026	-0.209
-242.946	-112.362	0.397	-0.103
-241.932	288.576	-0.040	-0.096
-240.917	-22.706	0.155	0.122
-239.903	-200.000	0.020	0.541
-238.888	377.455	0.309	0.827
-237.873	224.475	-0.187	-0.394
-236.859	-162.996	0.179	0.011
-235.844	800.000	0.042	0.197
-234.830	627.806	-0.191	-0.633
-233.815	-15.169	-0.303	-0.252
-232.800	-36.668	-0.136	0.095
-231.786	-17.143	0.159	0.130
-230.771	-88.070	-0.138	0.054
-229.757	56.564	0.242	0.307
-228.742	239.904	-0.118	-0.257
-227.727	-61.509	0.160	-0.087
-226.713	229.283	-0.186	-0.397
-225.698	128.300	-0.025	-0.042
-224.684	-134.890	0.157	0.024
-223.669	175.326	0.093	-0.177
-222.655	-148.805	0.249	0.026
-221.640	-77.333	0.549	-0.247
-220.625	-5.826	0.272	-0.243
-219.611	-153.851	0.507	0.045
-218.596	-34.854	0.327	-0.232
-217.582	-157.275	-0.272	0.021
-216.567	-12.464	0.055	-0.047
-215.552	249.958	0.049	0.109
-214.538	800.000	0.025	0.115
-213.523	-151.543	-0.198	-0.019
-212.509	375.688	-0.137	-0.366
-211.494	-135.976	-0.517	-0.078
-210.479	132.997	-0.094	0.158
-209.465	-112.227	0.117	0.030
-208.450	515.743	0.097	0.297
-207.436	-56.120	-0.341	-0.197
-206.421	-95.442	-0.428	-0.148
-205.406	106.474	0.235	-0.363
-204.392	-54.628	-0.289	0.170
-203.377	-125.347	0.312	0.061
-202.363	-200.000	0.008	0.410
-201.348	-85.477	-0.277	-0.112
-200.333	-155.350	0.466	-0.039
-199.319	-61.595	-0.170	-0.093
-198.304	800.000	-0.011	-0.041
-197.290	-200.000	-0.312	-0.002
-196.275	40.094	0.141	-0.164
-195.260	-179.092	-0.470	-0.013
-194.246	-170.140	-0.307	0.014
-193.231	-127.848	-0.701	-0.130
-192.217	-81.988	-0.287	-0.121
-191.202	-105.969	0.238	0.069
-190.187	-130.544	-0.295	-0.051
-189.173	-174.088	0.178	0.007
-188.158	592.541	0.191	0.617
-187.144	17.079	-0.185	0.191
-186.129	16.873	-0.231	0.238
-185.114	59.262	-0.254	0.326
-184.100	-92.144	0.275	0.101
-183.085	-47.854	-0.065	-0.041
-182.071	124.051	0.233	-0.381
-181.056	-200.000	-0.003	-0.342
-180.042	-22.114	-0.107	-0.085
-179.027	580.562	-0.033	0.107
-178.012	-38.613	0.360	-0.247
-176.998	-130.751	0.263	-0.046
-175.983	-170.562	-0.458	-0.020
-174.969	-64.516	-0.165	-0.087
-173.954	-135.799	0.322	0.049
-172.939	-102.985	-0.345	0.106
-171.925	800.000	0.090	0.361
-170.910	254.357	-0.015	0.033
-169.896	-161.875	0.288	0.019
-168.881	9.929	-0.266	0.262
-167.866	-94.719	0.141	-0.049
-166.852	318.731	-0.051	0.126
-165.837	88.754	0.298	-0.431
-164.823	308.313	0.181	0.441
-163.808	-117.416	0.034	0.008
-162.793	-88.720	-0.321	-0.123
-161.779	-130.538	-0.516	0.090
-160.764	-42.360	-0.148	-0.098
-159.750	250.020	0.035	-0.078
-158.735	-106.615	0.433	0.124
-157.720	54.142	0.089	-0.112
-156.706	-139.850	-0.170	-0.023
-155.691	137.546	0.024	0.040
-154.677	129.654	0.216	-0.360
-153.662	-0.273	-0.298	-0.275
-152.647	82.515	-0.347	-0.489
-151.633	-119.912	0.254	0.056
-150.618	6.350	-0.165	0.159
-149.604	-84.608	0.373	0.152
-148.589	-105.470	-0.325	0.095
-147.574	-60.350	-0.132	0.073
-146.560	-12.114	0.309	0.262
-145.545	-46.825	-0.382	-0.242
-144.531	-1.666	-0.275	-0.252
-143.516	-30.219	-0.206	-0.151
-142.502	-116.262	0.156	-0.037
-141.487	-60.126	0.164	-0.091
-140.472	-78.300	0.110	0.049
-139.458	223.114	0.176	0.370
-138.443	53.079	0.127	0.158
-137.429	-145.878	0.396	0.045
-136.414	23.640	-0.434	0.463
-135.399	-60.825	-0.030	0.016
-134.385	101.599	0.303	0.459
-133.370	324.930	-0.123	0.305
-132.356	4.089	0.316	0.300
-131.341	-15.853	-0.318	0.262
-130.326	-13.724	0.167	-0.140
-129.312	-84.837	0.483	-0.196
-128.297	466.589	-0.105	-0.308
-127.283	-62.885	-0.231	-0.123
-126.268	26.283	-0.124	0.134
-125.253	-32.276	-0.461	0.333
-124.239	-167.015	-0.254	0.013
-123.224	-186.536	-0.405	-0.007
-122.210	-11.093	-0.166	-0.142
