DTS Sentinel unit serial number:	SN409020Multiplexer serial number:	ORYXHardware model number:	OX4-SRSoftware version number:	ORYX F/W v3.00 Oryx Data Collector v3.7.2.0data status	okinstallation	HaddamTimeLapsedifferential loss correction	single-endedforward channel	channel 3reverse channel	N/Adate	2011/06/21time	15:11:17forward acquisition time	30.00reverse acquisition time	0.00gamma	498.7831k internal	0.1837k external	0.1837temperature offset calibration	1.0074default loss term (dB/km)	0.3790temperature slope calibration	1.3530multiplexer offset coefficient	1.0000multiplexer slope coefficient	1.0000fibre end	0.00T internal ref (°C)	38.50T ext. ref 1 (°C)	28.78T ext. ref 2 (°C)	0.28length (m)	temperature (°C)	Stokes	anti-Stokes-747.200	99.128	-0.277	0.406
-746.185	800.000	0.142	0.581
-745.171	-63.463	-0.228	0.118
-744.156	-200.000	0.089	0.504
-743.142	-29.658	-0.204	-0.147
-742.127	-200.000	-0.063	0.462
-741.112	109.998	0.223	0.339
-740.098	-200.000	0.092	0.973
-739.083	-200.000	-0.012	0.422
-738.069	-200.000	0.007	0.120
-737.054	800.000	-0.105	-0.380
-736.039	-200.000	-0.052	-0.362
-735.025	-200.000	0.017	-0.195
-734.010	-51.798	-0.500	-0.294
-732.996	113.124	-0.318	0.489
-731.981	-20.488	-0.349	-0.271
-730.966	243.463	-0.174	-0.371
-729.952	-200.000	-0.062	-0.502
-728.937	-128.965	-0.091	0.016
-727.923	-61.149	-0.362	-0.192
-726.908	-179.024	-0.743	-0.021
-725.894	-200.000	-0.006	0.237
-724.879	453.534	-0.060	0.168
-723.864	54.624	0.049	0.059
-722.850	-24.975	0.301	-0.226
-721.835	33.514	-0.348	-0.382
-720.821	-162.130	-0.216	0.014
-719.806	7.543	0.154	0.146
-718.791	-80.242	0.367	0.154
-717.777	800.000	0.013	0.073
-716.762	-167.087	0.114	-0.006
-715.748	-184.918	0.140	0.003
-714.733	-103.109	0.511	0.152
-713.718	79.497	-0.156	-0.211
-712.704	31.276	-0.203	-0.220
-711.689	-200.000	0.015	-0.345
-710.675	-161.803	-0.585	0.037
-709.660	-40.922	-0.271	0.176
-708.645	100.800	-0.048	-0.070
-707.631	-200.000	-0.006	-0.284
-706.616	-122.447	0.331	0.068
-705.602	423.793	0.136	-0.372
-704.587	-200.000	-0.038	-0.584
-703.572	-148.822	-0.170	0.017
-702.558	93.835	-0.524	0.752
-701.543	-100.292	0.539	0.168
-700.529	-200.000	-0.034	-0.425
-699.514	-145.492	0.141	-0.016
-698.499	191.425	-0.175	0.335
-697.485	-164.105	-0.225	0.013
-696.470	209.545	0.136	0.270
-695.456	467.953	0.075	0.214
-694.441	-110.099	-0.185	0.049
-693.426	800.000	-0.135	-0.509
-692.412	800.000	0.060	0.235
-691.397	-40.549	0.540	0.354
-690.383	-29.109	-0.562	0.407
-689.368	-108.100	-0.309	-0.084
-688.354	-112.070	-0.433	0.109
-687.339	307.299	-0.155	0.366
-686.324	22.406	-0.366	-0.378
-685.310	800.000	0.025	-0.137
-684.295	-200.000	0.020	-0.337
-683.281	132.283	-0.084	0.137
-682.266	-48.700	0.353	-0.214
-681.251	155.441	0.008	-0.014
-680.237	10.020	0.232	0.222
-679.222	-124.636	0.547	-0.106
-678.208	-34.443	-0.201	0.139
-677.193	180.915	0.036	-0.067
-676.178	204.488	-0.178	-0.350
-675.164	197.571	-0.225	-0.436
-674.149	-200.000	0.021	-0.400
-673.135	800.000	0.042	-0.166
-672.120	-53.050	0.304	0.176
-671.105	184.292	0.154	0.288
-670.091	-100.733	0.122	-0.038
-669.076	-200.000	-0.005	0.240
-668.062	-29.389	0.202	0.145
-667.047	115.421	-0.064	0.099
-666.032	-19.407	-0.273	-0.213
-665.018	-184.531	0.134	-0.003
-664.003	-139.853	-0.174	0.023
-662.989	-33.947	0.285	-0.198
-661.974	-60.296	0.082	0.044
-660.959	-200.000	0.049	-0.420
-659.945	-109.007	0.207	0.055
-658.930	188.213	0.142	0.269
-657.916	37.875	-0.152	-0.171
-656.901	-31.729	-0.230	0.162
-655.886	-115.448	-0.323	0.076
-654.872	25.422	-0.163	-0.171
-653.857	129.235	-0.181	-0.293
-652.843	800.000	0.123	-0.573
-651.828	169.267	0.192	-0.347
-650.814	620.083	0.087	-0.277
-649.799	-160.880	-0.510	-0.033
-648.784	-161.986	0.233	0.015
-647.770	-200.000	0.042	-0.288
-646.755	-40.541	-0.089	-0.058
-645.741	-200.000	-0.010	0.489
-644.726	-200.000	0.033	0.236
-643.711	800.000	-0.069	-0.267
-642.697	800.000	-0.117	-0.543
-641.682	-82.129	-0.584	-0.239
-640.668	800.000	0.125	-0.625
-639.653	-119.826	-0.448	-0.097
-638.638	-135.635	-0.294	0.044
-637.624	339.280	-0.036	0.088
-636.609	-129.853	-0.212	-0.036
-635.595	-134.652	-0.243	-0.037
-634.580	85.926	-0.107	0.148
-633.565	-157.691	0.047	-0.003
-632.551	-93.924	0.163	0.056
-631.536	161.019	-0.098	0.173
-630.522	18.502	0.204	0.206
-629.507	-80.649	0.299	-0.125
-628.492	219.589	0.087	0.176
-627.478	214.819	-0.087	-0.175
-626.463	-69.976	0.181	-0.087
-625.449	-200.000	-0.045	-0.397
-624.434	-66.109	-0.477	-0.239
-623.419	-40.278	0.494	-0.323
-622.405	-34.822	0.339	0.233
-621.390	85.055	0.358	0.496
-620.376	-30.656	0.241	-0.172
-619.361	-22.697	-0.168	-0.127
-618.346	-123.968	-0.273	-0.054
-617.332	-200.000	-0.080	-0.729
-616.317	1.636	0.058	-0.053
-615.303	-77.408	-0.149	-0.065
-614.288	212.269	0.121	-0.241
-613.273	287.299	0.156	0.357
-612.259	-81.922	0.209	-0.086
-611.244	800.000	-0.066	-0.277
-610.230	-69.003	0.366	-0.177
-609.215	197.919	-0.223	-0.431
-608.201	62.729	-0.090	0.113
-607.186	-200.000	0.087	0.583
-606.171	-62.310	-0.143	-0.075
-605.157	35.149	-0.160	0.176
-604.142	-82.254	-0.235	-0.096
-603.128	800.000	0.062	-0.261
-602.113	158.525	0.111	0.195
-601.098	-135.879	-0.256	0.038
-600.084	287.573	0.159	-0.364
-599.069	-200.000	-0.044	-0.291
-598.055	-200.000	-0.009	0.102
-597.040	-97.837	0.391	-0.126
-596.025	-200.000	0.034	-0.534
-595.011	-5.136	0.281	0.243
-593.996	-78.676	-0.223	-0.095
-592.982	-160.431	-0.406	-0.027
-591.967	-59.379	0.452	0.244
-590.952	579.699	0.101	0.313
-589.938	-123.377	-0.268	-0.053
-588.923	32.903	0.055	0.060
-587.909	800.000	-0.040	0.183
-586.894	-3.208	-0.406	0.356
-585.879	592.635	0.063	0.198
-584.865	-154.126	-0.225	-0.019
-583.850	800.000	-0.104	0.364
-582.836	-121.030	0.432	-0.091
-581.821	-104.192	-0.406	-0.118
-580.806	-144.723	0.252	0.029
-579.792	310.664	-0.102	-0.241
-578.777	-163.918	0.422	-0.024
-577.763	13.425	-0.154	0.150
-576.748	-125.003	-0.302	-0.058
-575.733	-108.595	0.288	-0.077
-574.719	-26.619	0.135	0.099
-573.704	800.000	-0.039	0.157
-572.690	3.196	-0.130	0.118
-571.675	-145.407	0.123	-0.014
-570.661	238.404	-0.144	-0.302
-569.646	800.000	-0.052	-0.201
-568.631	-154.152	-0.400	-0.034
-567.617	374.389	0.029	0.074
-566.602	9.208	0.078	0.074
-565.588	-200.000	-0.026	0.174
-564.573	-104.664	-0.068	0.020
-563.558	84.699	0.219	0.302
-562.544	315.116	0.108	-0.257
-561.529	800.000	0.128	-0.482
-560.515	-200.000	0.003	-0.213
-559.500	-200.000	0.001	-0.272
-558.485	-55.023	0.029	-0.016
-557.471	-52.354	0.234	-0.136
-556.456	-200.000	-0.022	0.369
-555.442	-117.708	0.337	0.076
-554.427	800.000	0.038	0.147
-553.412	16.725	-0.298	0.296
-552.398	-127.527	-0.500	-0.090
-551.383	106.606	-0.045	0.067
-550.369	148.229	-0.113	0.192
-549.354	110.333	0.221	-0.334
-548.339	-86.132	-0.428	-0.165
-547.325	149.538	-0.206	0.352
-546.310	274.151	0.122	-0.272
-545.296	275.608	0.132	0.295
-544.281	-200.000	0.050	-0.313
-543.266	39.760	-0.255	0.288
-542.252	275.511	-0.195	0.436
-541.237	94.385	-0.304	0.434
-540.223	800.000	-0.052	-0.267
-539.208	-200.000	-0.045	-0.360
-538.193	220.349	0.215	0.435
-537.179	-53.384	0.538	-0.309
-536.164	138.153	0.208	0.344
-535.150	535.500	-0.078	0.234
-534.135	-137.555	0.327	0.046
-533.121	-94.697	-0.350	0.119
-532.106	-60.149	-0.197	-0.105
-531.091	36.935	0.404	0.449
-530.077	-26.280	0.134	0.098
-529.062	-178.540	-0.147	-0.004
-528.048	51.627	-0.166	-0.198
-527.033	-20.737	-0.161	-0.124
-526.018	-166.195	-0.022	0.001
-525.004	121.361	-0.086	-0.135
-523.989	344.246	0.103	-0.254
-522.975	198.317	-0.077	0.148
-521.960	-64.351	-0.255	0.130
-520.945	158.083	0.235	-0.410
-519.931	-66.834	0.188	-0.093
-518.916	180.694	-0.154	-0.285
-517.902	-43.149	-0.160	-0.101
-516.887	-200.000	0.017	-0.141
-515.872	-53.586	0.179	-0.102
-514.858	-114.596	-0.171	0.041
-513.843	745.255	0.136	-0.464
-512.829	-152.647	0.387	0.034
-511.814	-200.000	0.039	-0.287
-510.799	-84.845	-0.176	-0.069
-509.785	584.782	-0.093	0.290
-508.770	272.579	0.167	-0.370
-507.756	-200.000	-0.002	-0.102
-506.741	-200.000	-0.016	-0.499
-505.726	205.414	-0.194	0.379
-504.712	-200.000	0.100	0.583
-503.697	-200.000	0.065	0.553
-502.683	797.555	0.043	-0.151
-501.668	42.517	-0.189	-0.216
-500.653	272.333	-0.284	0.630
-499.639	-149.157	0.249	-0.025
-498.624	11.997	-0.247	-0.239
-497.610	-41.116	0.259	0.167
-496.595	-33.954	-0.273	-0.188
-495.581	-65.083	-0.113	-0.057
-494.566	-42.857	0.131	0.083
-493.551	-143.397	0.322	0.038
-492.537	-166.521	0.145	-0.007
-491.522	17.058	0.244	-0.242
-490.508	-117.635	0.207	-0.047
-489.493	-98.223	0.317	-0.101
-488.478	272.410	0.111	-0.246
-487.464	-114.850	-0.403	0.096
-486.449	269.041	0.137	0.302
-485.435	-45.312	-0.487	0.302
-484.420	14.622	-0.088	-0.086
-483.405	800.000	0.101	0.412
-482.391	191.361	0.097	-0.184
-481.376	-44.378	0.532	0.333
-480.362	-200.000	-0.044	0.278
-479.347	49.179	-0.275	-0.324
-478.332	-200.000	0.056	-0.453
-477.318	40.628	0.157	-0.177
-476.303	800.000	0.103	-0.443
-475.289	538.359	0.094	-0.282
-474.274	-29.003	-0.148	-0.106
-473.259	58.892	-0.131	0.162
-472.245	-61.078	0.536	0.283
-471.230	800.000	-0.046	0.213
-470.216	83.498	0.302	-0.413
-469.201	560.696	-0.037	0.113
-468.186	-70.920	0.170	0.080
-467.172	241.727	0.060	0.125
-466.157	86.100	0.227	-0.313
-465.143	800.000	-0.048	-0.181
-464.128	-200.000	0.037	-0.438
-463.113	800.000	0.015	-0.057
-462.099	203.074	-0.356	0.691
-461.084	-45.056	0.335	0.208
-460.070	-41.535	0.162	-0.104
-459.055	-71.745	0.232	-0.108
-458.040	-114.396	-0.449	-0.107
-457.026	234.105	0.061	-0.125
-456.011	800.000	0.035	-0.149
-454.997	-65.837	-0.186	-0.093
-453.982	-23.972	0.110	0.082
-452.968	258.475	0.074	-0.159
-451.953	-135.436	-0.228	0.034
-450.938	-79.702	0.359	-0.151
-449.924	425.531	0.041	-0.112
-448.909	19.841	-0.094	-0.095
-447.895	-200.000	0.012	-0.173
-446.880	9.817	-0.144	0.136
-445.865	-75.598	0.168	-0.075
-444.851	146.571	0.049	-0.083
-443.836	-74.437	-0.246	0.111
-442.822	-86.231	0.494	-0.190
-441.807	159.897	0.145	-0.253
-440.792	-39.731	0.335	-0.218
-439.778	125.460	0.140	-0.221
-438.763	-133.424	0.318	0.050
-437.749	-51.743	-0.118	0.069
-436.734	-119.576	-0.159	0.034
-435.719	800.000	0.078	-0.397
-434.705	-200.000	0.016	-0.121
-433.690	800.000	0.061	-0.256
-432.676	76.038	0.256	-0.339
-431.661	-96.794	-0.373	-0.122
-430.646	491.982	-0.171	-0.492
-429.632	-123.795	-0.145	-0.028
-428.617	18.523	-0.168	0.168
-427.603	-140.262	-0.405	-0.052
-426.588	-200.000	-0.008	-0.076
-425.573	270.340	0.232	0.513
-424.559	-77.391	0.030	0.013
-423.544	56.287	0.311	0.378
-422.530	-160.189	-0.491	-0.033
-421.515	-200.000	-0.041	-0.235
-420.500	-159.554	-0.467	0.032
-419.486	606.126	-0.010	0.030
-418.471	-200.000	-0.010	-0.106
-417.457	-57.344	-0.207	-0.114
-416.442	-128.487	0.411	0.072
-415.428	184.112	-0.088	0.163
-414.413	-58.507	-0.026	-0.014
-413.398	800.000	-0.116	-0.553
-412.384	16.730	-0.363	-0.358
-411.369	58.989	0.253	0.311
-410.355	-200.000	-0.067	-0.407
-409.340	-200.000	0.002	0.071
-408.325	384.273	-0.078	0.203
-407.311	800.000	-0.104	0.392
-406.296	-33.175	-0.224	0.155
-405.282	-116.418	0.683	0.157
-404.267	-81.182	-0.183	-0.075
-403.252	259.272	-0.065	-0.142
-402.238	-200.000	-0.025	-0.208
-401.223	-200.000	-0.008	-0.306
-400.209	-95.873	0.304	0.101
-399.194	-78.775	0.197	-0.084
-398.179	-122.587	0.261	0.053
-397.165	48.904	0.210	0.247
-396.150	-42.227	-0.265	0.169
-395.136	-150.983	-0.369	0.034
-394.121	0.882	0.260	0.232
-393.106	756.386	-0.110	0.373
-392.092	371.674	-0.057	-0.145
-391.077	-129.850	0.350	0.059
-390.063	38.892	0.231	-0.257
-389.048	-73.120	0.140	-0.064
-388.033	-48.937	0.194	-0.116
-387.019	24.187	-0.137	-0.141
-386.004	-90.954	0.026	-0.009
-384.990	54.817	-0.155	0.187
-383.975	372.260	-0.101	-0.257
-382.960	155.376	0.154	-0.265
-381.946	-91.306	-0.363	-0.129
-380.931	-45.291	-0.190	0.118
-379.917	-50.494	0.047	0.027
-378.902	643.522	-0.135	0.431
-377.888	161.648	-0.115	-0.201
-376.873	-200.000	-0.052	0.328
-375.858	-200.000	-0.009	-0.120
-374.844	66.666	0.117	-0.148
-373.829	14.020	-0.298	0.290
-372.815	165.369	-0.190	0.337
-371.800	-79.353	-0.199	0.084
-370.785	-129.952	-0.546	-0.092
-369.771	-20.092	0.241	-0.185
-368.756	-55.464	-0.525	0.293
-367.742	102.413	-0.202	0.295
-366.727	-21.358	-0.057	0.043
-365.712	495.590	0.166	0.478
-364.698	-102.799	0.157	-0.046
-363.683	-31.780	-0.065	-0.045
-362.669	133.673	0.360	-0.582
-361.654	-46.954	0.307	-0.186
-360.639	27.138	0.053	0.056
-359.625	173.387	0.117	-0.211
-358.610	800.000	-0.055	-0.268
-357.596	-50.083	-0.170	-0.100
-356.581	-169.294	0.508	0.023
-355.566	46.869	0.179	0.207
-354.552	555.495	-0.101	-0.304
-353.537	27.020	-0.420	0.439
-352.523	-75.707	0.069	-0.030
-351.508	-107.446	0.029	0.008
-350.493	624.926	-0.118	-0.374
-349.479	111.853	-0.048	0.072
-348.464	296.963	-0.198	0.455
-347.450	-38.270	-0.170	0.112
-346.435	-88.865	0.147	-0.054
-345.420	-188.533	0.217	0.003
-344.406	394.860	-0.016	0.041
-343.391	245.426	-0.210	-0.442
-342.377	751.982	-0.042	-0.144
-341.362	412.660	0.171	-0.456
-340.348	-111.744	-0.278	0.070
-339.333	65.834	0.182	-0.230
-338.318	-200.000	0.004	0.126
-337.304	-181.867	-0.558	0.013
-336.289	-86.376	-0.309	-0.118
-335.275	105.303	0.214	0.315
-334.260	-103.546	0.381	0.111
-333.245	95.032	-0.181	-0.257
-332.231	63.419	-0.216	-0.270
-331.216	-9.680	0.075	-0.062
-330.202	-151.595	0.278	-0.025
-329.187	744.071	-0.109	-0.367
-328.172	-125.435	-0.181	0.034
-327.158	368.968	-0.073	0.184
-326.143	344.780	-0.112	0.274
-325.129	321.538	-0.145	-0.346
-324.114	250.946	0.145	-0.309
-323.099	-93.254	-0.178	0.061
-322.085	-51.398	-0.316	0.184
-321.070	436.331	-0.011	0.031
-320.056	-38.555	0.261	0.172
-319.041	800.000	-0.075	-0.382
-318.026	6.715	-0.101	-0.093
-317.012	-118.620	0.146	-0.032
-315.997	180.908	0.154	-0.282
-314.983	-93.638	0.343	-0.117
-313.968	38.549	-0.083	-0.092
-312.953	800.000	-0.072	0.301
-311.939	-165.474	-0.466	-0.025
-310.924	-61.386	0.238	-0.124
-309.910	79.711	-0.082	-0.110
-308.895	-36.087	0.073	-0.049
-307.880	677.078	-0.032	-0.104
-306.866	-125.197	-0.317	0.060
-305.851	-0.361	-0.072	0.064
-304.837	61.845	0.290	-0.360
-303.822	-37.999	0.395	-0.261
-302.807	-200.000	0.008	0.318
-301.793	-200.000	0.004	-0.193
-300.778	-43.501	0.398	0.249
-299.764	800.000	-0.083	0.415
-298.749	-44.667	0.138	-0.086
-297.735	-44.957	0.189	-0.117
-296.720	-63.168	0.265	0.135
-295.705	39.617	-0.150	-0.168
-294.691	-8.403	-0.155	0.129
-293.676	-131.935	-0.443	0.071
-292.662	-48.657	-0.252	0.150
-291.647	-33.296	-0.147	-0.101
-290.632	-62.495	-0.326	0.168
-289.618	800.000	0.088	0.415
-288.603	-8.129	-0.295	-0.247
-287.589	-200.000	0.000	0.628
-286.574	122.101	-0.245	0.381
-285.559	-200.000	0.019	0.302
-284.545	800.000	0.038	-0.165
-283.530	-165.549	0.449	-0.024
-282.516	800.000	0.116	0.475
-281.501	800.000	-0.118	0.459
-280.486	7.283	-0.069	-0.064
-279.472	310.930	0.039	-0.091
-278.457	108.354	0.311	-0.462
-277.443	-200.000	0.104	-0.606
-276.428	-200.000	0.050	-0.442
-275.413	-142.774	-0.635	0.076
-274.399	-200.000	0.006	-0.351
-273.384	800.000	-0.124	0.478
-272.370	-200.000	-0.026	-0.266
-271.355	68.513	-0.156	-0.199
-270.340	-67.287	0.144	0.070
-269.326	-94.314	0.410	-0.139
-268.311	-52.299	-0.141	-0.081
-267.297	395.486	0.031	-0.081
-266.282	248.214	0.056	0.119
-265.267	-12.999	-0.609	-0.492
-264.253	-101.175	-0.313	0.095
-263.238	-68.976	0.278	-0.132
-262.224	-190.001	0.568	0.008
-261.209	109.822	-0.165	-0.246
-260.195	-48.193	0.352	0.211
-259.180	-104.979	0.266	0.075
-258.165	-68.090	0.277	0.133
-257.151	-16.514	0.238	-0.187
-256.136	-132.318	0.128	0.020
-255.122	-55.373	0.416	0.231
-254.107	-200.000	0.024	-0.156
-253.092	800.000	-0.143	0.553
-252.078	314.341	0.171	-0.403
-251.063	135.626	-0.099	-0.161
-250.049	67.674	0.305	0.388
-249.034	36.012	-0.404	0.441
-248.019	-200.000	-0.014	0.646
-247.005	-200.000	-0.019	-0.116
-245.990	324.738	0.104	-0.247
-244.976	387.331	-0.157	0.405
-243.961	361.771	-0.065	0.163
-242.946	-90.136	0.466	0.168
-241.932	-106.724	0.256	0.070
-240.917	-132.169	-0.236	-0.038
-239.903	-200.000	0.006	0.228
-238.888	68.558	0.279	0.356
-237.873	-174.997	-0.614	0.021
-236.859	-111.933	-0.035	-0.009
-235.844	-200.000	-0.087	0.572
-234.830	88.608	-0.114	0.157
-233.815	-125.013	0.474	-0.090
-232.800	-98.232	-0.328	0.104
-231.786	104.176	-0.084	0.122
-230.771	800.000	0.075	0.361
-229.757	-158.491	-0.037	-0.003
-228.742	-16.794	-0.337	0.264
-227.727	127.778	-0.155	-0.246
-226.713	5.830	-0.174	0.159
-225.698	100.165	0.150	-0.217
-224.684	-120.105	-0.389	-0.082
-223.669	25.344	0.197	0.203
-222.655	281.701	0.150	-0.334
-221.640	-200.000	-0.041	0.295
-220.625	-102.545	-0.310	-0.091
-219.611	-0.960	-0.316	-0.277
-218.596	524.631	-0.155	0.454
-217.582	-30.926	-0.261	0.183
-216.567	-200.000	-0.006	-0.152
-215.552	194.598	-0.058	-0.109
-214.538	-145.025	0.417	0.047
-213.523	126.383	-0.122	-0.192
-212.509	36.636	-0.214	-0.234
-211.494	-200.000	0.019	0.317
-210.479	-115.220	-0.094	-0.022
-209.465	297.622	0.220	0.503
-208.450	-200.000	-0.012	0.116
-207.436	800.000	-0.055	0.195
-206.421	-20.991	-0.270	0.205
-205.406	10.456	0.210	-0.198
-204.392	-200.000	-0.041	-0.258
-203.377	-95.018	0.173	-0.058
-202.363	-200.000	0.019	0.119
-201.348	158.312	0.270	0.465
-200.333	97.689	0.300	0.428
-199.319	-200.000	0.096	0.597
-198.304	-158.913	-0.204	-0.014
-197.290	800.000	-0.091	0.448
-196.275	-200.000	-0.044	0.269
-195.260	-57.436	-0.061	0.033
-194.246	562.903	-0.078	-0.234
-193.231	-90.581	0.164	0.059
-192.217	11.492	-0.170	-0.162
-191.202	-200.000	-0.008	-0.490
-190.187	-11.968	0.181	-0.147
-189.173	117.653	0.047	0.072
-188.158	-106.706	-0.326	0.089
-187.144	-134.462	0.392	0.059
-186.129	-59.993	0.425	-0.224
-185.114	420.805	-0.039	0.105
-184.100	637.320	0.159	0.502
-183.085	-119.582	-0.578	-0.123
-182.071	-118.549	0.822	-0.179
-181.056	-74.180	-0.223	0.099
-180.042	17.587	-0.130	-0.128
-179.027	800.000	0.113	0.464
-178.012	-184.250	0.268	0.005
-176.998	84.340	0.047	-0.064
-175.983	-20.642	0.270	0.205
-174.969	157.980	0.018	0.031
-173.954	-100.044	0.149	-0.046
-172.939	55.123	0.200	-0.240
-171.925	309.723	0.062	0.145
-170.910	-116.270	-0.499	0.114
-169.896	118.373	0.105	0.161
-168.881	-33.293	-0.460	0.314
-167.866	81.507	-0.237	0.318
-166.852	-75.200	-0.120	-0.053
-165.837	-83.105	0.390	0.155
-164.823	-151.596	0.837	0.076
-163.808	250.473	-0.268	-0.565
-162.793	-88.232	0.354	-0.130
-161.779	163.996	0.109	0.191
-160.764	-200.000	0.035	0.210
-159.750	445.277	0.058	0.159
-158.735	-36.632	-0.481	0.320
-157.720	-71.084	0.356	-0.165
-156.706	-102.418	-0.115	0.034
-155.691	-175.151	0.287	0.010
-154.677	-27.527	0.219	-0.157
-153.662	-110.951	-0.387	0.098
-152.647	800.000	-0.061	0.297
-151.633	-150.396	-0.108	0.010
-150.618	-119.185	-0.414	0.089
-149.604	-45.670	0.345	-0.211
-148.589	-167.002	0.083	-0.004
-147.574	-152.704	0.274	0.024
-146.560	-134.411	-0.044	0.007
-145.545	-121.336	0.178	0.037
-144.531	-75.154	0.229	-0.101
-143.516	-177.304	-0.210	-0.006
-142.502	-153.544	-0.365	0.031
-141.487	144.063	-0.425	-0.702
-140.472	-91.595	0.334	-0.117
-139.458	-163.963	0.271	-0.015
-138.443	2.160	-0.262	-0.234
-137.429	-200.000	-0.014	-0.352
-136.414	-125.438	0.533	0.099
-135.399	-96.390	-0.693	0.225
-134.385	106.439	-0.123	-0.180
-133.370	-200.000	-0.018	0.358
-132.356	-112.421	-0.207	0.051
-131.341	-12.838	0.219	-0.176
-130.326	-70.255	-0.156	0.073
-129.312	157.861	0.138	0.236
-128.297	-90.509	-0.147	0.052
-127.283	-113.914	0.091	-0.022
-126.268	171.983	-0.032	0.057
-125.253	12.053	0.262	-0.249
-124.239	-159.663	-0.203	0.014
-123.224	-29.370	0.299	-0.211
