DTS Sentinel unit serial number:	SN409020Multiplexer serial number:	ORYXHardware model number:	OX4-SRSoftware version number:	ORYX F/W v3.00 Oryx Data Collector v3.7.2.0data status	okinstallation	HaddamTimeLapsedifferential loss correction	single-endedforward channel	channel 3reverse channel	N/Adate	2011/06/21time	21:46:16forward acquisition time	30.00reverse acquisition time	0.00gamma	498.7831k internal	0.1761k external	0.1761temperature offset calibration	1.0074default loss term (dB/km)	0.3790temperature slope calibration	1.3530multiplexer offset coefficient	1.0000multiplexer slope coefficient	1.0000fibre end	0.00T internal ref (°C)	25.59T ext. ref 1 (°C)	19.32T ext. ref 2 (°C)	0.04length (m)	temperature (°C)	Stokes	anti-Stokes-747.200	-200.000	-0.028	0.233
-746.185	-29.243	-0.394	0.298
-745.171	26.402	-0.210	-0.231
-744.156	316.201	-0.227	0.567
-743.142	56.903	-0.046	-0.059
-742.127	-16.247	0.267	-0.223
-741.112	-200.000	0.044	-0.364
-740.098	45.925	-0.228	-0.278
-739.083	-0.362	-0.130	-0.122
-738.069	-22.950	0.357	0.283
-737.054	800.000	-0.118	-0.480
-736.039	800.000	-0.012	-0.054
-735.025	302.753	0.120	-0.295
-734.010	-90.727	0.149	-0.056
-732.996	-144.590	0.567	0.068
-731.981	-117.886	0.339	-0.080
-730.966	-159.506	0.109	-0.008
-729.952	124.470	0.137	0.227
-728.937	31.707	-0.152	-0.173
-727.923	49.032	-0.458	-0.568
-726.908	-200.000	-0.037	0.219
-725.894	65.730	0.432	-0.579
-724.879	800.000	0.015	-0.068
-723.864	-120.399	0.166	-0.037
-722.850	72.643	0.186	-0.256
-721.835	-109.658	-0.133	0.037
-720.821	-6.749	-0.238	-0.214
-719.806	-90.546	-0.269	0.102
-718.791	800.000	-0.081	0.405
-717.777	-178.200	0.621	0.019
-716.762	12.190	-0.231	0.234
-715.748	381.370	0.061	-0.167
-714.733	-78.311	0.232	-0.104
-713.718	106.732	0.307	0.481
-712.704	263.530	-0.183	-0.421
-711.689	165.082	-0.295	0.551
-710.675	56.027	0.061	-0.078
-709.660	-80.757	-0.153	0.067
-708.645	290.522	-0.129	0.310
-707.631	-200.000	-0.043	-0.475
-706.616	-200.000	-0.358	-0.001
-705.602	-24.376	-0.244	0.192
-704.587	624.800	-0.086	0.288
-703.572	-143.764	-0.231	-0.028
-702.558	-5.765	0.148	0.134
-701.543	413.281	0.223	-0.629
-700.529	-79.473	0.339	0.151
-699.514	-106.919	0.049	0.014
-698.499	111.237	-0.031	-0.049
-697.485	-200.000	-0.048	-0.626
-696.470	-86.315	0.133	0.054
-695.456	800.000	-0.025	0.125
-694.441	-13.299	-0.158	0.135
-693.426	96.771	0.100	0.151
-692.412	-104.184	-0.302	0.092
-691.397	-30.749	0.458	-0.341
-690.383	-42.833	0.160	0.107
-689.368	56.805	-0.203	-0.261
-688.354	-58.376	0.144	-0.082
-687.339	31.565	0.103	0.116
-686.324	-31.684	-0.113	-0.083
-685.310	-75.553	-0.559	-0.261
-684.295	-67.624	0.327	0.168
-683.281	327.698	0.283	0.719
-682.266	800.000	-0.129	-0.502
-681.251	-135.209	0.377	-0.059
-680.237	800.000	0.048	0.263
-679.222	-34.325	-0.189	0.136
-678.208	-101.888	0.216	-0.068
-677.193	-62.065	-0.348	-0.191
-676.178	204.885	0.257	-0.528
-675.164	51.803	0.316	-0.396
-674.149	502.005	0.097	-0.297
-673.135	-200.000	0.117	-0.729
-672.120	284.379	0.024	-0.058
-671.105	-9.845	-0.224	-0.196
-670.091	-62.204	-0.252	0.138
-669.076	-19.153	-0.214	0.175
-668.062	212.109	0.137	0.285
-667.047	-132.519	-0.597	0.100
-666.032	-117.958	-0.387	0.091
-665.018	290.250	0.123	0.294
-664.003	100.322	-0.236	0.361
-662.989	-98.019	0.139	-0.047
-661.974	-141.949	0.454	-0.059
-660.959	-64.247	0.512	0.274
-659.945	-200.000	-0.131	-0.784
-658.930	-81.335	0.348	0.151
-657.916	-150.780	-0.583	0.058
-656.901	308.106	0.220	-0.544
-655.886	-113.116	-0.357	0.092
-654.872	-33.716	-0.347	-0.251
-653.857	-180.795	-0.346	-0.009
-652.843	-94.755	-0.492	-0.175
-651.828	-5.651	-0.325	0.293
-650.814	-93.105	0.236	0.086
-649.799	32.775	0.221	0.252
-648.784	-200.000	0.016	0.338
-647.770	72.813	0.211	-0.290
-646.755	800.000	0.035	-0.199
-645.741	-140.683	0.469	-0.063
-644.726	382.834	-0.177	0.481
-643.711	-140.241	-0.346	-0.047
-642.697	-141.831	-0.423	-0.055
-641.682	157.502	0.243	-0.443
-640.668	-37.110	0.258	-0.181
-639.653	114.849	-0.088	-0.142
-638.638	-200.000	-0.006	0.125
-637.624	380.812	0.211	0.573
-636.609	-200.000	-0.026	-0.177
-635.595	79.228	0.151	-0.213
-634.580	321.453	-0.147	0.370
-633.565	800.000	0.122	0.656
-632.551	-200.000	-0.010	-0.108
-631.536	-70.615	-0.086	-0.043
-630.522	-43.058	-0.196	-0.131
-629.507	-155.003	-0.137	-0.012
-628.492	800.000	0.076	0.392
-627.478	-200.000	0.011	0.097
-626.463	-47.718	0.293	0.186
-625.449	116.532	-0.130	0.210
-624.434	42.185	-0.194	0.231
-623.419	-121.266	-0.359	-0.078
-622.405	-49.480	0.134	0.084
-621.390	49.395	0.260	0.322
-620.376	24.825	0.356	-0.388
-619.361	-88.832	-0.510	-0.198
-618.346	98.787	-0.188	0.285
-617.332	-77.036	0.434	-0.198
-616.317	739.214	0.058	0.205
-615.303	-158.457	-0.220	-0.016
-614.288	-88.576	0.265	-0.103
-613.273	-43.755	0.180	0.119
-612.259	-114.970	-0.224	-0.055
-611.244	-85.160	0.373	0.152
-610.230	58.684	-0.150	0.194
-609.215	-90.765	0.138	-0.052
-608.201	-129.705	-0.479	-0.086
-607.186	-105.753	0.175	-0.052
-606.171	-103.600	0.211	0.065
-605.157	-29.362	-0.466	0.349
-604.142	-120.988	0.299	0.065
-603.128	-200.000	0.031	-0.385
-602.113	571.759	-0.015	-0.047
-601.098	-82.607	-0.308	-0.131
-600.084	1.694	0.211	0.199
-599.069	179.463	0.130	0.251
-598.055	58.703	-0.408	0.527
-597.040	640.399	-0.070	0.234
-596.025	63.031	-0.081	-0.107
-595.011	-108.961	-0.247	-0.069
-593.996	-35.743	-0.085	-0.061
-592.982	-113.909	0.103	-0.026
-591.967	-83.986	-0.230	0.096
-590.952	800.000	0.021	-0.110
-589.938	292.270	0.294	-0.707
-588.923	545.674	-0.070	-0.222
-587.909	-147.906	-0.294	0.032
-586.894	69.199	0.161	-0.217
-585.879	800.000	-0.042	0.188
-584.865	-166.947	0.405	-0.021
-583.850	-112.162	-0.169	-0.044
-582.836	300.661	-0.249	0.605
-581.821	-133.905	-0.299	-0.048
-580.806	-149.644	-0.194	-0.020
-579.792	-200.000	-0.002	0.067
-578.777	5.100	-0.141	-0.136
-577.763	122.945	-0.146	0.240
-576.748	-80.305	-0.064	0.028
-575.733	-77.210	0.649	-0.295
-574.719	-111.297	0.276	-0.073
-573.704	800.000	0.043	-0.184
-572.690	-46.053	0.060	0.039
-571.675	718.110	-0.081	0.284
-570.661	96.959	-0.280	0.422
-569.646	-118.881	-0.324	0.074
-568.631	377.404	0.040	-0.109
-567.617	-88.146	0.295	-0.115
-566.602	-200.000	-0.013	-0.761
-565.588	800.000	-0.065	-0.353
-564.573	800.000	0.024	0.112
-563.558	456.273	-0.107	0.314
-562.544	-79.856	-0.205	0.090
-561.529	-200.000	-0.024	-0.258
-560.515	-63.697	-0.244	-0.131
-559.500	20.404	0.161	0.170
-558.485	-142.044	0.280	-0.036
-557.471	-36.015	-0.251	0.178
-556.456	90.478	0.294	0.432
-555.442	77.554	-0.383	-0.535
-554.427	62.274	0.078	-0.103
-553.412	-20.989	-0.240	-0.193
-552.398	-66.957	-0.774	-0.399
-551.383	-97.107	0.184	-0.063
-550.369	366.803	0.116	-0.309
-549.354	-200.000	0.030	0.404
-548.339	-115.804	0.256	0.062
-547.325	144.756	0.236	0.415
-546.310	-200.000	-0.034	0.228
-545.296	-200.000	0.009	0.411
-544.281	-200.000	0.039	-0.262
-543.266	177.945	-0.082	0.157
-542.252	-39.419	-0.299	0.205
-541.237	-200.000	0.018	-0.187
-540.223	47.323	-0.199	-0.242
-539.208	-14.809	0.183	-0.154
-538.193	-200.000	-0.026	0.466
-537.179	-71.846	-0.165	0.080
-536.164	-45.214	0.057	-0.037
-535.150	-22.346	-0.209	0.166
-534.135	-23.735	0.157	-0.123
-533.121	185.267	-0.054	0.106
-532.106	35.189	-0.225	0.258
-531.091	-130.950	0.115	0.020
-530.077	131.309	0.112	-0.188
-529.062	88.981	0.293	0.428
-528.048	-120.060	0.295	-0.066
-527.033	-44.849	-0.364	0.237
-526.018	-75.038	0.162	-0.076
-525.004	267.993	-0.239	0.550
-523.989	-175.706	0.205	-0.007
-522.975	649.294	-0.233	-0.784
-521.960	-143.871	0.332	0.040
-520.945	67.013	-0.100	-0.133
-519.931	33.671	-0.262	0.298
-518.916	-22.017	-0.090	-0.071
-517.902	-71.721	-0.230	-0.112
-516.887	-108.790	-0.224	-0.062
-515.872	-1.435	0.204	-0.188
-514.858	29.959	0.217	0.243
-513.843	-109.514	0.146	-0.040
-512.829	135.512	0.185	0.315
-511.814	-200.000	0.026	-0.248
-510.799	-141.700	-0.382	-0.050
-509.785	-52.189	-0.508	-0.307
-508.770	-174.305	-0.464	-0.017
-507.756	31.856	0.381	0.429
-506.741	283.470	-0.115	-0.271
-505.726	-89.057	-0.156	-0.060
-504.712	218.887	-0.140	0.293
-503.697	-59.267	0.226	0.127
-502.683	105.125	-0.246	0.380
-501.668	-152.611	-0.144	0.013
-500.653	-169.083	0.371	-0.018
-499.639	800.000	-0.072	0.265
-498.624	-120.839	0.052	0.011
-497.610	94.811	-0.198	-0.296
-496.595	800.000	-0.114	-0.601
-495.581	-200.000	-0.051	-0.407
-494.566	-84.005	0.380	-0.157
-493.551	279.854	-0.196	0.461
-492.537	-28.653	-0.269	0.202
-491.522	231.236	0.158	0.340
-490.508	-28.209	0.102	0.077
-489.493	-168.812	0.197	-0.010
-488.478	-39.476	-0.234	0.160
-487.464	-200.000	-0.024	-0.285
-486.449	10.663	-0.375	0.374
-485.435	-47.344	0.235	-0.149
-484.420	152.322	0.093	-0.166
-483.405	84.389	-0.162	-0.232
-482.391	-200.000	-0.035	0.244
-481.376	-29.193	0.154	0.115
-480.362	697.769	-0.167	-0.576
-479.347	-125.971	0.173	0.034
-478.332	-105.985	0.131	0.038
-477.318	232.912	-0.046	0.098
-476.303	-79.830	0.342	-0.150
-475.289	-75.150	0.436	0.203
-474.274	-200.000	-0.002	-0.128
-473.259	-200.000	-0.048	0.426
-472.245	-125.735	-0.367	0.072
-471.230	-166.286	-0.427	0.023
-470.216	-11.302	0.366	-0.315
-469.201	-200.000	0.016	0.152
-468.186	800.000	-0.114	-0.585
-467.172	-46.267	0.377	-0.242
-466.157	-24.106	-0.243	-0.189
-465.143	-123.531	-0.317	0.065
-464.128	157.609	0.185	-0.335
-463.113	353.540	0.082	0.214
-462.099	-94.627	0.347	-0.123
-461.084	-82.770	-0.361	-0.152
-460.070	-174.537	0.202	-0.007
-459.055	-3.712	-0.400	0.362
-458.040	-80.870	-0.475	-0.205
-457.026	-86.774	0.216	-0.086
-456.011	-34.960	0.233	0.166
-454.997	396.793	-0.092	0.252
-453.982	-47.214	-0.167	0.106
-452.968	-5.852	-0.458	-0.409
-451.953	-96.295	-0.226	-0.078
-450.938	-107.212	-0.293	0.084
-449.924	-72.451	0.325	-0.156
-448.909	-200.000	0.092	-0.549
-447.895	-20.261	-0.216	-0.173
-446.880	-124.507	0.708	0.142
-445.865	250.297	0.133	0.295
-444.851	800.000	-0.081	-0.347
-443.836	-200.000	-0.039	-0.420
-442.822	-194.979	-0.385	0.004
-441.807	-92.502	-0.459	-0.167
-440.792	-126.010	-0.509	0.099
-439.778	-166.951	0.529	-0.028
-438.763	-142.093	0.509	-0.065
-437.749	527.469	0.084	0.259
-436.734	10.795	-0.210	0.209
-435.719	-51.541	-0.216	-0.131
-434.705	-85.691	-0.117	-0.047
-433.690	-200.000	-0.013	-0.117
-432.676	800.000	0.054	0.266
-431.661	53.148	-0.111	0.139
-430.646	-55.945	-0.135	-0.079
-429.632	-197.546	0.567	0.004
-428.617	800.000	0.035	-0.183
-427.603	-129.337	0.466	0.084
-426.588	-200.000	0.003	-0.168
-425.573	87.834	-0.128	-0.185
-424.559	-125.715	-0.704	0.138
-423.544	-15.812	-0.254	-0.211
-422.530	80.797	-0.206	-0.290
-421.515	21.443	0.257	0.273
-420.500	80.573	-0.161	0.226
-419.486	-50.229	-0.377	-0.232
-418.471	-26.162	-0.139	-0.106
-417.457	119.107	0.135	0.217
-416.442	-26.069	-0.089	0.068
-415.428	67.512	0.263	0.351
-414.413	800.000	-0.085	-0.352
-413.398	179.915	-0.163	-0.312
-412.384	450.140	-0.099	0.285
-411.369	-153.998	-0.355	-0.031
-410.355	39.743	-0.154	0.181
-409.340	19.081	-0.332	-0.347
-408.325	-35.273	-0.191	0.135
-407.311	-117.462	-0.195	0.046
-406.296	-61.023	-0.142	-0.078
-405.282	162.279	0.159	-0.291
-404.267	-105.957	-0.184	-0.054
-403.252	-200.000	-0.002	0.044
-402.238	227.990	0.104	-0.222
-401.223	-200.000	0.001	-0.097
-400.209	162.469	-0.286	0.524
-399.194	-15.081	0.099	0.082
-398.179	-74.963	-0.215	0.100
-397.165	25.371	0.071	-0.077
-396.150	-87.313	0.246	0.097
-395.136	800.000	-0.043	-0.198
-394.121	345.778	-0.053	0.136
-393.106	-21.107	-0.235	0.187
-392.092	-75.396	0.277	0.128
-391.077	-110.912	-0.157	-0.042
-390.063	-147.871	0.115	0.012
-389.048	28.587	0.225	-0.249
-388.033	-130.615	0.350	-0.061
-387.019	-94.182	-0.470	-0.167
-386.004	-200.000	0.033	0.224
-384.990	-85.495	-0.363	-0.146
-383.975	-73.917	-0.160	0.075
-382.960	-200.000	-0.039	-0.280
-381.946	749.485	0.115	0.406
-380.931	-169.961	-0.352	-0.016
-379.917	800.000	-0.061	0.259
-378.902	-15.282	-0.080	0.067
-377.888	209.664	-0.180	-0.368
-376.873	-139.958	-0.137	0.019
-375.858	800.000	0.078	0.354
-374.844	6.530	-0.282	-0.272
-373.829	8.871	-0.128	0.126
-372.815	-19.748	-0.193	-0.155
-371.800	-130.122	0.127	-0.022
-370.785	-121.629	0.425	-0.091
-369.771	-200.000	0.053	-0.623
-368.756	-184.605	0.113	0.002
-367.742	-145.983	-0.386	0.044
-366.727	-200.000	-0.074	-0.437
-365.712	-200.000	-0.017	-0.552
-364.698	-76.918	0.366	0.166
-363.683	-163.773	-0.038	0.002
-362.669	-80.771	-0.608	-0.262
-361.654	-13.580	0.079	0.067
-360.639	-200.000	0.007	-0.068
-359.625	-200.000	0.008	-0.110
-358.610	-154.314	-0.267	-0.023
-357.596	-92.165	-0.096	-0.035
-356.581	-6.302	-0.341	0.303
-355.566	-13.972	0.255	0.214
-354.552	800.000	0.076	0.346
-353.537	104.663	0.205	0.315
-352.523	383.689	-0.070	-0.188
-351.508	-200.000	-0.008	-0.621
-350.493	44.130	-0.578	-0.690
-349.479	-200.000	0.005	-0.341
-348.464	338.225	-0.142	-0.361
-347.450	-200.000	0.034	-0.337
-346.435	-200.000	0.017	0.222
-345.420	-40.600	-0.574	-0.386
-344.406	124.369	-0.125	-0.204
-343.391	-163.648	-0.883	0.053
-342.377	255.981	-0.255	0.572
-341.362	55.798	0.353	0.445
-340.348	256.791	0.272	-0.609
-339.333	-12.928	-0.090	0.076
-338.318	366.415	-0.063	0.167
-337.304	-66.643	0.517	-0.265
-336.289	-79.327	0.336	0.147
-335.275	-200.000	0.385	-0.000
-334.260	-200.000	0.011	-0.261
-333.245	53.630	0.116	0.145
-332.231	-1.428	0.255	0.234
-331.216	-1.312	0.303	-0.278
-330.202	-128.850	0.738	-0.134
-329.187	-100.052	0.503	-0.162
-328.172	-162.110	0.164	-0.011
-327.158	-92.699	-0.396	-0.143
-326.143	-127.446	-0.191	0.036
-325.129	-166.415	-0.168	0.009
-324.114	-156.769	-0.436	0.034
-323.099	800.000	0.123	-0.678
-322.085	-46.207	-0.261	0.167
-321.070	137.124	-0.156	-0.266
-320.056	-8.858	-0.199	-0.173
-319.041	-93.760	0.244	0.087
-318.026	-32.848	0.052	0.037
-317.012	299.899	-0.144	0.347
-315.997	-69.285	0.337	-0.168
-314.983	-27.215	0.185	0.140
-313.968	94.015	0.080	-0.118
-312.953	-30.776	0.048	-0.035
-311.939	-39.497	-0.389	0.264
-310.924	-200.000	0.038	-0.454
-309.910	-113.328	0.300	0.076
-308.895	-160.019	-0.602	-0.042
-307.880	178.367	0.181	0.345
-306.866	-39.714	-0.173	-0.117
-305.851	743.049	-0.107	-0.375
-304.837	800.000	0.047	-0.187
-303.822	-200.000	-0.002	-0.114
-302.807	591.141	0.067	-0.217
-301.793	-89.506	0.441	-0.167
-300.778	-15.122	-0.263	-0.218
-299.764	-180.428	0.187	0.005
-298.749	800.000	-0.052	-0.209
-297.735	800.000	0.121	-0.510
-296.720	-18.601	0.369	-0.298
-295.705	-200.000	0.027	0.207
-294.691	-25.364	0.283	0.217
-293.676	-97.533	0.284	-0.095
-292.662	-200.000	0.500	-0.001
-291.647	-200.000	-0.013	0.420
-290.632	800.000	0.063	0.269
-289.618	-24.046	-0.084	0.065
-288.603	-56.836	0.713	0.407
-287.589	-105.339	0.337	-0.099
-286.574	800.000	0.038	-0.140
-285.559	645.533	0.174	0.580
-284.545	388.151	-0.084	-0.225
-283.530	-39.038	-0.273	-0.186
-282.516	136.575	-0.135	-0.229
-281.501	-174.567	0.208	0.008
-280.486	-200.000	0.055	0.422
-279.472	-109.096	-0.237	0.065
-278.457	-99.107	0.563	-0.184
-277.443	387.662	-0.140	0.377
-276.428	404.260	0.185	0.508
-275.413	183.984	0.344	0.662
-274.399	69.200	0.436	0.583
-273.384	783.732	-0.080	0.285
-272.370	-90.978	-0.236	0.088
-271.355	-5.379	-0.257	-0.229
-270.340	-200.000	0.007	0.153
-269.326	-18.684	0.214	0.173
-268.311	-125.539	0.678	-0.132
-267.297	-67.065	0.319	0.162
-266.282	-200.000	-0.026	0.378
-265.267	800.000	-0.117	0.442
-264.253	107.551	0.089	0.138
-263.238	800.000	-0.049	-0.227
-262.224	725.943	0.096	0.334
-261.209	-155.049	0.304	0.026
-260.195	33.899	0.248	-0.280
-259.180	-185.459	0.094	0.002
-258.165	464.934	0.083	0.242
-257.151	-22.082	0.089	0.070
-256.136	174.489	-0.154	-0.289
-255.122	800.000	-0.087	-0.319
-254.107	-65.980	-0.197	0.102
-253.092	-62.581	-0.230	-0.123
-252.078	-200.000	-0.008	0.161
-251.063	-65.002	-0.746	0.389
-250.049	-94.280	0.148	0.052
-249.034	101.903	0.270	0.409
-248.019	800.000	-0.085	0.416
-247.005	231.269	-0.022	0.048
-245.990	161.169	0.150	-0.271
-244.976	239.565	0.132	0.285
-243.961	90.819	0.189	0.275
-242.946	-122.608	0.384	0.080
-241.932	-93.045	-0.762	-0.274
-240.917	-96.939	0.082	0.028
-239.903	62.647	-0.095	0.123
-238.888	-6.754	0.202	0.177
-237.873	-200.000	-0.003	0.165
-236.859	115.151	-0.120	-0.190
-235.844	222.216	0.105	-0.219
-234.830	-138.813	-0.271	-0.038
-233.815	-88.208	0.195	0.075
-232.800	-47.753	0.304	0.190
-231.786	-135.553	0.069	0.011
-230.771	-68.379	0.205	-0.103
-229.757	117.977	0.052	0.084
-228.742	-7.921	0.392	0.342
-227.727	-83.941	0.422	-0.173
-226.713	151.849	0.249	-0.440
-225.698	-116.095	-0.400	0.096
-224.684	55.247	-0.203	-0.254
-223.669	257.861	-0.141	-0.316
-222.655	-110.317	0.348	0.093
-221.640	312.897	-0.110	0.270
-220.625	218.505	0.090	-0.186
-219.611	265.134	0.112	0.255
-218.596	-59.386	-0.411	-0.228
-217.582	-161.442	0.338	0.022
-216.567	13.044	-0.489	-0.489
-215.552	-131.622	0.211	0.036
-214.538	-99.202	0.408	0.133
-213.523	70.353	-0.300	0.402
-212.509	-11.624	0.292	-0.248
-211.494	786.767	0.038	-0.137
-210.479	90.276	0.046	0.067
-209.465	800.000	-0.059	0.313
-208.450	800.000	0.083	0.470
-207.436	-200.000	0.048	-0.406
-206.421	-18.186	0.221	0.179
-205.406	-130.717	-0.413	-0.071
-204.392	473.065	0.153	-0.449
-203.377	-200.000	-0.022	-0.131
-202.363	-200.000	0.002	0.047
-201.348	800.000	-0.061	-0.331
-200.333	-33.390	0.499	0.356
-199.319	-56.048	-0.535	-0.307
-198.304	-7.667	-0.135	0.118
-197.290	-95.937	-0.248	-0.085
-196.275	57.148	0.251	0.317
-195.260	-181.300	-0.348	0.009
-194.246	-159.198	0.521	-0.037
-193.231	-130.765	0.624	0.107
-192.217	-103.980	0.356	0.107
-191.202	-142.040	-0.178	0.023
-190.187	655.595	0.157	0.525
-189.173	197.974	-0.085	-0.168
-188.158	201.880	-0.047	0.095
-187.144	310.497	-0.145	0.352
-186.129	-27.812	-0.318	0.238
-185.114	108.248	0.214	0.330
-184.100	-45.867	0.496	0.316
-183.085	10.989	0.266	0.263
-182.071	-34.372	0.160	-0.113
-181.056	-59.483	0.312	-0.173
-180.042	-200.000	0.063	-0.499
-179.027	32.872	0.111	0.124
-178.012	-114.088	0.390	-0.097
-176.998	-62.365	-0.255	0.136
-175.983	655.893	0.109	-0.365
-174.969	-199.085	-0.246	-0.002
-173.954	298.830	-0.007	-0.016
-172.939	-200.000	0.021	0.279
-171.925	-118.127	-0.353	0.081
-170.910	382.086	0.070	-0.187
-169.896	-99.628	-0.123	0.040
-168.881	-128.153	-0.392	0.072
-167.866	-63.402	-0.092	-0.049
-166.852	-51.367	0.167	0.100
-165.837	46.193	0.147	-0.176
-164.823	66.071	-0.098	-0.129
-163.808	-9.956	-0.209	0.179
-162.793	-155.177	-0.473	0.039
-161.779	-18.416	0.191	0.154
-160.764	-26.261	-0.261	-0.197
-159.750	94.061	0.306	-0.449
-158.735	-107.555	0.193	-0.054
-157.720	205.206	-0.054	0.109
-156.706	-151.293	0.292	0.028
-155.691	28.315	0.115	-0.125
-154.677	-79.979	0.191	0.082
-153.662	-110.004	-0.181	0.049
-152.647	143.760	0.484	-0.835
-151.633	-9.153	0.286	-0.246
-150.618	-200.000	0.037	0.414
-149.604	2.636	0.338	0.316
-148.589	-128.319	-0.207	0.038
-147.574	215.363	0.032	0.065
-146.560	800.000	0.073	0.311
-145.545	800.000	0.077	0.366
-144.531	-115.150	0.098	0.024
-143.516	-118.411	0.276	0.063
-142.502	-117.895	0.113	-0.026
-141.487	-200.000	0.000	-0.263
-140.472	599.680	-0.025	0.080
-139.458	-47.613	0.383	0.239
-138.443	-0.245	-0.224	0.206
-137.429	95.832	0.139	-0.205
-136.414	375.343	0.186	-0.492
-135.399	8.637	0.168	0.164
-134.385	-119.416	-0.077	0.017
-133.370	112.880	-0.048	0.076
-132.356	38.269	-0.143	0.165
-131.341	-200.000	0.006	0.139
-130.326	-123.660	0.748	0.152
-129.312	-200.000	0.045	0.299
-128.297	-200.000	-0.016	0.261
-127.283	800.000	0.080	0.435
-126.268	-200.000	-0.042	0.255
-125.253	-200.000	0.010	0.109
-124.239	-200.000	-0.061	-0.591
-123.224	-62.143	0.420	0.225
-122.210	800.000	0.085	0.324
