DTS Sentinel unit serial number:	SN409020Multiplexer serial number:	ORYXHardware model number:	OX4-SRSoftware version number:	ORYX F/W v3.00 Oryx Data Collector v3.7.2.0data status	okinstallation	HaddamTimeLapsedifferential loss correction	single-endedforward channel	channel 3reverse channel	N/Adate	2011/06/21time	19:06:18forward acquisition time	30.00reverse acquisition time	0.00gamma	498.7831k internal	0.1804k external	0.1804temperature offset calibration	1.0074default loss term (dB/km)	0.3790temperature slope calibration	1.3530multiplexer offset coefficient	1.0000multiplexer slope coefficient	1.0000fibre end	0.00T internal ref (°C)	34.78T ext. ref 1 (°C)	26.39T ext. ref 2 (°C)	0.23length (m)	temperature (°C)	Stokes	anti-Stokes-747.200	-71.172	-0.191	-0.092
-746.185	9.607	-0.192	0.188
-745.171	276.268	-0.106	-0.243
-744.156	328.740	0.173	0.429
-743.142	-114.526	0.201	-0.049
-742.127	171.725	-0.189	0.351
-741.112	-200.000	0.007	-0.086
-740.098	-78.232	-0.200	-0.088
-739.083	307.132	0.048	-0.117
-738.069	-105.272	0.543	-0.159
-737.054	-150.024	-0.531	0.053
-736.039	205.163	0.217	0.436
-735.025	172.335	0.074	-0.137
-734.010	-162.020	-0.760	-0.049
-732.996	19.766	0.199	-0.206
-731.981	-50.680	-0.205	-0.124
-730.966	-92.451	-0.029	-0.010
-729.952	800.000	0.083	-0.380
-728.937	82.752	-0.186	0.261
-727.923	-71.627	0.277	-0.133
-726.908	11.314	-0.356	0.351
-725.894	-107.484	0.089	-0.025
-724.879	800.000	-0.051	-0.230
-723.864	-98.821	0.171	0.056
-722.850	138.483	0.208	0.352
-721.835	-1.155	-0.255	-0.232
-720.821	-200.000	-0.036	0.236
-719.806	20.728	-0.349	0.364
-718.791	800.000	0.045	0.166
-717.777	252.928	0.054	-0.120
-716.762	0.477	0.354	0.326
-715.748	-98.548	0.249	-0.081
-714.733	-95.651	-0.499	-0.171
-713.718	-141.178	-0.328	0.043
-712.704	-57.326	0.172	-0.097
-711.689	-200.000	-0.063	-0.588
-710.675	-57.584	-0.340	-0.191
-709.660	-200.000	0.006	-0.119
-708.645	-4.601	-0.365	-0.324
-707.631	800.000	-0.063	-0.325
-706.616	-200.000	-0.004	0.134
-705.602	-140.544	0.066	0.009
-704.587	44.620	-0.104	0.123
-703.572	-49.774	-0.415	0.253
-702.558	-82.932	-0.500	0.207
-701.543	175.792	0.056	0.104
-700.529	-166.526	-0.111	-0.006
-699.514	269.355	0.122	0.276
-698.499	-94.610	-0.225	-0.078
-697.485	14.025	0.190	-0.190
-696.470	-116.343	-0.294	0.070
-695.456	-163.515	-0.391	0.023
-694.441	503.811	0.108	0.324
-693.426	-36.403	-0.323	0.223
-692.412	246.126	0.103	0.223
-691.397	-37.186	-0.182	0.125
-690.383	83.700	-0.227	0.319
-689.368	10.208	0.277	0.271
-688.354	5.214	0.720	-0.682
-687.339	179.363	-0.215	-0.406
-686.324	733.651	0.034	-0.116
-685.310	111.460	-0.330	0.513
-684.295	341.804	0.027	0.069
-683.281	-113.591	0.346	0.086
-682.266	-136.500	-0.304	-0.045
-681.251	583.750	-0.075	0.239
-680.237	248.885	0.103	-0.224
-679.222	144.054	0.031	-0.054
-678.208	0.369	0.048	0.044
-677.193	-54.146	0.543	0.317
-676.178	-166.505	0.151	-0.008
-675.164	333.174	0.080	0.201
-674.149	800.000	-0.088	-0.405
-673.135	-139.656	-0.543	0.074
-672.120	-35.673	-0.472	0.328
-671.105	-29.026	0.269	0.198
-670.091	-200.000	0.009	-0.298
-669.076	140.022	0.265	-0.451
-668.062	127.065	-0.451	0.736
-667.047	-200.000	0.067	0.391
-666.032	-105.150	-0.292	0.085
-665.018	67.904	0.327	0.431
-664.003	-87.667	0.406	0.157
-662.989	98.040	0.128	-0.190
-661.974	-200.000	-0.010	0.335
-660.959	-143.376	-0.338	-0.041
-659.945	41.257	-0.413	-0.480
-658.930	72.622	0.124	0.166
-657.916	-152.263	-0.236	-0.022
-656.901	-200.000	-0.069	-0.417
-655.886	528.871	0.181	-0.552
-654.872	-50.391	0.064	0.039
-653.857	-80.364	-0.230	-0.098
-652.843	-135.696	-0.326	0.049
-651.828	-101.810	-0.316	-0.098
-650.814	-84.281	-0.372	-0.151
-649.799	800.000	-0.025	0.100
-648.784	-200.000	-0.019	0.141
-647.770	323.504	-0.138	-0.340
-646.755	-49.529	-0.310	-0.189
-645.741	-70.730	0.329	-0.159
-644.726	-35.946	0.373	-0.259
-643.711	-160.991	0.603	0.040
-642.697	-93.120	0.541	-0.192
-641.682	-49.233	0.297	0.182
-640.668	17.789	0.306	-0.313
-639.653	-51.741	-0.366	0.218
-638.638	21.055	-0.129	0.135
-637.624	516.519	0.111	-0.334
-636.609	131.468	0.334	-0.552
-635.595	53.574	-0.343	0.422
-634.580	92.553	0.116	-0.168
-633.565	521.421	0.154	-0.466
-632.551	-200.000	0.024	0.297
-631.536	-114.602	-0.119	-0.029
-630.522	-99.728	0.677	-0.216
-629.507	260.396	0.112	0.250
-628.492	-172.496	0.220	-0.009
-627.478	10.983	0.159	0.155
-626.463	690.954	0.072	-0.243
-625.449	-200.000	0.037	0.256
-624.434	-200.000	-0.008	-0.252
-623.419	68.494	-0.133	-0.175
-622.405	-110.724	-0.710	0.187
-621.390	-139.476	-0.209	-0.028
-620.376	82.023	-0.077	-0.107
-619.361	41.535	0.057	0.066
-618.346	6.258	0.321	0.306
-617.332	41.683	-0.086	-0.100
-616.317	33.875	-0.350	-0.391
-615.303	-52.325	0.224	0.133
-614.288	-105.519	0.227	-0.066
-613.273	800.000	0.047	-0.208
-612.259	-148.559	-0.138	0.014
-611.244	-113.656	-0.243	0.060
-610.230	28.699	0.119	0.129
-609.215	306.001	-0.120	0.287
-608.201	49.625	0.204	-0.247
-607.186	277.632	-0.129	-0.296
-606.171	157.953	-0.026	0.047
-605.157	-37.675	0.322	0.219
-604.142	-200.000	-0.013	-0.439
-603.128	-19.761	0.191	0.151
-602.113	-2.863	-0.392	0.350
-601.098	141.544	-0.329	0.560
-600.084	-200.000	-0.006	0.165
-599.069	100.110	0.101	0.150
-598.055	85.130	0.241	0.339
-597.040	-42.141	-0.154	0.101
-596.025	-23.356	0.287	0.221
-595.011	-200.000	-0.069	-0.408
-593.996	13.916	0.169	-0.168
-592.982	14.802	0.271	-0.271
-591.967	328.646	0.069	0.170
-590.952	800.000	0.081	-0.323
-589.938	83.257	0.274	0.382
-588.923	-113.126	-0.541	-0.136
-587.909	800.000	0.078	0.332
-586.894	-79.309	-0.088	0.038
-585.879	-102.551	-0.283	-0.086
-584.865	645.920	0.026	-0.086
-583.850	-200.000	0.023	-0.365
-582.836	-107.016	-0.275	0.077
-581.821	-3.714	-0.165	-0.146
-580.806	433.619	-0.138	-0.385
-579.792	12.137	-0.107	0.106
-578.777	-200.000	-0.344	0.001
-577.763	136.592	-0.295	-0.494
-576.748	283.051	0.110	-0.253
-575.733	-186.161	-0.417	-0.008
-574.719	-131.078	0.675	-0.114
-573.704	-116.095	0.179	0.042
-572.690	133.189	0.132	0.219
-571.675	800.000	-0.149	-0.663
-570.661	34.426	-0.134	0.149
-569.646	191.551	-0.329	-0.637
-568.631	241.665	-0.191	-0.411
-567.617	-108.066	0.231	-0.064
-566.602	-200.000	-0.015	-0.182
-565.588	-168.494	-0.039	-0.002
-564.573	-91.144	0.174	0.063
-563.558	-100.791	0.275	0.086
-562.544	-199.685	0.533	-0.003
-561.529	362.402	-0.064	0.164
-560.515	495.384	0.010	-0.029
-559.500	239.562	-0.162	-0.347
-558.485	-108.227	0.047	-0.013
-557.471	111.072	0.067	0.103
-556.456	406.825	-0.107	0.292
-555.442	21.700	0.242	-0.252
-554.427	-95.776	-0.300	-0.102
-553.412	-72.616	0.179	-0.084
-552.398	-50.830	-0.182	-0.109
-551.383	-63.963	-0.632	-0.329
-550.369	-91.652	-0.032	0.011
-549.354	47.506	0.259	-0.309
-548.339	-84.050	0.516	-0.209
-547.325	-92.366	-0.311	0.111
-546.310	-39.182	0.185	0.124
-545.296	127.002	0.313	-0.508
-544.281	-48.479	-0.145	-0.089
-543.266	266.123	-0.090	0.202
-542.252	38.132	-0.527	0.601
-541.237	-132.193	0.526	-0.086
-540.223	382.527	-0.016	0.043
-539.208	800.000	-0.064	0.262
-538.193	-75.841	-0.197	0.089
-537.179	-167.058	-0.082	0.004
-536.164	-130.779	-0.408	0.069
-535.150	-127.182	-0.150	-0.028
-534.135	165.752	0.073	-0.132
-533.121	31.966	0.196	-0.216
-532.106	-200.000	0.104	0.617
-531.091	-82.513	-0.510	0.211
-530.077	-70.196	-0.155	-0.075
-529.062	800.000	-0.111	-0.454
-528.048	249.073	-0.109	-0.238
-527.033	-111.648	-0.267	0.069
-526.018	-200.000	0.006	0.037
-525.004	-99.608	-0.222	-0.071
-523.989	-3.387	-0.362	-0.322
-522.975	-198.017	-0.254	-0.002
-521.960	-200.000	0.022	0.193
-520.945	-55.457	-0.306	0.175
-519.931	-169.931	0.178	-0.008
-518.916	288.896	0.145	-0.337
-517.902	-159.609	-0.563	-0.039
-516.887	-200.000	-0.001	-0.355
-515.872	-82.270	0.064	-0.027
-514.858	-98.767	-0.181	-0.058
-513.843	800.000	0.080	-0.297
-512.829	-131.238	0.121	0.020
-511.814	-200.000	0.006	-0.049
-510.799	-200.000	-0.050	0.448
-509.785	800.000	-0.078	0.335
-508.770	-87.821	-0.462	-0.177
-507.756	65.603	0.100	-0.129
-506.741	111.085	-0.244	-0.376
-505.726	-101.885	-0.294	0.090
-504.712	-129.121	0.153	0.027
-503.697	-186.465	0.142	0.003
-502.683	800.000	-0.025	-0.142
-501.668	33.465	-0.255	-0.282
-500.653	516.164	0.173	-0.520
-499.639	-6.973	-0.524	-0.454
-498.624	-66.321	-0.233	0.118
-497.610	-99.923	-0.529	-0.168
-496.595	118.012	0.197	-0.311
-495.581	-25.808	-0.070	0.052
-494.566	30.639	-0.167	0.182
-493.551	541.937	0.078	0.238
-492.537	-119.577	0.384	0.084
-491.522	-160.620	-0.202	0.014
-490.508	-13.413	-0.362	-0.299
-489.493	3.009	0.269	-0.250
-488.478	37.364	0.245	0.277
-487.464	-130.026	-0.469	0.081
-486.449	-72.212	0.271	0.128
-485.435	-74.243	0.284	0.130
-484.420	419.986	-0.072	0.198
-483.405	-65.727	0.119	0.061
-482.391	-122.996	0.235	-0.048
-481.376	-30.967	-0.199	-0.143
-480.362	-101.137	0.466	-0.145
-479.347	-156.242	0.160	-0.013
-478.332	2.458	-0.357	-0.329
-477.318	-200.000	0.018	0.231
-476.303	-160.361	-0.310	0.021
-475.289	-4.016	0.247	-0.219
-474.274	202.482	0.154	0.305
-473.259	-76.895	0.298	0.132
-472.245	88.639	0.102	-0.145
-471.230	-56.211	-0.283	-0.160
-470.216	-91.598	-0.327	0.118
-469.201	-200.000	0.035	-0.822
-468.186	-40.873	0.180	-0.118
-467.172	292.056	-0.195	0.455
-466.157	43.133	-0.088	0.102
-465.143	-108.373	0.235	0.064
-464.128	-200.000	0.003	-0.137
-463.113	-200.000	-0.014	-0.298
-462.099	472.806	-0.155	0.447
-461.084	17.871	0.132	-0.135
-460.070	-80.774	0.429	0.181
-459.055	264.840	0.079	-0.176
-458.040	-20.064	0.117	0.092
-457.026	-28.732	0.532	0.389
-456.011	-200.000	0.023	-0.296
-454.997	8.434	-0.118	-0.113
-453.982	44.013	0.261	0.305
-452.968	-25.561	-0.274	-0.206
-451.953	-77.574	0.092	-0.040
-450.938	103.572	0.122	-0.182
-449.924	-180.286	0.337	0.009
-448.909	9.495	-0.047	0.046
-447.895	54.257	0.129	0.159
-446.880	117.602	0.264	0.414
-445.865	2.771	0.318	0.294
-444.851	5.842	-0.183	0.173
-443.836	9.600	-0.191	-0.185
-442.822	-2.317	0.207	0.185
-441.807	-98.458	0.488	0.158
-440.792	-19.905	-0.276	-0.217
-439.778	-4.492	-0.221	-0.194
-438.763	124.016	-0.179	0.287
-437.749	-65.210	-0.587	0.300
-436.734	-74.242	-0.431	0.198
-435.719	177.937	-0.220	-0.410
-434.705	-14.783	-0.313	0.255
-433.690	-83.877	0.140	-0.057
-432.676	19.401	0.305	0.313
-431.661	-73.017	0.225	-0.105
-430.646	-200.000	-0.000	-0.037
-429.632	-136.137	0.331	-0.049
-428.617	33.600	0.333	-0.368
-427.603	151.473	-0.270	0.469
-426.588	-200.000	0.054	-0.314
-425.573	-33.652	-0.203	0.142
-424.559	-130.279	0.443	0.076
-423.544	255.037	0.037	0.080
-422.530	800.000	-0.041	0.230
-421.515	800.000	-0.020	-0.101
-420.500	68.950	-0.134	0.176
-419.486	-141.713	0.126	0.016
-418.471	623.014	0.109	-0.351
-417.457	-131.503	0.040	-0.007
-416.442	169.274	0.209	-0.381
-415.428	-79.236	0.238	0.102
-414.413	-108.608	-0.285	0.077
-413.398	-117.010	-0.289	0.067
-412.384	617.540	-0.102	0.328
-411.369	-129.811	-0.098	0.017
-410.355	-0.791	0.324	-0.292
-409.340	21.629	-0.146	0.151
-408.325	-21.427	0.242	0.187
-407.311	77.992	0.302	0.411
-406.296	-200.000	-0.117	-0.000
-405.282	210.505	-0.185	0.371
-404.267	-68.605	0.314	-0.154
-403.252	-128.546	0.678	0.121
-402.238	-83.857	0.281	-0.113
-401.223	101.875	-0.083	0.123
-400.209	-133.933	0.388	0.061
-399.194	-200.000	-0.030	-0.234
-398.179	-36.020	-0.324	0.222
-397.165	-101.535	-0.304	0.093
-396.150	800.000	-0.109	-0.412
-395.136	192.734	0.063	0.121
-394.121	12.695	0.188	0.185
-393.106	-171.939	0.495	-0.020
-392.092	-36.186	0.258	-0.176
-391.077	800.000	0.039	-0.151
-390.063	267.897	-0.162	-0.362
-389.048	-53.086	0.656	0.382
-388.033	-200.000	0.003	0.572
-387.019	-200.000	0.025	0.326
-386.004	-104.508	0.133	-0.039
-384.990	33.493	0.206	0.228
-383.975	-6.093	0.207	-0.179
-382.960	167.517	-0.148	0.268
-381.946	325.514	0.013	0.032
-380.931	-87.736	0.143	0.055
-379.917	-113.888	0.252	0.062
-378.902	-72.163	-0.322	0.151
-377.888	494.499	-0.130	-0.381
-376.873	-121.413	0.543	-0.114
-375.858	-53.717	-0.102	0.059
-374.844	298.396	-0.231	-0.541
-373.829	-108.774	0.070	0.019
-372.815	800.000	0.018	0.095
-371.800	102.282	0.077	-0.115
-370.785	-47.456	-0.123	-0.075
-369.771	-200.000	0.048	-0.298
-368.756	73.987	-0.263	0.351
-367.742	-49.592	0.378	0.228
-366.727	-14.287	0.217	0.177
-365.712	-200.000	0.033	-0.528
-364.698	518.536	-0.034	-0.102
-363.683	-51.741	-0.075	0.044
-362.669	-41.115	0.046	-0.030
-361.654	-148.900	0.410	0.042
-360.639	65.536	-0.129	-0.166
-359.625	64.521	-0.089	-0.114
-358.610	176.760	0.131	-0.242
-357.596	-89.950	0.430	-0.159
-356.581	-70.196	-0.549	-0.264
-355.566	-25.132	-0.415	0.312
-354.552	-113.711	-0.391	0.096
-353.537	-106.141	0.068	-0.019
-352.523	-182.800	0.518	0.012
-351.508	-160.773	0.461	-0.031
-350.493	83.551	-0.091	-0.127
-349.479	-160.675	0.397	0.026
-348.464	219.470	0.125	0.255
-347.450	-40.620	0.092	0.061
-346.435	6.716	-0.325	-0.307
-345.420	-50.468	-0.233	-0.139
-344.406	800.000	0.037	0.148
-343.391	-128.720	0.561	-0.100
-342.377	-107.557	0.151	-0.042
-341.362	83.951	-0.034	-0.047
-340.348	-138.278	-0.439	0.061
-339.333	-185.443	0.447	-0.009
-338.318	-130.015	0.270	0.046
-337.304	111.809	-0.008	-0.013
-336.289	101.682	-0.106	0.158
-335.275	238.816	0.215	-0.454
-334.260	-87.807	-0.384	-0.146
-333.245	-200.000	0.005	0.187
-332.231	43.946	-0.418	-0.486
-331.216	800.000	-0.068	-0.355
-330.202	146.277	0.153	0.261
-329.187	-99.251	-0.630	0.201
-328.172	-200.000	-0.005	0.095
-327.158	497.412	-0.125	-0.368
-326.143	-41.293	0.244	0.159
-325.129	-21.172	0.153	-0.119
-324.114	-90.897	0.266	-0.097
-323.099	140.655	-0.232	-0.389
-322.085	-77.679	-0.145	0.063
-321.070	-155.602	0.409	-0.033
-320.056	800.000	-0.125	-0.501
-319.041	529.556	0.086	-0.259
-318.026	209.461	0.281	-0.561
-317.012	-128.789	-0.170	0.030
-315.997	-15.579	0.127	0.103
-314.983	-54.774	0.546	0.312
-313.968	-87.900	0.258	0.098
-312.953	-71.086	-0.205	-0.097
-311.939	34.659	-0.113	-0.125
-310.924	-154.363	-0.563	0.047
-309.910	-136.707	-0.076	0.011
-308.895	-180.570	0.112	0.003
-307.880	-79.809	0.058	0.025
-306.866	-200.000	-0.013	0.281
-305.851	232.332	0.204	-0.426
-304.837	-19.338	-0.187	-0.147
-303.822	-91.180	0.182	-0.066
-302.807	-200.000	0.048	-0.449
-301.793	-15.511	-0.188	0.152
-300.778	183.953	0.071	-0.133
-299.764	-143.678	0.191	0.023
-298.749	-200.000	0.007	0.386
-297.735	800.000	0.066	-0.311
-296.720	211.667	-0.069	-0.139
-295.705	68.069	-0.165	-0.214
-294.691	-12.214	0.075	-0.062
-293.676	-42.389	-0.193	0.124
-292.662	44.772	-0.289	-0.337
-291.647	800.000	-0.125	0.585
-290.632	-192.516	-0.238	-0.003
-289.618	-110.704	-0.090	0.023
-288.603	-54.206	-0.268	-0.154
-287.589	-12.412	-0.221	-0.182
-286.574	47.501	0.147	0.174
-285.559	-85.941	0.246	0.096
-284.545	-14.718	0.443	0.360
-283.530	-200.000	0.101	0.665
-282.516	-12.592	0.350	0.289
-281.501	800.000	-0.122	-0.442
-280.486	170.795	-0.516	0.939
-279.472	-200.000	-0.032	0.188
-278.457	563.071	-0.076	0.235
-277.443	7.433	0.140	0.132
-276.428	386.743	0.050	0.132
-275.413	-29.417	0.152	-0.110
-274.399	-60.395	-0.069	-0.037
-273.384	-16.879	-0.279	0.223
-272.370	-20.309	0.483	0.376
-271.355	736.855	0.091	-0.311
-270.340	45.895	0.069	-0.081
-269.326	264.619	-0.060	-0.132
-268.311	-200.000	-0.042	0.515
-267.297	-87.245	0.151	0.058
-266.282	1.662	0.226	-0.206
-265.267	-131.586	-0.119	0.020
-264.253	-126.195	0.288	0.054
-263.238	-200.000	0.022	-0.675
-262.224	800.000	0.030	-0.120
-261.209	-118.741	-0.552	-0.122
-260.195	-200.000	0.037	-0.676
-259.180	63.826	-0.066	0.083
-258.165	683.760	-0.081	0.268
-257.151	693.640	0.009	0.031
-256.136	125.266	-0.281	-0.449
-255.122	-148.718	0.371	-0.038
-254.107	180.725	-0.098	0.182
-253.092	433.587	-0.158	-0.437
-252.078	-200.000	0.033	0.410
-251.063	137.946	0.226	0.375
-250.049	255.714	0.242	0.526
-249.034	-200.000	-0.079	0.454
-248.019	-56.988	-0.053	0.030
-247.005	-200.000	0.115	0.000
-245.990	194.961	0.051	-0.098
-244.976	-200.000	0.000	0.216
-243.961	-18.391	0.142	0.112
-242.946	6.357	0.414	0.389
-241.932	-155.935	0.364	0.029
-240.917	800.000	-0.058	-0.253
-239.903	66.237	-0.264	-0.340
-238.888	-200.000	0.045	-0.311
-237.873	-200.000	-0.045	-0.359
-236.859	23.026	0.268	0.278
-235.844	784.206	0.139	-0.486
-234.830	-79.087	-0.218	0.093
-233.815	800.000	0.067	0.293
-232.800	-149.883	-0.126	0.012
-231.786	232.052	0.134	0.278
-230.771	145.204	0.314	-0.532
-229.757	-200.000	-0.003	0.259
-228.742	-27.050	0.326	0.240
-227.727	-200.000	-0.012	0.354
-226.713	-135.507	-0.136	-0.020
-225.698	13.606	0.244	-0.239
-224.684	59.493	0.132	-0.165
-223.669	-24.583	-0.217	0.163
-222.655	286.662	0.118	-0.270
-221.640	120.213	-0.099	0.155
-220.625	-200.000	0.039	0.224
-219.611	405.726	-0.159	0.425
-218.596	113.254	-0.147	0.226
-217.582	-21.688	-0.299	-0.229
-216.567	288.938	-0.065	-0.150
-215.552	-138.965	-0.411	-0.056
-214.538	2.854	-0.362	-0.331
-213.523	27.115	-0.363	-0.385
-212.509	157.723	-0.286	0.501
-211.494	91.479	-0.104	0.148
-210.479	11.640	-0.293	0.284
-209.465	-113.549	0.285	0.070
-208.450	82.371	0.294	0.403
-207.436	-129.990	-0.403	-0.069
-206.421	-200.000	0.075	0.454
-205.406	-108.154	-0.355	-0.096
-204.392	34.554	0.241	0.266
-203.377	50.093	0.151	0.180
-202.363	-129.124	0.261	0.046
-201.348	-3.411	-0.206	-0.181
-200.333	-200.000	0.020	0.430
-199.319	113.664	-0.046	0.070
-198.304	800.000	0.103	0.515
-197.290	-14.339	0.141	0.114
-196.275	-28.062	0.035	0.025
-195.260	381.417	-0.168	-0.437
-194.246	482.484	0.036	-0.105
-193.231	800.000	-0.100	-0.391
-192.217	800.000	-0.057	-0.277
-191.202	-52.865	-0.379	0.220
-190.187	-9.326	-0.234	0.197
-189.173	164.754	-0.069	-0.124
-188.158	132.308	-0.218	0.356
-187.144	185.253	-0.268	0.503
-186.129	800.000	-0.070	-0.247
-185.114	-200.000	-0.007	0.154
-184.100	800.000	-0.036	0.161
-183.085	-160.783	0.491	0.032
-182.071	-105.183	-0.522	0.149
-181.056	24.435	-0.066	-0.068
-180.042	-44.294	0.285	0.180
-179.027	34.763	0.034	0.037
-178.012	106.344	0.163	-0.244
-176.998	-200.000	-0.031	-0.297
-175.983	-68.714	-0.338	-0.164
-174.969	39.331	-0.164	0.185
-173.954	-136.002	-0.419	0.062
-172.939	287.906	0.134	0.306
-171.925	-200.000	0.034	0.575
-170.910	-71.339	-0.376	0.177
-169.896	800.000	-0.104	0.380
-168.881	223.117	0.302	0.616
-167.866	13.715	-0.302	0.295
-166.852	-48.821	0.098	0.059
-165.837	-51.689	0.242	-0.142
-164.823	-50.545	0.254	0.150
-163.808	275.784	-0.123	0.275
-162.793	-47.335	-0.420	0.257
-161.779	259.150	-0.151	-0.330
-160.764	-14.695	0.181	0.146
-159.750	800.000	-0.051	0.183
-158.735	289.552	-0.026	-0.060
-157.720	-139.996	-0.355	-0.047
-156.706	-95.792	-0.322	0.108
-155.691	-200.000	-0.028	0.177
-154.677	-21.923	0.297	-0.227
-153.662	-31.903	-0.344	0.242
-152.647	-94.072	-0.272	0.093
-151.633	800.000	-0.093	-0.411
-150.618	800.000	0.079	-0.420
-149.604	12.138	-0.051	0.049
-148.589	159.505	-0.085	0.150
-147.574	-48.770	0.173	-0.104
-146.560	-49.486	-0.226	-0.135
-145.545	-131.157	-0.507	0.084
-144.531	-131.480	-0.652	-0.107
-143.516	158.715	0.177	-0.311
-142.502	-79.870	-0.054	-0.023
-141.487	-141.186	0.315	0.040
-140.472	184.185	0.114	-0.213
-139.458	-43.992	0.053	-0.034
-138.443	-101.318	-0.183	0.056
-137.429	366.584	-0.042	-0.106
-136.414	-93.261	0.271	0.094
-135.399	-73.559	-0.315	0.144
-134.385	800.000	0.043	-0.214
-133.370	-129.476	0.305	-0.053
-132.356	-113.646	-0.331	-0.081
-131.341	86.529	-0.313	0.435
-130.326	-166.201	0.432	-0.023
-129.312	-108.244	0.150	0.041
-128.297	24.243	-0.124	0.129
-127.283	-112.900	0.293	0.073
-126.268	17.744	-0.249	0.249
-125.253	-77.996	0.399	0.172
-124.239	-34.741	-0.218	0.149
-123.224	-121.082	-0.495	-0.103
-122.210	144.163	-0.100	0.168
-121.195	159.652	-0.133	-0.234
-120.180	-44.223	-0.400	-0.252
