DTS Sentinel unit serial number:	SN409020Multiplexer serial number:	ORYXHardware model number:	OX4-SRSoftware version number:	ORYX F/W v3.00 Oryx Data Collector v3.7.2.0data status	okinstallation	HaddamTimeLapsedifferential loss correction	single-endedforward channel	channel 3reverse channel	N/Adate	2011/06/21time	19:41:17forward acquisition time	30.00reverse acquisition time	0.00gamma	498.7831k internal	0.1795k external	0.1795temperature offset calibration	1.0074default loss term (dB/km)	0.3790temperature slope calibration	1.3530multiplexer offset coefficient	1.0000multiplexer slope coefficient	1.0000fibre end	0.00T internal ref (°C)	33.50T ext. ref 1 (°C)	25.32T ext. ref 2 (°C)	0.25length (m)	temperature (°C)	Stokes	anti-Stokes-747.200	-29.018	-0.510	-0.379
-746.185	-200.000	-0.031	0.252
-745.171	-200.000	0.018	-0.178
-744.156	472.307	0.129	0.379
-743.142	-152.752	0.080	0.007
-742.127	-31.970	0.298	0.216
-741.112	-85.349	0.052	0.021
-740.098	379.724	0.244	0.651
-739.083	-24.081	-0.109	0.084
-738.069	381.877	0.040	-0.107
-737.054	493.865	0.045	-0.136
-736.039	-71.778	0.455	-0.219
-735.025	-36.778	-0.062	0.043
-734.010	800.000	-0.088	-0.363
-732.996	-200.000	-0.019	-0.194
-731.981	-155.531	0.237	-0.020
-730.966	43.522	0.295	-0.350
-729.952	-93.017	0.027	0.010
-728.937	3.711	-0.164	-0.155
-727.923	-116.965	0.284	0.067
-726.908	-200.000	-0.007	-0.137
-725.894	800.000	-0.074	-0.312
-724.879	-122.354	-0.282	-0.059
-723.864	263.736	0.115	-0.260
-722.850	-200.000	0.034	-0.199
-721.835	321.465	0.051	-0.126
-720.821	-28.875	-0.380	0.282
-719.806	89.707	-0.217	0.314
-718.791	153.427	-0.104	0.185
-717.777	-49.850	-0.145	0.089
-716.762	-200.000	0.033	0.335
-715.748	-70.051	-0.208	0.102
-714.733	800.000	-0.074	-0.326
-713.718	-200.000	-0.020	0.559
-712.704	557.659	-0.123	0.385
-711.689	7.860	-0.215	0.208
-710.675	67.650	-0.222	-0.294
-709.660	-97.130	0.247	-0.083
-708.645	800.000	0.049	0.222
-707.631	44.511	0.120	0.143
-706.616	-125.518	-0.200	0.039
-705.602	86.839	0.046	-0.066
-704.587	83.938	0.253	-0.357
-703.572	-56.112	-0.440	-0.253
-702.558	56.195	-0.148	-0.186
-701.543	-43.593	-0.362	0.236
-700.529	-200.000	-0.098	0.565
-699.514	-200.000	-0.006	0.273
-698.499	-83.591	-0.206	-0.085
-697.485	-124.168	-0.295	-0.059
-696.470	-95.997	-0.330	0.113
-695.456	-26.966	-0.122	-0.092
-694.441	-2.265	0.353	-0.320
-693.426	60.415	-0.173	0.221
-692.412	63.660	0.109	-0.142
-691.397	-117.980	-0.331	-0.076
-690.383	-49.357	0.418	-0.257
-689.368	-73.261	-0.125	-0.059
-688.354	-54.794	-0.384	-0.224
-687.339	-138.882	0.531	0.074
-686.324	-133.915	-0.507	-0.081
-685.310	-30.562	0.166	-0.122
-684.295	-83.081	-0.159	0.066
-683.281	457.343	0.169	-0.488
-682.266	67.828	0.248	-0.328
-681.251	-53.426	0.395	-0.233
-680.237	800.000	-0.054	-0.281
-679.222	-71.173	-0.225	0.109
-678.208	-2.135	-0.154	-0.140
-677.193	246.787	0.057	-0.125
-676.178	-55.602	0.206	0.119
-675.164	140.261	0.078	-0.134
-674.149	-200.000	-0.075	0.000
-673.135	-200.000	0.006	-0.090
-672.120	-200.000	-0.087	-0.645
-671.105	106.984	0.101	0.156
-670.091	800.000	-0.130	-0.650
-669.076	10.780	-0.136	-0.134
-668.062	-76.955	-0.036	0.016
-667.047	-200.000	0.339	0.001
-666.032	500.448	-0.091	-0.271
-665.018	46.765	-0.190	0.228
-664.003	-59.561	0.125	-0.069
-662.989	-12.850	0.358	0.301
-661.974	-131.764	0.230	0.039
-660.959	243.918	-0.104	0.227
-659.945	226.336	-0.122	-0.256
-658.930	476.606	-0.122	-0.358
-657.916	457.151	-0.036	-0.105
-656.901	-140.892	0.284	0.037
-655.886	-40.433	-0.248	-0.166
-654.872	-43.374	0.418	-0.272
-653.857	-167.963	0.321	0.016
-652.843	-144.235	-0.097	-0.012
-651.828	-200.000	-0.012	-0.290
-650.814	-54.828	0.455	0.265
-649.799	147.132	-0.041	-0.072
-648.784	165.039	0.134	-0.244
-647.770	-157.089	-0.206	0.016
-646.755	-52.573	-0.331	-0.197
-645.741	-64.055	0.087	0.046
-644.726	-62.400	-0.152	0.081
-643.711	-35.767	-0.177	-0.123
-642.697	-20.713	-0.268	-0.212
-641.682	-141.130	0.096	0.013
-640.668	352.395	0.120	0.307
-639.653	104.683	-0.021	0.032
-638.638	-51.890	-0.116	0.069
-637.624	-69.885	-0.291	0.142
-636.609	-86.989	0.156	0.061
-635.595	-88.300	-0.187	0.072
-634.580	-16.554	-0.028	0.023
-633.565	-165.233	-0.188	0.011
-632.551	-25.959	0.480	0.364
-631.536	-79.611	0.262	-0.113
-630.522	-200.000	-0.051	-0.639
-629.507	256.514	-0.153	0.341
-628.492	-200.000	0.016	-0.218
-627.478	-66.824	-0.576	-0.293
-626.463	-120.670	0.164	0.036
-625.449	-61.786	-0.141	0.076
-624.434	-118.812	-0.576	0.130
-623.419	800.000	0.076	0.318
-622.405	-7.055	0.407	-0.356
-621.390	-200.000	0.023	0.201
-620.376	-147.425	-0.352	0.038
-619.361	-154.105	0.172	-0.015
-618.346	-101.598	0.163	-0.051
-617.332	184.127	0.021	-0.041
-616.317	-90.646	-0.145	0.054
-615.303	-76.934	0.249	0.111
-614.288	-41.791	-0.365	0.241
-613.273	216.681	0.132	-0.272
-612.259	15.115	0.258	-0.260
-611.244	-102.035	0.090	-0.028
-610.230	-181.556	-0.399	0.010
-609.215	-99.901	-0.263	0.084
-608.201	-97.710	-0.396	0.131
-607.186	-185.758	-0.435	0.008
-606.171	-165.336	-0.527	0.029
-605.157	134.027	-0.028	-0.047
-604.142	800.000	0.031	-0.115
-603.128	-196.958	0.200	0.002
-602.113	-4.935	0.241	-0.214
-601.098	-108.434	-0.354	-0.098
-600.084	-123.370	0.162	0.033
-599.069	-24.901	0.388	0.296
-598.055	221.987	0.094	-0.196
-597.040	-63.032	0.087	-0.046
-596.025	-74.533	0.416	-0.192
-595.011	99.585	-0.093	0.139
-593.996	3.742	0.418	0.393
-592.982	-130.423	0.047	0.008
-591.967	290.873	0.139	-0.328
-590.952	92.833	-0.196	-0.285
-589.938	-137.034	0.172	0.025
-588.923	60.143	0.129	-0.165
-587.909	-99.651	0.098	-0.031
-586.894	-200.000	0.001	-0.254
-585.879	-30.812	0.140	-0.102
-584.865	94.201	-0.209	-0.306
-583.850	-80.214	-0.021	0.009
-582.836	-200.000	0.009	0.429
-581.821	-46.760	-0.613	0.386
-580.806	-83.825	-0.357	0.146
-579.792	-144.134	0.245	-0.029
-578.777	7.002	-0.028	-0.027
-577.763	-82.341	0.123	-0.051
-576.748	-200.000	-0.050	-0.287
-575.733	314.700	-0.124	-0.303
-574.719	-200.000	0.020	0.234
-573.704	-129.439	-0.087	-0.015
-572.690	-200.000	0.012	-0.238
-571.675	-56.945	0.121	0.068
-570.661	-103.183	0.474	0.143
-569.646	70.087	-0.166	-0.220
-568.631	-28.922	0.199	-0.147
-567.617	120.168	-0.164	0.262
-566.602	-63.057	-0.159	-0.084
-565.588	-52.390	-0.145	0.086
-564.573	218.882	-0.044	-0.091
-563.558	114.461	-0.109	-0.171
-562.544	800.000	-0.024	-0.107
-561.529	-64.280	0.238	-0.124
-560.515	699.535	-0.148	0.504
-559.500	-77.135	-0.215	0.096
-558.485	-95.708	0.314	0.107
-557.471	-56.298	-0.319	0.182
-556.456	77.960	-0.308	0.423
-555.442	-177.924	-0.281	0.008
-554.427	-63.375	0.324	-0.171
-553.412	-76.306	0.423	-0.191
-552.398	86.979	-0.246	-0.350
-551.383	-97.724	-0.181	0.060
-550.369	-200.000	-0.023	-0.636
-549.354	-200.000	0.036	0.443
-548.339	-92.983	-0.111	-0.040
-547.325	342.417	-0.077	-0.195
-546.310	7.150	0.527	0.506
-545.296	206.421	0.110	0.220
-544.281	-57.773	-0.632	0.354
-543.266	-52.020	-0.362	0.215
-542.252	-114.206	-0.396	0.097
-541.237	128.833	-0.101	-0.167
-540.223	7.419	0.188	0.181
-539.208	161.815	-0.185	-0.334
-538.193	458.158	0.038	0.109
-537.179	146.460	0.029	0.051
-536.164	-92.409	-0.184	-0.066
-535.150	171.016	-0.077	0.142
-534.135	234.706	0.041	0.087
-533.121	103.749	0.096	0.146
-532.106	-51.799	-0.166	-0.099
-531.091	-200.000	-0.024	-0.179
-530.077	-78.082	-0.065	-0.029
-529.062	41.252	0.384	-0.446
-528.048	140.596	-0.197	0.335
-527.033	-200.000	0.064	-0.373
-526.018	-139.802	0.333	0.045
-525.004	-22.768	0.148	0.115
-523.989	-200.000	0.020	-0.118
-522.975	-52.260	-0.143	-0.085
-521.960	210.416	-0.205	-0.415
-520.945	-102.175	0.419	0.129
-519.931	123.757	0.236	0.381
-518.916	123.710	0.255	0.411
-517.902	-112.678	-0.149	-0.038
-516.887	753.138	-0.105	-0.366
-515.872	800.000	0.077	0.395
-514.858	33.232	0.207	-0.230
-513.843	15.119	0.266	0.267
-512.829	-200.000	0.047	-0.324
-511.814	28.064	-0.140	-0.152
-510.799	181.207	0.217	0.411
-509.785	128.466	-0.220	-0.360
-508.770	388.279	0.064	0.172
-507.756	-200.000	0.013	-0.156
-506.741	-8.156	0.305	-0.263
-505.726	210.088	0.076	-0.153
-504.712	-186.116	0.389	-0.007
-503.697	167.173	0.128	0.235
-502.683	198.469	-0.178	0.350
-501.668	61.065	0.252	-0.321
-500.653	-141.459	-0.107	0.014
-499.639	154.068	-0.211	0.373
-498.624	222.730	0.076	-0.159
-497.610	-172.471	0.223	-0.009
-496.595	-162.394	-0.371	-0.023
-495.581	18.493	0.141	-0.144
-494.566	-120.151	-0.345	0.075
-493.551	-102.309	-0.038	-0.012
-492.537	4.190	0.376	-0.354
-491.522	110.882	-0.063	-0.097
-490.508	-65.664	0.266	0.136
-489.493	-200.000	-0.034	0.436
-488.478	-190.085	0.405	-0.006
-487.464	424.683	0.100	0.277
-486.449	-200.000	0.035	0.242
-485.435	-200.000	-0.063	-0.743
-484.420	-156.274	-0.658	0.052
-483.405	-54.550	0.110	0.064
-482.391	61.034	-0.288	0.367
-481.376	349.558	0.064	-0.162
-480.362	356.250	-0.022	-0.058
-479.347	367.822	-0.021	-0.055
-478.332	-112.316	-0.176	-0.045
-477.318	73.817	0.046	-0.062
-476.303	-158.029	0.306	-0.023
-475.289	-191.342	-0.363	-0.005
-474.274	-56.101	0.291	-0.166
-473.259	-200.000	0.008	0.090
-472.245	-102.347	0.282	-0.086
-471.230	-75.505	-0.164	0.075
-470.216	58.978	0.306	0.387
-469.201	-200.000	0.072	0.692
-468.186	221.803	0.077	0.158
-467.172	333.898	0.101	0.253
-466.157	395.406	0.102	0.274
-465.143	207.340	0.226	-0.454
-464.128	800.000	-0.064	0.324
-463.113	-10.684	0.245	0.207
-462.099	-90.156	0.236	-0.088
-461.084	-63.960	-0.319	-0.166
-460.070	-9.336	-0.376	-0.322
-459.055	-184.006	0.243	-0.005
-458.040	286.812	-0.139	-0.322
-457.026	130.075	0.272	-0.447
-456.011	-89.171	-0.429	0.161
-454.997	-38.506	-0.132	-0.089
-453.982	3.767	0.320	0.299
-452.968	584.286	-0.006	-0.020
-451.953	800.000	0.030	0.116
-450.938	64.564	0.342	0.443
-449.924	41.516	-0.239	0.277
-448.909	800.000	-0.038	0.206
-447.895	800.000	-0.085	0.458
-446.880	43.326	-0.172	-0.201
-445.865	187.961	-0.141	-0.270
-444.851	-66.869	-0.556	0.280
-443.836	-110.951	0.446	-0.117
-442.822	-200.000	-0.063	-0.638
-441.807	-19.634	0.394	0.312
-440.792	-200.000	-0.018	-0.304
-439.778	-56.393	-0.266	0.151
-438.763	729.990	0.093	0.319
-437.749	247.188	0.098	-0.214
-436.734	-200.000	0.030	-0.205
-435.719	-71.074	-0.226	-0.108
-434.705	236.695	0.027	0.057
-433.690	-109.993	-0.578	0.154
-432.676	-200.000	-0.009	0.260
-431.661	-150.857	0.147	-0.014
-430.646	-200.000	0.023	0.388
-429.632	800.000	0.022	-0.100
-428.617	800.000	0.033	0.118
-427.603	26.962	0.205	-0.220
-426.588	-97.246	-0.088	0.029
-425.573	364.691	0.130	-0.335
-424.559	49.017	0.163	-0.196
-423.544	-105.135	-0.149	-0.043
-422.530	9.588	0.326	-0.316
-421.515	112.858	0.047	-0.072
-420.500	800.000	-0.082	-0.307
-419.486	-48.678	0.161	-0.099
-418.471	659.774	0.113	0.374
-417.457	-39.981	0.103	-0.069
-416.442	-135.864	-0.244	-0.036
-415.428	18.450	-0.129	0.132
-414.413	-154.711	0.236	-0.020
-413.398	-18.281	-0.081	0.064
-412.384	81.660	0.180	-0.250
-411.369	-200.000	0.028	-0.204
-410.355	-153.825	0.394	-0.034
-409.340	-200.000	-0.044	0.289
-408.325	155.776	-0.178	0.315
-407.311	-92.024	0.445	-0.160
-406.296	8.335	0.245	-0.235
-405.282	84.575	0.094	-0.131
-404.267	-103.137	-0.460	-0.138
-403.252	132.093	0.116	0.191
-402.238	800.000	0.037	0.204
-401.223	800.000	0.119	0.473
-400.209	-200.000	0.008	0.156
-399.194	-70.279	-0.659	-0.319
-398.179	372.357	-0.064	-0.166
-397.165	-200.000	0.063	0.394
-396.150	-134.117	-0.265	-0.041
-395.136	-0.352	0.224	-0.203
-394.121	-155.053	0.306	0.025
-393.106	121.167	-0.263	-0.419
-392.092	433.453	0.085	0.238
-391.077	-53.120	0.323	-0.189
-390.063	19.609	-0.175	0.180
-389.048	-200.000	0.017	-0.114
-388.033	196.532	-0.179	-0.349
-387.019	57.277	-0.171	0.214
-386.004	257.800	-0.167	-0.370
-384.990	-139.527	0.381	0.051
-383.975	-19.705	0.155	-0.123
-382.960	101.947	0.176	-0.262
-381.946	229.122	-0.090	0.187
-380.931	-44.486	0.380	-0.242
-379.917	-200.000	0.016	0.298
-378.902	192.438	-0.213	-0.412
-377.888	-160.533	0.227	0.015
-376.873	800.000	-0.073	0.315
-375.858	149.799	-0.105	-0.182
-374.844	233.896	-0.226	-0.476
-373.829	57.263	-0.151	-0.188
-372.815	800.000	-0.125	0.486
-371.800	-2.914	-0.167	-0.149
-370.785	67.425	-0.169	0.220
-369.771	-200.000	-0.027	0.169
-368.756	138.873	0.191	-0.321
-367.742	-109.530	0.172	-0.046
-366.727	-108.319	0.447	0.122
-365.712	-90.321	0.316	-0.117
-364.698	-107.389	0.297	0.083
-363.683	-49.993	-0.079	0.047
-362.669	29.005	-0.354	-0.383
-361.654	196.392	-0.196	-0.382
-360.639	-159.816	0.332	-0.023
-359.625	23.607	0.324	0.340
-358.610	-200.000	-0.081	0.464
-357.596	-200.000	-0.000	-0.265
-356.581	8.854	-0.016	0.015
-355.566	-80.606	-0.074	-0.031
-354.552	30.621	0.262	0.286
-353.537	-29.155	-0.230	-0.168
-352.523	177.579	0.181	-0.338
-351.508	-200.000	-0.005	-0.187
-350.493	-200.000	-0.019	0.143
-349.479	-159.319	0.222	-0.016
-348.464	-77.118	-0.180	0.080
-347.450	725.647	0.099	0.338
-346.435	800.000	0.105	-0.377
-345.420	-160.469	-0.594	-0.040
-344.406	-124.926	-0.451	-0.088
-343.391	-200.000	0.022	0.181
-342.377	722.719	0.114	0.390
-341.362	-100.230	0.355	-0.112
-340.348	162.924	0.026	0.047
-339.333	-17.608	-0.182	-0.145
-338.318	-41.383	-0.173	0.113
-337.304	330.322	-0.106	-0.260
-336.289	-54.402	-0.211	-0.121
-335.275	17.626	0.255	0.259
-334.260	11.487	-0.323	0.316
-333.245	-20.171	-0.055	-0.043
-332.231	613.649	0.020	0.065
-331.216	-62.676	0.333	-0.175
-330.202	-144.411	-0.206	0.024
-329.187	-21.153	0.378	-0.294
-328.172	-99.326	0.544	0.174
-327.158	73.912	-0.225	0.301
-326.143	-0.098	-0.205	0.186
-325.129	-200.000	-0.010	0.129
-324.114	112.205	0.165	0.254
-323.099	-200.000	0.022	-0.230
-322.085	-66.714	-0.302	-0.152
-321.070	-200.000	0.015	0.221
-320.056	-200.000	0.017	-0.393
-319.041	-61.655	0.133	-0.071
-318.026	-106.476	-0.404	-0.114
-317.012	178.926	-0.069	0.129
-315.997	-200.000	0.017	-0.290
-314.983	-78.382	0.449	-0.195
-313.968	254.079	-0.095	0.209
-312.953	-112.303	0.322	-0.082
-311.939	-70.896	0.135	0.065
-310.924	800.000	-0.058	0.306
-309.910	24.389	0.221	0.233
-308.895	-59.430	-0.196	0.107
-307.880	-99.869	0.060	0.019
-306.866	-131.959	-0.334	-0.055
-305.851	-138.697	0.758	0.105
-304.837	-116.162	-0.346	-0.081
-303.822	267.990	-0.067	-0.151
-302.807	44.660	0.136	0.159
-301.793	394.056	-0.177	-0.472
-300.778	36.413	0.074	-0.084
-299.764	88.523	0.098	-0.140
-298.749	800.000	0.037	0.205
-297.735	87.519	-0.156	0.221
-296.720	-24.581	-0.220	0.167
-295.705	71.204	0.267	0.353
-294.691	-200.000	-0.041	0.311
-293.676	-200.000	0.043	0.250
-292.662	-53.004	-0.099	-0.058
-291.647	237.657	-0.102	-0.216
-290.632	-178.065	0.172	0.005
-289.618	39.178	-0.305	0.348
-288.603	-59.936	-0.315	-0.171
-287.589	-200.000	0.108	0.621
-286.574	-64.537	0.104	-0.054
-285.559	-70.972	-0.385	0.184
-284.545	-200.000	-0.023	0.488
-283.530	-157.837	0.548	0.041
-282.516	-200.000	-0.022	-0.195
-281.501	337.180	-0.056	0.140
-280.486	-45.978	0.308	0.193
-279.472	-33.675	0.236	-0.166
-278.457	-200.000	0.013	0.424
-277.443	-181.398	0.232	-0.006
-276.428	237.041	0.227	-0.481
-275.413	515.793	0.130	0.389
-274.399	-166.249	0.713	-0.038
-273.384	-124.121	-0.463	0.092
-272.370	-64.250	-0.531	-0.274
-271.355	-25.620	-0.025	0.019
-270.340	-97.862	-0.333	0.109
-269.326	75.201	-0.145	-0.195
-268.311	-199.783	-0.313	0.002
-267.297	-74.212	-0.298	-0.136
-266.282	800.000	0.080	-0.291
-265.267	-102.322	-0.298	0.091
-264.253	98.829	0.178	0.261
-263.238	-150.066	0.362	-0.035
-262.224	-164.369	-0.104	-0.006
-261.209	-107.252	-0.127	0.035
-260.195	127.499	-0.129	0.208
-259.180	202.072	-0.055	-0.109
-258.165	-51.902	-0.063	-0.037
-257.151	-180.663	0.216	0.006
-256.136	-200.000	-0.025	0.181
-255.122	511.600	-0.145	-0.432
-254.107	-179.839	0.270	0.007
-253.092	800.000	0.079	0.301
-252.078	53.460	-0.069	0.084
-251.063	576.308	0.047	0.146
-250.049	12.700	0.125	0.122
-249.034	-200.000	-0.033	-0.210
-248.019	800.000	-0.090	-0.338
-247.005	343.873	0.101	0.253
-245.990	800.000	0.048	0.186
-244.976	-34.312	-0.160	-0.111
-243.961	-75.012	-0.330	-0.150
-242.946	122.229	0.283	0.450
-241.932	16.065	0.276	0.276
-240.917	18.346	0.197	-0.200
-239.903	-64.266	0.078	0.040
-238.888	800.000	-0.046	-0.168
-237.873	351.699	-0.183	-0.462
-236.859	18.018	-0.358	-0.362
-235.844	-106.743	0.046	-0.013
-234.830	-60.374	0.171	0.092
-233.815	-137.965	-0.322	-0.045
-232.800	-200.000	0.011	0.388
-231.786	230.312	0.122	-0.255
-230.771	800.000	0.084	-0.419
-229.757	-145.102	0.229	0.026
-228.742	-72.730	0.128	-0.060
-227.727	-200.000	0.021	0.177
-226.713	15.249	-0.212	0.211
-225.698	-26.053	0.260	0.194
-224.684	163.839	0.092	0.165
-223.669	13.955	0.231	0.228
-222.655	-89.510	-0.676	0.251
-221.640	800.000	-0.069	-0.326
-220.625	1.816	-0.194	0.178
-219.611	217.156	-0.222	0.450
-218.596	-104.551	-0.436	0.127
-217.582	-62.300	-0.386	0.203
-216.567	45.461	-0.303	-0.355
-215.552	-98.277	0.515	0.167
-214.538	142.938	0.296	0.500
-213.523	-167.167	0.189	-0.010
-212.509	-200.000	0.050	0.299
-211.494	4.121	-0.381	0.354
-210.479	-169.046	0.147	-0.007
-209.465	-16.978	0.342	0.274
-208.450	800.000	-0.017	-0.077
-207.436	-135.584	0.436	-0.065
-206.421	268.384	-0.143	-0.319
-205.406	454.577	-0.050	0.141
-204.392	-64.813	0.322	-0.165
-203.377	-143.771	0.126	-0.015
-202.363	-123.326	-0.223	-0.045
-201.348	138.116	-0.205	0.341
-200.333	-124.124	-0.474	0.093
-199.319	-37.718	0.435	-0.293
-198.304	-52.173	-0.059	0.035
-197.290	68.946	0.098	-0.128
-196.275	800.000	0.017	-0.089
-195.260	-23.924	-0.226	-0.171
-194.246	-95.847	0.097	-0.033
-193.231	-61.431	-0.152	-0.081
-192.217	85.892	0.108	-0.151
-191.202	29.476	-0.072	-0.077
-190.187	-200.000	-0.035	-0.613
-189.173	62.319	0.073	0.092
-188.158	-186.245	-0.251	-0.005
-187.144	-126.698	-0.267	-0.050
-186.129	-104.131	-0.214	0.063
-185.114	769.368	0.099	-0.344
-184.100	-200.000	-0.038	-0.769
-183.085	-24.345	0.318	-0.240
-182.071	-157.088	0.485	-0.037
-181.056	98.967	-0.231	-0.339
-180.042	-153.749	-0.248	-0.021
-179.027	-200.000	0.110	-0.773
-178.012	-200.000	0.000	0.102
-176.998	-33.982	0.179	-0.125
-175.983	218.438	0.313	0.636
-174.969	-32.942	-0.433	-0.304
-173.954	80.369	0.209	-0.286
-172.939	40.619	0.140	-0.160
-171.925	800.000	-0.008	-0.031
-170.910	104.254	0.058	0.086
-169.896	39.339	-0.244	0.277
-168.881	12.237	-0.167	-0.163
-167.866	346.087	0.090	0.225
-166.852	128.857	0.189	0.306
-165.837	691.908	0.024	-0.081
-164.823	-49.164	0.339	0.205
-163.808	-158.213	0.121	-0.009
-162.793	463.938	0.046	0.132
-161.779	-58.565	0.178	0.097
-160.764	79.878	-0.267	0.364
-159.750	584.749	0.100	-0.312
-158.735	-105.840	-0.351	-0.100
-157.720	158.706	0.143	-0.252
-156.706	6.669	0.212	-0.199
-155.691	0.019	-0.522	0.470
-154.677	-77.890	0.148	-0.065
-153.662	543.518	-0.216	-0.655
-152.647	-152.904	-0.151	-0.013
-151.633	-81.213	0.146	0.061
-150.618	-131.648	-0.219	-0.036
-149.604	-116.172	0.335	0.078
-148.589	-200.000	-0.040	0.225
-147.574	173.674	-0.088	0.162
-146.560	-158.805	-0.452	0.032
-145.545	24.239	0.301	-0.315
-144.531	228.153	0.297	-0.614
-143.516	409.903	0.138	0.372
-142.502	-39.472	0.222	0.147
-141.487	461.764	-0.018	-0.052
-140.472	-145.216	0.164	0.019
-139.458	800.000	-0.083	0.330
-138.443	26.630	-0.058	-0.062
-137.429	-136.685	0.380	0.055
-136.414	-102.316	-0.353	-0.106
-135.399	-161.589	-0.112	-0.007
-134.385	-200.000	-0.061	0.392
-133.370	-12.380	-0.294	0.243
-132.356	-100.999	-0.217	0.067
-131.341	115.661	-0.241	0.374
-130.326	-26.741	0.282	0.209
-129.312	-200.000	-0.002	0.144
-128.297	11.440	-0.154	-0.149
-127.283	-200.000	-0.011	-0.309
-126.268	-21.898	0.258	0.198
-125.253	-127.496	0.304	0.055
-124.239	-51.889	-0.106	-0.062
-123.224	-66.230	-0.309	0.155
-122.210	-129.290	-0.210	-0.037
