DTS Sentinel unit serial number:	SN409020Multiplexer serial number:	ORYXHardware model number:	OX4-SRSoftware version number:	ORYX F/W v3.00 Oryx Data Collector v3.7.2.0data status	okinstallation	HaddamTimeLapsedifferential loss correction	single-endedforward channel	channel 3reverse channel	N/Adate	2011/06/22time	09:36:17forward acquisition time	30.00reverse acquisition time	0.00gamma	498.7831k internal	0.1793k external	0.1793temperature offset calibration	1.0074default loss term (dB/km)	0.3790temperature slope calibration	1.3530multiplexer offset coefficient	1.0000multiplexer slope coefficient	1.0000fibre end	0.00T internal ref (°C)	27.84T ext. ref 1 (°C)	23.12T ext. ref 2 (°C)	0.19length (m)	temperature (°C)	Stokes	anti-Stokes-747.200	-49.904	-0.284	0.175
-746.185	-47.297	-0.337	0.212
-745.171	-172.445	0.174	0.007
-744.156	371.495	-0.188	0.496
-743.142	-114.865	0.166	0.041
-742.127	-200.000	0.037	0.432
-741.112	-170.464	-0.195	0.009
-740.098	-200.000	-0.033	-0.495
-739.083	-138.933	0.105	0.015
-738.069	270.405	0.290	0.664
-737.054	-44.279	-0.281	-0.182
-736.039	209.657	-0.095	0.194
-735.025	-105.359	-0.428	0.126
-734.010	-200.000	0.082	-0.762
-732.996	-200.000	-0.028	-0.187
-731.981	765.459	-0.101	-0.359
-730.966	250.938	-0.105	-0.231
-729.952	-22.013	0.130	-0.102
-728.937	-82.231	-0.303	0.127
-727.923	496.093	0.099	-0.296
-726.908	13.001	-0.067	-0.068
-725.894	-200.000	-0.043	-0.399
-724.879	244.881	-0.223	-0.488
-723.864	44.297	-0.147	-0.175
-722.850	-166.547	-0.402	0.021
-721.835	-200.000	0.032	-0.191
-720.821	-163.628	-0.349	0.021
-719.806	331.144	-0.059	-0.148
-718.791	142.157	0.185	0.319
-717.777	49.949	-0.264	-0.323
-716.762	-200.000	-0.027	-0.170
-715.748	-29.957	0.344	0.253
-714.733	83.292	0.234	-0.331
-713.718	161.374	-0.194	-0.353
-712.704	800.000	0.113	-0.549
-711.689	-118.566	-0.155	0.035
-710.675	-43.928	-0.183	0.119
-709.660	-200.000	0.001	0.243
-708.645	-150.684	-0.633	0.062
-707.631	-139.652	-0.209	-0.028
-706.616	-200.000	0.013	0.082
-705.602	38.582	-0.219	-0.254
-704.587	-142.510	-0.092	-0.012
-703.572	-72.512	-0.212	-0.101
-702.558	-11.588	-0.175	-0.149
-701.543	-100.021	-0.340	-0.109
-700.529	-4.500	-0.279	0.249
-699.514	-52.538	0.363	0.217
-698.499	-16.065	-0.179	0.147
-697.485	-137.755	0.270	-0.039
-696.470	13.405	-0.305	-0.306
-695.456	800.000	0.060	-0.316
-694.441	-105.320	0.161	-0.047
-693.426	154.730	-0.077	-0.137
-692.412	31.305	-0.218	-0.242
-691.397	-200.000	0.005	-0.044
-690.383	-138.338	0.123	0.017
-689.368	492.178	-0.164	-0.490
-688.354	2.724	-0.013	-0.012
-687.339	-42.814	-0.219	0.144
-686.324	109.253	0.087	-0.134
-685.310	601.045	-0.009	0.028
-684.295	-146.251	-0.479	0.054
-683.281	-52.397	-0.400	-0.239
-682.266	773.845	-0.086	-0.306
-681.251	-200.000	0.001	0.027
-680.237	-43.662	0.152	-0.099
-679.222	40.905	0.197	-0.230
-678.208	-123.374	-0.255	-0.052
-677.193	25.278	-0.421	-0.452
-676.178	5.696	-0.123	-0.118
-675.164	-132.759	-0.517	-0.085
-674.149	4.871	0.333	-0.317
-673.135	-200.000	-0.018	0.111
-672.120	-136.700	0.390	0.058
-671.105	117.066	-0.099	0.158
-670.091	41.784	0.227	0.267
-669.076	21.550	0.384	-0.404
-668.062	-200.000	0.006	0.423
-667.047	-127.059	-0.302	-0.057
-666.032	-154.875	-0.466	-0.039
-665.018	-98.756	0.341	0.112
-664.003	81.876	-0.360	0.504
-662.989	-64.834	0.337	0.176
-661.974	-57.519	-0.361	-0.204
-660.959	278.967	-0.227	0.525
-659.945	-7.130	-0.095	0.083
-658.930	-200.000	-0.004	0.218
-657.916	-42.026	0.190	0.125
-656.901	800.000	0.104	-0.521
-655.886	-114.823	0.342	0.084
-654.872	800.000	-0.076	-0.330
-653.857	-124.985	-0.305	-0.060
-652.843	-123.670	-0.347	-0.070
-651.828	-93.050	-0.343	0.123
-650.814	57.204	-0.352	0.444
-649.799	70.226	0.196	0.262
-648.784	-116.933	-0.294	0.069
-647.770	-195.101	-0.089	-0.001
-646.755	-33.279	0.176	-0.126
-645.741	213.562	0.177	0.362
-644.726	-135.623	0.679	0.103
-643.711	800.000	0.041	-0.149
-642.697	-88.550	-0.214	0.082
-641.682	-42.725	0.222	-0.145
-640.668	-92.141	0.325	-0.118
-639.653	-121.084	0.282	-0.061
-638.638	455.749	-0.078	-0.224
-637.624	-97.799	-0.420	-0.139
-636.609	225.798	0.124	0.260
-635.595	69.351	0.185	-0.246
-634.580	-16.815	-0.042	-0.035
-633.565	-200.000	-0.027	-0.210
-632.551	-80.584	-0.411	-0.176
-631.536	800.000	-0.033	-0.164
-630.522	-113.493	-0.268	-0.067
-629.507	264.338	-0.135	-0.306
-628.492	260.433	0.193	0.432
-627.478	-29.095	0.350	-0.259
-626.463	-186.055	0.407	0.008
-625.449	169.489	-0.104	-0.192
-624.434	-83.698	-0.194	0.080
-623.419	-68.843	-0.388	0.193
-622.405	88.730	-0.334	0.480
-621.390	5.057	0.217	0.206
-620.376	-189.644	-0.454	-0.007
-619.361	235.212	0.069	0.148
-618.346	800.000	0.057	-0.234
-617.332	629.587	0.096	0.316
-616.317	-122.008	-0.287	-0.060
-615.303	159.039	-0.246	0.443
-614.288	800.000	-0.137	0.590
-613.273	-31.977	-0.237	-0.171
-612.259	796.800	0.066	-0.235
-611.244	375.245	0.191	0.505
-610.230	800.000	-0.062	-0.225
-609.215	2.712	-0.344	0.321
-608.201	15.098	0.178	0.180
-607.186	-200.000	-0.001	0.204
-606.171	8.987	0.553	-0.539
-605.157	-128.040	0.725	-0.133
-604.142	-200.000	-0.015	-0.431
-603.128	-200.000	-0.044	-0.300
-602.113	35.836	-0.500	0.568
-601.098	-10.613	-0.243	0.207
-600.084	-200.000	0.062	0.637
-599.069	800.000	-0.171	-0.650
-598.055	-127.683	-0.177	0.033
-597.040	-114.534	0.324	0.080
-596.025	-16.284	-0.149	-0.122
-595.011	8.047	-0.176	-0.170
-593.996	-93.084	-0.310	0.111
-592.982	-95.649	0.121	0.041
-591.967	-173.715	-0.122	0.005
-590.952	800.000	0.037	0.145
-589.938	92.541	0.255	0.372
-588.923	-47.027	0.198	-0.124
-587.909	54.949	0.202	0.252
-586.894	-161.804	0.329	-0.021
-585.879	227.282	0.037	-0.077
-584.865	800.000	0.098	0.385
-583.850	-200.000	0.023	-0.283
-582.836	-164.899	-0.305	-0.017
-581.821	14.580	-0.115	0.115
-580.806	778.575	-0.037	-0.130
-579.792	-36.455	-0.263	0.182
-578.777	-200.000	0.077	-0.474
-577.763	-15.922	0.077	-0.063
-576.748	-88.970	0.071	-0.027
-575.733	-53.002	-0.334	-0.197
-574.719	-86.930	-0.508	0.199
-573.704	-159.696	0.369	-0.026
-572.690	-200.000	-0.035	0.248
-571.675	-200.000	-0.029	-0.461
-570.661	-200.000	0.028	0.315
-569.646	-146.225	-0.490	-0.055
-568.631	-200.000	-0.021	-0.192
-567.617	329.981	-0.063	-0.157
-566.602	306.755	0.183	-0.440
-565.588	-152.536	0.430	-0.039
-564.573	800.000	0.037	-0.149
-563.558	-49.928	-0.292	-0.178
-562.544	-167.566	0.486	-0.025
-561.529	261.346	0.163	-0.366
-560.515	474.393	0.163	-0.476
-559.500	354.662	-0.086	-0.220
-558.485	-74.665	-0.235	-0.108
-557.471	173.018	0.244	-0.454
-556.456	-46.487	-0.296	0.186
-555.442	446.435	0.139	-0.396
-554.427	-200.000	0.067	-0.395
-553.412	800.000	0.051	-0.260
-552.398	-46.941	-0.289	0.181
-551.383	-16.089	-0.304	-0.249
-550.369	-200.000	-0.015	0.093
-549.354	-200.000	0.067	-0.486
-548.339	-200.000	0.052	0.327
-547.325	-53.893	-0.534	0.312
-546.310	62.580	-0.105	-0.135
-545.296	-56.735	0.162	0.092
-544.281	800.000	-0.044	0.199
-543.266	-19.604	0.211	-0.168
-542.252	-46.371	0.192	-0.121
-541.237	-43.321	0.240	-0.156
-540.223	10.269	0.185	0.181
-539.208	-88.051	0.281	0.108
-538.193	800.000	0.029	-0.135
-537.179	-43.429	-0.487	0.316
-536.164	-80.542	0.329	-0.140
-535.150	374.365	0.289	0.762
-534.135	-78.056	0.439	0.194
-533.121	177.309	0.158	-0.297
-532.106	-74.576	-0.280	0.129
-531.091	304.533	0.085	-0.204
-530.077	364.682	-0.058	0.152
-529.062	-100.803	-0.378	0.119
-528.048	3.645	-0.143	-0.134
-527.033	-33.183	-0.372	-0.265
-526.018	-170.970	-0.253	-0.011
-525.004	282.314	0.164	0.380
-523.989	-64.217	0.380	-0.198
-522.975	-2.399	-0.160	-0.144
-521.960	-85.228	0.173	0.069
-520.945	551.898	-0.057	0.178
-519.931	262.734	0.137	0.307
-518.916	-19.247	0.159	-0.127
-517.902	800.000	-0.120	0.478
-516.887	31.293	-0.047	-0.052
-515.872	-152.417	-0.191	0.017
-514.858	722.136	-0.034	0.116
-513.843	-98.133	-0.763	-0.251
-512.829	-92.178	-0.346	0.125
-511.814	426.044	0.119	0.332
-510.799	-48.083	0.332	-0.206
-509.785	-32.817	-0.374	-0.266
-508.770	-40.636	0.060	-0.040
-507.756	-200.000	0.001	0.312
-506.741	-32.251	-0.129	-0.093
-505.726	253.710	0.217	-0.478
-504.712	-56.413	0.182	0.103
-503.697	36.657	0.128	-0.146
-502.683	367.239	-0.033	0.086
-501.668	-200.000	-0.011	-0.203
-500.653	253.983	0.113	-0.249
-499.639	-200.000	0.025	-0.227
-498.624	-25.226	0.417	-0.316
-497.610	148.617	-0.215	0.375
-496.595	-71.390	-0.545	0.261
-495.581	-28.188	-0.256	0.190
-494.566	185.253	0.239	-0.457
-493.551	311.173	-0.246	-0.595
-492.537	-59.445	-0.107	0.059
-491.522	77.851	-0.132	-0.181
-490.508	-40.535	-0.406	-0.270
-489.493	800.000	-0.017	0.064
-488.478	-28.090	0.357	0.264
-487.464	-55.170	0.081	-0.047
-486.449	77.619	-0.084	0.115
-485.435	35.308	0.079	0.089
-484.420	314.154	0.111	-0.268
-483.405	-157.505	0.392	0.030
-482.391	-149.491	-0.106	0.011
-481.376	-46.452	0.047	0.029
-480.362	50.233	0.257	0.312
-479.347	71.343	-0.314	0.418
-478.332	-70.851	0.181	0.087
-477.318	125.766	0.177	-0.288
-476.303	358.343	0.186	-0.478
-475.289	52.033	0.129	-0.158
-474.274	-121.962	-0.344	-0.072
-473.259	-163.237	-0.495	-0.030
-472.245	-18.943	0.221	-0.177
-471.230	493.284	0.033	-0.098
-470.216	800.000	-0.069	0.254
-469.201	-70.291	0.185	0.090
-468.186	-140.670	-0.303	0.040
-467.172	31.491	-0.095	0.105
-466.157	82.976	-0.194	0.272
-465.143	-200.000	0.061	0.369
-464.128	-23.215	0.221	-0.170
-463.113	800.000	-0.030	-0.110
-462.099	-200.000	0.001	0.249
-461.084	647.736	0.049	-0.161
-460.070	407.616	-0.087	-0.236
-459.055	-92.814	0.098	-0.035
-458.040	-80.769	0.127	0.054
-457.026	-95.059	0.313	0.108
-456.011	-51.900	-0.094	0.056
-454.997	-31.226	-0.043	-0.031
-453.982	800.000	-0.056	0.297
-452.968	391.990	-0.213	0.569
-451.953	-200.000	-0.062	0.427
-450.938	317.910	0.022	-0.054
-449.924	800.000	0.008	0.037
-448.909	39.744	0.164	-0.189
-447.895	-200.000	0.026	-0.720
-446.880	68.579	0.279	0.367
-445.865	-192.701	0.229	0.003
-444.851	-200.000	-0.041	0.582
-443.836	-100.122	0.196	-0.062
-442.822	800.000	-0.066	-0.343
-441.807	203.521	0.129	-0.257
-440.792	-165.440	-0.187	0.010
-439.778	196.276	0.051	-0.099
-438.763	800.000	0.078	-0.442
-437.749	-200.000	0.001	0.201
-436.734	122.840	0.191	0.307
-435.719	-135.712	0.228	0.034
-434.705	441.731	-0.030	-0.086
-433.690	602.089	0.170	-0.546
-432.676	-200.000	0.020	-0.200
-431.661	-71.200	0.519	0.249
-430.646	229.140	-0.070	-0.148
-429.632	800.000	0.098	0.487
-428.617	-152.865	-0.491	-0.044
-427.603	120.797	-0.249	-0.397
-426.588	-100.266	0.304	0.096
-425.573	800.000	-0.020	0.092
-424.559	-96.286	-0.324	0.109
-423.544	-84.064	0.323	0.131
-422.530	-175.884	0.197	-0.007
-421.515	-99.353	-0.087	0.028
-420.500	-53.863	0.280	0.163
-419.486	800.000	0.121	0.497
-418.471	-200.000	-0.046	0.374
-417.457	-136.708	0.258	-0.038
-416.442	609.962	0.082	-0.262
-415.428	-200.000	-0.030	0.323
-414.413	-130.035	-0.142	-0.025
-413.398	514.855	-0.077	0.232
-412.384	-32.976	-0.247	0.175
-411.369	-73.941	0.357	-0.165
-410.355	-56.424	0.445	0.252
-409.340	-14.547	0.299	0.246
-408.325	27.941	0.638	0.688
-407.311	395.155	-0.062	0.166
-406.296	-29.793	-0.402	0.293
-405.282	-113.011	-0.300	0.075
-404.267	131.421	0.206	-0.339
-403.252	800.000	-0.058	-0.285
-402.238	186.167	-0.163	0.312
-401.223	26.738	-0.236	-0.253
-400.209	153.242	-0.210	-0.369
-399.194	72.229	-0.178	-0.238
-398.179	-90.311	-0.495	0.183
-397.165	-121.746	0.123	-0.026
-396.150	30.004	0.091	-0.099
-395.136	-61.942	-0.585	-0.312
-394.121	-83.876	-0.214	-0.087
-393.106	-29.711	0.150	-0.110
-392.092	-174.755	-0.069	0.002
-391.077	133.221	-0.037	-0.061
-390.063	800.000	0.065	-0.239
-389.048	-135.314	0.766	-0.116
-388.033	293.977	0.032	0.075
-387.019	-29.754	-0.334	-0.243
-386.004	6.901	-0.309	0.294
-384.990	103.725	0.075	0.112
-383.975	-23.806	-0.074	0.057
-382.960	-200.000	0.015	-0.119
-381.946	-73.651	0.623	0.289
-380.931	372.226	-0.087	0.226
-379.917	-31.724	0.267	0.192
-378.902	800.000	0.048	-0.186
-377.888	-105.483	-0.333	-0.096
-376.873	277.240	-0.112	-0.255
-375.858	135.511	-0.230	0.384
-374.844	-112.685	0.194	-0.049
-373.829	-48.058	-0.315	-0.194
-372.815	-5.596	0.105	-0.092
-371.800	80.437	0.140	-0.193
-370.785	-126.331	-0.110	-0.021
-369.771	499.598	0.086	-0.254
-368.756	-57.303	-0.469	0.263
-367.742	-52.794	-0.185	-0.109
-366.727	166.597	-0.226	-0.411
-365.712	-52.799	-0.202	-0.119
-364.698	93.423	0.077	0.111
-363.683	-3.345	-0.272	-0.242
-362.669	800.000	-0.077	-0.368
-361.654	-29.429	-0.254	-0.185
-360.639	-14.607	0.332	-0.273
-359.625	632.157	0.148	-0.482
-358.610	-44.645	-0.363	-0.231
-357.596	800.000	-0.113	-0.432
-356.581	105.481	0.115	0.174
-355.566	800.000	0.132	0.521
-354.552	-200.000	-0.007	0.550
-353.537	-67.956	-0.139	0.069
-352.523	124.257	-0.101	0.163
-351.508	-111.415	0.343	0.089
-350.493	800.000	0.127	-0.540
-349.479	-109.776	-0.169	0.045
-348.464	-84.426	-0.254	0.102
-347.450	-44.555	0.325	0.207
-346.435	-84.439	0.509	-0.204
-345.420	-147.359	0.134	0.014
-344.406	-131.566	-0.212	0.035
-343.391	-200.000	-0.010	-0.305
-342.377	-200.000	0.003	-0.272
-341.362	-41.266	-0.076	-0.050
-340.348	800.000	0.071	-0.357
-339.333	-124.375	0.063	-0.012
-338.318	-200.000	-0.030	-0.389
-337.304	-123.318	0.516	0.104
-336.289	-57.557	-0.434	0.242
-335.275	-200.000	-0.016	0.180
-334.260	-102.919	-0.148	0.045
-333.245	115.820	0.105	-0.164
-332.231	18.140	0.105	-0.107
-331.216	101.078	0.270	-0.402
-330.202	-118.980	-0.236	0.052
-329.187	-63.078	0.473	0.248
-328.172	20.316	0.382	-0.394
-327.158	-26.257	-0.184	-0.137
-326.143	72.623	-0.161	0.214
-325.129	-72.692	0.353	-0.166
-324.114	-142.417	0.211	0.026
-323.099	-72.315	-0.167	0.079
-322.085	203.016	-0.130	0.256
-321.070	-200.000	-0.024	-0.234
-320.056	-93.678	-0.505	0.177
-319.041	-35.654	0.171	0.118
-318.026	-161.705	0.359	-0.023
-317.012	-9.766	0.152	0.129
-315.997	40.777	-0.219	-0.252
-314.983	219.431	0.247	0.506
-313.968	-144.918	0.146	0.017
-312.953	390.034	-0.168	-0.446
-311.939	-12.075	-0.093	0.078
-310.924	205.179	-0.089	-0.178
-309.910	800.000	0.068	0.269
-308.895	-200.000	-0.051	0.407
-307.880	108.863	0.245	0.375
-306.866	-191.326	-0.400	0.005
-305.851	-104.396	0.097	-0.028
-304.837	-16.924	0.388	0.312
-303.822	-200.000	0.036	-0.410
-302.807	5.643	0.376	0.354
-301.793	-59.506	0.471	0.257
-300.778	-123.594	0.410	0.082
-299.764	-148.024	-0.458	-0.048
-298.749	35.087	0.224	-0.251
-297.735	-200.000	-0.024	0.177
-296.720	-200.000	0.019	-0.115
-295.705	-100.439	0.318	-0.100
-294.691	-144.492	-0.235	-0.027
-293.676	187.923	0.328	-0.626
-292.662	800.000	0.094	-0.422
-291.647	-75.269	-0.218	0.099
-290.632	-164.414	-0.492	-0.028
-289.618	135.118	0.192	0.319
-288.603	800.000	0.056	0.281
-287.589	493.389	0.031	0.090
-286.574	-71.547	-0.308	-0.146
-285.559	431.214	0.230	0.637
-284.545	-167.752	-0.200	-0.010
-283.530	-200.000	0.009	0.128
-282.516	-40.376	0.428	-0.283
-281.501	-3.490	-0.273	0.242
-280.486	-130.912	-0.206	0.035
-279.472	23.744	0.112	-0.118
-278.457	352.898	-0.064	-0.163
-277.443	-8.576	0.393	-0.336
-276.428	800.000	-0.046	-0.187
-275.413	-200.000	0.000	0.226
-274.399	800.000	0.126	0.513
-273.384	694.014	-0.191	0.641
-272.370	183.846	-0.175	-0.330
-271.355	93.874	0.129	-0.186
-270.340	100.961	-0.136	-0.202
-269.326	127.748	0.105	-0.169
-268.311	544.084	-0.037	-0.113
-267.297	-200.000	0.023	0.259
-266.282	39.165	-0.170	0.193
-265.267	-200.000	0.004	-0.026
-264.253	-98.258	-0.560	0.182
-263.238	-200.000	0.016	0.375
-262.224	33.736	0.184	0.204
-261.209	800.000	0.007	-0.033
-260.195	-118.247	0.519	0.117
-259.180	-59.111	-0.228	0.125
-258.165	-79.030	-0.235	-0.101
-257.151	5.576	-0.225	0.211
-256.136	-51.536	0.312	0.185
-255.122	-177.850	-0.280	0.008
-254.107	-104.956	-0.229	0.067
-253.092	625.403	-0.161	-0.518
-252.078	328.916	-0.143	-0.352
-251.063	373.011	0.066	-0.172
-250.049	-81.113	-0.282	-0.118
-249.034	-100.425	-0.709	0.222
-248.019	222.116	0.150	0.308
-247.005	170.219	0.131	0.239
-245.990	29.321	-0.143	-0.154
-244.976	-131.453	0.461	-0.077
-243.961	-110.376	0.245	0.064
-242.946	104.872	-0.297	0.447
-241.932	-200.000	-0.004	0.138
-240.917	-200.000	0.027	0.364
-239.903	124.787	0.147	-0.237
-238.888	69.748	0.139	0.183
-237.873	-160.107	-0.102	-0.007
-236.859	2.925	-0.168	-0.155
-235.844	-74.545	0.136	-0.062
-234.830	-50.277	0.179	0.107
-233.815	123.481	0.077	0.124
-232.800	4.334	-0.143	0.133
-231.786	94.185	-0.128	-0.185
-230.771	-46.344	0.214	-0.134
-229.757	40.830	0.238	-0.273
-228.742	-200.000	0.054	0.408
-227.727	202.115	-0.221	-0.435
-226.713	68.927	-0.053	0.069
-225.698	-200.000	-0.007	-0.099
-224.684	800.000	-0.098	-0.519
-223.669	-139.162	0.517	-0.070
-222.655	-0.504	0.356	0.321
-221.640	-200.000	-0.022	0.191
-220.625	45.249	0.117	0.137
-219.611	112.352	0.220	0.338
-218.596	-118.895	0.597	-0.132
-217.582	-161.120	-0.380	0.025
-216.567	8.196	-0.159	0.152
-215.552	74.166	-0.382	0.510
-214.538	-181.620	0.253	-0.006
-213.523	-21.196	-0.399	0.309
-212.509	-13.882	0.246	0.202
-211.494	81.982	-0.124	0.171
-210.479	800.000	0.051	0.199
-209.465	178.939	-0.089	0.167
-208.450	-2.942	-0.254	-0.225
-207.436	-38.997	-0.008	0.005
-206.421	-19.465	-0.566	0.445
-205.406	-153.667	0.130	-0.011
-204.392	-94.115	0.550	-0.190
-203.377	-16.222	0.336	-0.271
-202.363	104.866	0.194	0.292
-201.348	-183.462	-0.098	0.002
-200.333	800.000	0.089	0.384
-199.319	-182.907	0.156	-0.003
-198.304	-128.708	0.343	-0.061
-197.290	506.284	-0.132	0.391
-196.275	800.000	-0.091	0.360
-195.260	-21.966	-0.342	0.263
-194.246	-200.000	0.008	-0.286
-193.231	-140.888	0.166	-0.021
-192.217	-1.659	-0.203	-0.182
-191.202	192.576	-0.167	0.321
-190.187	41.532	0.249	-0.286
-189.173	-88.649	0.255	-0.096
-188.158	-9.835	-0.176	-0.148
-187.144	26.108	-0.116	-0.123
-186.129	488.123	-0.092	-0.268
-185.114	-200.000	0.008	0.344
-184.100	0.792	-0.284	-0.258
-183.085	-200.000	0.018	-0.200
-182.071	82.886	-0.138	0.191
-181.056	183.866	-0.065	-0.122
-180.042	-147.090	-0.306	-0.033
-179.027	800.000	-0.080	0.380
-178.012	800.000	0.078	0.277
-176.998	-176.406	-0.524	0.017
-175.983	-156.396	-0.278	-0.022
-174.969	61.348	-0.072	0.091
-173.954	800.000	-0.024	-0.092
-172.939	261.944	-0.032	0.071
-171.925	379.528	-0.114	-0.298
-170.910	92.279	-0.152	-0.218
-169.896	256.732	-0.077	-0.168
-168.881	442.004	-0.215	-0.600
-167.866	158.608	-0.057	-0.100
-166.852	140.760	0.317	-0.533
-165.837	-200.000	0.075	-0.457
-164.823	-106.546	0.376	0.106
-163.808	-200.000	0.030	0.408
-162.793	800.000	0.085	0.398
-161.779	-90.024	-0.345	0.127
-160.764	-200.000	-0.087	-0.490
-159.750	10.724	0.366	-0.354
-158.735	60.976	0.242	-0.304
-157.720	253.835	-0.108	0.236
-156.706	174.822	0.213	-0.392
-155.691	577.214	0.103	0.320
-154.677	-113.180	0.137	-0.034
-153.662	-163.515	0.092	-0.005
-152.647	-100.047	-0.584	-0.184
-151.633	34.657	-0.354	0.392
-150.618	180.501	0.153	0.285
-149.604	-139.791	0.490	0.065
-148.589	-37.665	-0.104	0.070
-147.574	7.249	-0.062	0.059
-146.560	-67.756	-0.222	0.109
-145.545	441.200	0.110	-0.308
-144.531	24.636	-0.153	0.161
-143.516	-172.763	-0.440	0.017
-142.502	38.833	-0.047	-0.054
-141.487	145.090	-0.063	-0.108
-140.472	-78.739	-0.089	0.039
-139.458	-84.502	0.407	0.162
-138.443	-3.081	0.192	0.169
-137.429	54.676	-0.170	0.208
-136.414	88.607	-0.411	0.579
-135.399	365.046	0.132	0.337
-134.385	-62.484	-0.300	0.157
-133.370	0.887	0.335	-0.304
-132.356	-100.141	-0.322	-0.101
-131.341	-92.884	-0.693	0.244
-130.326	-122.088	-0.298	0.061
-129.312	-15.993	-0.150	-0.121
-128.297	84.259	0.124	0.173
-127.283	-27.104	0.206	0.152
-126.268	-45.506	0.238	-0.149
-125.253	-101.451	0.190	-0.058
-124.239	7.169	-0.264	0.249
-123.224	-27.436	-0.144	0.106
-122.210	800.000	-0.160	-0.653
