DTS Sentinel unit serial number:	SN409020Multiplexer serial number:	ORYXHardware model number:	OX4-SRSoftware version number:	ORYX F/W v3.00 Oryx Data Collector v3.7.2.0data status	okinstallation	HaddamTimeLapsedifferential loss correction	single-endedforward channel	channel 3reverse channel	N/Adate	2011/06/21time	18:11:17forward acquisition time	30.00reverse acquisition time	0.00gamma	498.7831k internal	0.1833k external	0.1833temperature offset calibration	1.0074default loss term (dB/km)	0.3790temperature slope calibration	1.3530multiplexer offset coefficient	1.0000multiplexer slope coefficient	1.0000fibre end	0.00T internal ref (°C)	36.44T ext. ref 1 (°C)	28.20T ext. ref 2 (°C)	0.26length (m)	temperature (°C)	Stokes	anti-Stokes-747.200	-86.269	-0.269	0.105
-746.185	-136.520	0.210	0.031
-745.171	-200.000	-0.030	0.172
-744.156	94.719	0.136	0.196
-743.142	-18.528	0.308	-0.243
-742.127	-200.000	0.035	0.255
-741.112	-200.000	-0.006	0.259
-740.098	360.954	-0.191	-0.488
-739.083	108.360	-0.027	0.040
-738.069	800.000	0.143	0.518
-737.054	-200.000	0.023	0.384
-736.039	56.163	0.257	0.317
-735.025	49.794	-0.266	-0.318
-734.010	-20.449	0.149	0.116
-732.996	-81.794	-0.358	-0.148
-731.981	-85.527	-0.443	0.174
-730.966	212.267	0.239	0.479
-729.952	464.736	-0.011	-0.032
-728.937	314.300	-0.173	-0.416
-727.923	78.803	0.106	-0.145
-726.908	-200.000	0.051	-0.331
-725.894	-69.790	-0.300	-0.145
-724.879	-151.002	-0.141	-0.013
-723.864	-159.529	-0.286	-0.020
-722.850	148.900	0.206	-0.354
-721.835	-200.000	-0.036	-0.352
-720.821	-200.000	0.018	-0.453
-719.806	-200.000	-0.038	-0.306
-718.791	800.000	0.082	0.322
-717.777	-14.523	-0.135	0.110
-716.762	-10.380	-0.216	-0.181
-715.748	19.850	0.177	0.180
-714.733	-200.000	0.035	0.438
-713.718	90.470	-0.173	-0.246
-712.704	-100.547	-0.269	-0.084
-711.689	800.000	0.105	0.474
-710.675	53.117	0.160	0.195
-709.660	-200.000	-0.015	0.107
-708.645	-115.485	0.040	0.009
-707.631	577.258	-0.083	0.258
-706.616	800.000	0.108	0.514
-705.602	-106.695	0.182	-0.051
-704.587	20.196	-0.415	-0.425
-703.572	49.160	-0.205	0.244
-702.558	213.550	-0.204	0.410
-701.543	333.047	-0.030	0.073
-700.529	68.313	-0.199	0.259
-699.514	73.382	-0.256	-0.340
-698.499	-136.770	-0.328	0.047
-697.485	-200.000	-0.045	-0.303
-696.470	46.579	0.242	0.284
-695.456	174.445	-0.035	-0.064
-694.441	66.306	0.155	0.199
-693.426	12.633	-0.147	0.144
-692.412	800.000	-0.172	0.634
-691.397	-86.311	-0.264	0.102
-690.383	-47.065	-0.015	-0.009
-689.368	296.097	0.106	0.246
-688.354	395.359	0.087	-0.232
-687.339	-165.339	-0.372	-0.020
-686.324	-200.000	0.025	-0.254
-685.310	-33.682	-0.032	-0.022
-684.295	89.075	0.223	0.315
-683.281	19.422	0.247	-0.251
-682.266	139.079	-0.094	0.157
-681.251	-89.485	-0.260	-0.096
-680.237	-120.384	-0.462	-0.099
-679.222	53.640	-0.311	-0.378
-678.208	214.320	-0.217	-0.436
-677.193	154.170	-0.131	0.228
-676.178	800.000	0.038	-0.173
-675.164	108.872	0.126	0.191
-674.149	296.502	-0.071	0.164
-673.135	-100.434	0.369	-0.115
-672.120	-200.000	0.024	-0.336
-671.105	-102.848	0.313	-0.094
-670.091	-200.000	-0.032	0.253
-669.076	-10.120	0.129	-0.108
-668.062	-3.628	-0.440	-0.386
-667.047	-85.426	-0.270	0.106
-666.032	-55.326	0.282	-0.160
-665.018	-117.297	0.572	-0.130
-664.003	-94.530	0.223	-0.076
-662.989	-75.637	-0.158	0.071
-661.974	800.000	0.028	0.137
-660.959	800.000	-0.107	-0.521
-659.945	-200.000	0.027	0.161
-658.930	-200.000	-0.045	-0.439
-657.916	232.692	0.148	0.309
-656.901	-164.378	0.320	-0.018
-655.886	11.211	0.227	-0.219
-654.872	800.000	-0.035	-0.155
-653.857	-200.000	0.056	0.407
-652.843	65.104	0.114	-0.146
-651.828	-200.000	-0.016	0.283
-650.814	-85.259	-0.388	0.153
-649.799	15.079	0.568	0.562
-648.784	800.000	-0.098	0.481
-647.770	-107.764	0.076	-0.021
-646.755	27.901	-0.248	0.264
-645.741	-200.000	-0.036	0.396
-644.726	-102.867	-0.202	-0.060
-643.711	-174.418	0.524	-0.019
-642.697	337.904	0.251	-0.619
-641.682	-200.000	0.010	0.162
-640.668	-200.000	-0.054	-0.391
-639.653	-115.075	0.233	0.056
-638.638	800.000	0.084	0.340
-637.624	-36.120	-0.379	-0.258
-636.609	-200.000	-0.029	-0.253
-635.595	-12.082	0.072	-0.060
-634.580	627.520	-0.117	-0.376
-633.565	-35.921	0.493	-0.336
-632.551	-72.179	-0.531	0.248
-631.536	-83.270	0.471	0.190
-630.522	-79.334	0.582	0.248
-629.507	38.153	0.186	0.209
-628.492	-200.000	-0.056	0.331
-627.478	800.000	0.081	0.359
-626.463	-73.302	-0.152	-0.070
-625.449	-165.855	-0.389	0.021
-624.434	32.593	0.275	0.300
-623.419	139.913	0.166	0.276
-622.405	-64.538	0.167	-0.085
-621.390	-55.659	-0.124	0.070
-620.376	-17.821	0.280	0.221
-619.361	346.409	0.141	0.351
-618.346	-200.000	0.076	-0.469
-617.332	800.000	-0.129	0.516
-616.317	-200.000	0.037	-0.341
-615.303	-92.768	-0.253	0.089
-614.288	412.109	0.141	0.380
-613.273	199.391	0.192	-0.372
-612.259	53.082	0.149	0.180
-611.244	-108.064	-0.141	-0.038
-610.230	-150.815	0.485	0.046
-609.215	231.328	0.146	-0.304
-608.201	-196.732	0.372	0.003
-607.186	-115.700	0.557	0.131
-606.171	-200.000	-0.001	-0.244
-605.157	-25.532	-0.216	-0.161
-604.142	-162.145	-0.149	0.009
-603.128	-31.761	-0.039	-0.027
-602.113	507.246	0.057	0.167
-601.098	-65.684	0.255	0.128
-600.084	-122.193	-0.444	-0.091
-599.069	437.251	-0.036	-0.099
-598.055	-125.850	0.123	-0.023
-597.040	-76.449	0.149	0.066
-596.025	-42.325	-0.401	0.258
-595.011	-200.000	0.017	0.113
-593.996	-96.533	-0.196	0.065
-592.982	174.938	0.136	-0.249
-591.967	164.973	-0.092	-0.165
-590.952	-61.022	0.234	0.124
-589.938	-200.000	-0.011	-0.262
-588.923	-12.081	0.326	-0.269
-587.909	-8.551	-0.115	-0.097
-586.894	-123.288	0.283	0.057
-585.879	-69.216	0.236	-0.114
-584.865	-200.000	0.226	0.000
-583.850	463.442	-0.109	-0.307
-582.836	-83.028	-0.136	-0.055
-581.821	124.225	0.060	-0.095
-580.806	44.691	-0.370	-0.430
-579.792	562.506	0.025	0.077
-578.777	76.808	-0.386	-0.518
-577.763	-39.888	-0.096	0.063
-576.748	-42.950	-0.081	-0.052
-575.733	800.000	0.123	-0.638
-574.719	278.801	0.125	-0.281
-573.704	-49.039	-0.215	0.129
-572.690	-114.656	0.644	0.154
-571.675	-2.024	0.197	-0.174
-570.661	85.657	0.112	-0.155
-569.646	-63.385	-0.248	0.128
-568.631	290.936	0.151	-0.348
-567.617	-154.287	-0.333	-0.028
-566.602	410.086	0.161	0.432
-565.588	369.288	-0.103	0.263
-564.573	-38.925	-0.169	0.112
-563.558	64.034	0.268	-0.341
-562.544	36.467	0.029	-0.032
-561.529	322.877	-0.008	0.020
-560.515	55.681	-0.275	-0.336
-559.500	-102.400	0.283	-0.085
-558.485	-200.000	0.062	-0.380
-557.471	89.830	0.184	-0.259
-556.456	-101.221	0.647	-0.198
-555.442	-148.663	0.281	-0.028
-554.427	44.466	-0.116	0.135
-553.412	-102.639	-0.419	-0.125
-552.398	-131.589	-0.378	0.062
-551.383	50.171	0.147	0.175
-550.369	-192.565	0.192	0.002
-549.354	800.000	-0.122	-0.473
-548.339	-200.000	0.005	-0.604
-547.325	-40.718	0.176	0.114
-546.310	430.768	-0.030	0.081
-545.296	776.488	-0.204	-0.707
-544.281	-99.689	-0.376	0.118
-543.266	509.974	0.177	-0.521
-542.252	-113.392	-0.179	-0.044
-541.237	800.000	-0.079	0.368
-540.223	13.650	-0.176	-0.172
-539.208	69.370	-0.095	-0.123
-538.193	-83.124	-0.169	-0.068
-537.179	93.576	0.135	0.193
-536.164	317.201	0.096	-0.228
-535.150	-71.400	0.221	0.104
-534.135	800.000	-0.072	0.257
-533.121	-90.890	-0.276	-0.100
-532.106	28.404	-0.321	0.342
-531.091	211.281	-0.288	0.572
-530.077	-18.707	-0.105	0.082
-529.062	-25.071	-0.210	-0.157
-528.048	491.077	0.021	0.061
-527.033	-200.000	0.018	-0.578
-526.018	142.064	-0.176	0.294
-525.004	-11.071	0.263	0.218
-523.989	800.000	0.111	0.435
-522.975	-95.728	0.334	-0.112
-521.960	42.759	-0.258	0.296
-520.945	800.000	-0.083	0.386
-519.931	-63.451	0.269	-0.138
-518.916	341.998	0.129	-0.319
-517.902	260.175	-0.196	-0.427
-516.887	-89.653	0.137	0.050
-515.872	-28.308	-0.241	0.175
-514.858	-57.517	0.503	-0.277
-513.843	-29.446	-0.181	-0.130
-512.829	18.988	-0.398	-0.401
-511.814	-24.558	-0.177	0.132
-510.799	69.682	0.088	-0.115
-509.785	-97.203	-0.275	0.090
-508.770	490.106	0.120	0.346
-507.756	-49.993	-0.155	-0.092
-506.741	-200.000	-0.050	0.493
-505.726	-200.000	-0.019	-0.266
-504.712	-6.435	0.479	-0.410
-503.697	380.710	0.210	-0.544
-502.683	-84.697	-0.335	0.132
-501.668	-19.326	-0.453	-0.353
-500.653	17.900	0.278	0.278
-499.639	176.725	0.212	0.389
-498.624	-60.881	-0.232	0.123
-497.610	-47.971	-0.194	0.117
-496.595	89.859	-0.304	0.427
-495.581	-41.988	0.080	0.051
-494.566	-200.000	-0.001	-0.145
-493.551	-200.000	-0.049	-0.689
-492.537	-5.167	0.293	-0.253
-491.522	334.109	0.077	-0.188
-490.508	127.057	0.107	0.171
-489.493	-109.794	0.492	-0.129
-488.478	2.462	0.178	0.162
-487.464	237.576	-0.309	-0.645
-486.449	329.688	0.069	-0.167
-485.435	-200.000	-0.043	-0.373
-484.420	-147.432	0.126	-0.013
-483.405	-169.727	-0.337	0.015
-482.391	46.432	-0.362	0.422
-481.376	353.365	-0.242	0.606
-480.362	800.000	-0.085	-0.404
-479.347	-43.545	-0.446	0.282
-478.332	-79.149	-0.361	0.153
-477.318	-116.465	-0.241	-0.055
-476.303	269.561	-0.061	0.134
-475.289	-200.000	-0.043	0.629
-474.274	-200.000	-0.007	0.457
-473.259	741.446	0.095	0.323
-472.245	-200.000	-0.008	0.301
-471.230	-149.384	0.420	-0.041
-470.216	280.667	0.114	0.258
-469.201	308.456	0.128	0.302
-468.186	-84.818	0.202	0.079
-467.172	-5.434	-0.412	0.354
-466.157	78.193	-0.202	-0.270
-465.143	-20.396	-0.061	0.047
-464.128	800.000	0.036	0.169
-463.113	530.788	-0.129	0.384
-462.099	-67.106	-0.263	0.130
-461.084	-102.928	0.448	0.133
-460.070	-72.688	0.117	0.054
-459.055	326.536	0.183	-0.441
-458.040	-200.000	-0.043	-0.504
-457.026	800.000	-0.110	-0.382
-456.011	-116.812	0.085	0.020
-454.997	-115.297	0.604	-0.142
-453.982	13.831	-0.129	0.125
-452.968	-138.874	-0.257	-0.035
-451.953	-7.720	-0.167	0.141
-450.938	-20.174	0.016	0.012
-449.924	-36.812	0.266	-0.179
-448.909	800.000	-0.057	-0.220
-447.895	-200.000	-0.017	-0.095
-446.880	-200.000	0.003	-0.331
-445.865	-200.000	0.145	-0.001
-444.851	-104.091	-0.154	0.045
-443.836	115.402	0.224	0.344
-442.822	-200.000	-0.062	0.515
-441.807	457.568	0.137	0.382
-440.792	-200.000	-0.041	0.246
-439.778	-131.701	0.169	-0.028
-438.763	-54.712	0.287	-0.162
-437.749	-77.024	0.291	-0.127
-436.734	-111.212	-0.527	0.134
-435.719	-82.561	-0.174	-0.070
-434.705	116.981	0.042	0.065
-433.690	-200.000	0.063	0.549
-432.676	756.282	0.119	0.407
-431.661	-73.356	-0.104	0.047
-430.646	584.466	-0.159	0.493
-429.632	25.991	-0.336	-0.351
-428.617	-47.520	0.496	0.301
-427.603	76.769	-0.131	0.175
-426.588	691.898	-0.203	-0.671
-425.573	-145.261	-0.340	-0.038
-424.559	-180.628	-0.311	-0.008
-423.544	128.777	-0.081	-0.130
-422.530	165.530	-0.065	0.116
-421.515	194.394	0.182	-0.346
-420.500	5.352	-0.391	-0.361
-419.486	420.927	-0.053	0.142
-418.471	800.000	0.050	-0.233
-417.457	65.125	-0.194	0.246
-416.442	-121.534	-0.270	-0.056
-415.428	-5.319	-0.342	0.294
-414.413	90.141	-0.257	-0.361
-413.398	28.705	-0.410	0.434
-412.384	800.000	0.135	-0.687
-411.369	41.644	-0.151	-0.171
-410.355	800.000	0.075	0.384
-409.340	217.209	-0.207	-0.415
-408.325	-23.202	0.308	0.231
-407.311	800.000	0.109	0.507
-406.296	48.023	0.222	0.260
-405.282	65.339	0.075	0.095
-404.267	-200.000	-0.001	-0.357
-403.252	-200.000	0.003	0.332
-402.238	-200.000	0.028	-0.420
-401.223	-82.146	0.344	-0.140
-400.209	205.135	-0.138	0.268
-399.194	-42.757	-0.195	-0.124
-398.179	199.902	0.080	-0.154
-397.165	-45.161	0.104	-0.064
-396.150	105.762	0.289	-0.428
-395.136	420.765	-0.030	-0.082
-394.121	313.144	-0.168	-0.397
-393.106	-126.485	-0.449	-0.083
-392.092	-40.297	-0.174	-0.113
-391.077	351.850	-0.192	-0.477
-390.063	-200.000	0.115	-0.000
-389.048	-15.559	-0.454	-0.362
-388.033	73.294	-0.212	-0.278
-387.019	-54.794	0.417	-0.235
-386.004	-118.002	-0.522	0.116
-384.990	87.888	-0.167	0.233
-383.975	-3.717	-0.240	0.208
-382.960	-60.899	0.169	0.089
-381.946	-85.883	-0.378	0.145
-380.931	-122.950	-0.084	0.017
-379.917	64.214	-0.078	-0.099
-378.902	-200.000	-0.019	0.297
-377.888	357.582	0.059	-0.147
-376.873	-200.000	-0.003	0.190
-375.858	-56.013	-0.101	0.056
-374.844	168.245	-0.130	-0.232
-373.829	-200.000	0.044	-0.390
-372.815	-136.800	-0.313	-0.045
-371.800	-31.743	-0.159	0.111
-370.785	800.000	0.079	-0.285
-369.771	-37.229	-0.358	-0.239
-368.756	17.907	-0.250	0.249
-367.742	127.800	-0.103	0.163
-366.727	-12.669	0.093	0.076
-365.712	524.089	-0.103	0.305
-364.698	-200.000	-0.047	0.289
-363.683	-59.629	0.390	0.209
-362.669	65.088	0.058	-0.073
-361.654	-48.181	0.094	-0.056
-360.639	245.316	-0.209	0.441
-359.625	116.229	0.223	0.342
-358.610	-115.023	0.599	0.141
-357.596	356.562	-0.120	-0.301
-356.581	50.845	-0.105	-0.124
-355.566	-119.465	0.377	-0.081
-354.552	-200.000	-0.003	0.463
-353.537	800.000	0.073	0.299
-352.523	66.319	-0.100	0.127
-351.508	-72.959	0.107	-0.049
-350.493	-181.587	0.245	0.006
-349.479	-178.697	0.233	-0.007
-348.464	-39.636	-0.122	-0.080
-347.450	800.000	0.014	-0.071
-346.435	204.518	-0.152	-0.295
-345.420	-70.186	0.216	0.102
-344.406	-81.458	0.434	0.177
-343.391	-200.000	0.030	-0.452
-342.377	26.409	0.099	-0.103
-341.362	-25.206	-0.406	0.300
-340.348	141.423	-0.008	0.014
-339.333	39.998	0.130	-0.146
-338.318	620.722	0.016	-0.050
-337.304	215.250	0.214	-0.425
-336.289	-200.000	-0.000	-0.115
-335.275	66.279	0.153	0.194
-334.260	800.000	0.070	0.288
-333.245	547.967	0.082	-0.246
-332.231	-148.562	-0.612	0.062
-331.216	87.659	-0.128	0.177
-330.202	-200.000	0.025	-0.330
-329.187	-126.647	0.791	0.145
-328.172	295.490	0.117	0.268
-327.158	-84.047	-0.247	-0.098
-326.143	-200.000	0.003	-0.349
-325.129	-158.895	-0.409	0.029
-324.114	-147.546	0.443	0.046
-323.099	518.446	0.037	-0.109
-322.085	61.107	0.206	0.255
-321.070	209.377	-0.109	-0.215
-320.056	-133.977	0.515	-0.079
-319.041	463.215	-0.044	-0.124
-318.026	-125.316	-0.391	0.074
-317.012	800.000	-0.070	-0.327
-315.997	202.435	-0.115	0.222
-314.983	-5.832	-0.331	-0.282
-313.968	85.472	0.244	-0.334
-312.953	-138.873	0.166	0.022
-311.939	72.664	0.123	-0.160
-310.924	800.000	-0.081	-0.291
-309.910	-154.429	-0.093	-0.008
-308.895	1.766	-0.109	-0.098
-307.880	-116.867	0.271	-0.061
-306.866	-200.000	0.011	0.243
-305.851	-159.338	0.367	0.025
-304.837	800.000	0.092	0.353
-303.822	800.000	0.029	0.138
-302.807	-76.006	0.237	0.104
-301.793	-200.000	0.083	0.520
-300.778	101.676	-0.331	0.481
-299.764	71.281	-0.180	0.233
-298.749	-200.000	-0.037	0.418
-297.735	-200.000	0.081	-0.559
-296.720	-106.853	-0.124	0.034
-295.705	-114.143	0.148	-0.036
-294.691	-86.740	0.397	0.151
-293.676	-200.000	0.067	0.406
-292.662	23.727	0.233	-0.240
-291.647	-95.577	0.031	0.010
-290.632	-107.584	0.378	0.102
-289.618	6.650	-0.075	0.070
-288.603	133.110	-0.228	0.369
-287.589	-200.000	0.001	-0.075
-286.574	-44.897	-0.463	-0.287
-285.559	-200.000	-0.024	0.184
-284.545	-59.117	-0.165	0.088
-283.530	-103.109	0.245	-0.072
-282.516	48.049	0.052	-0.060
-281.501	-113.988	0.088	-0.021
-280.486	-58.337	-0.132	0.072
-279.472	536.788	0.101	-0.299
-278.457	27.191	0.108	0.113
-277.443	-157.189	0.251	-0.019
-276.428	-200.000	0.074	-0.908
-275.413	-56.081	-0.191	-0.106
-274.399	4.686	-0.175	0.160
-273.384	800.000	-0.093	-0.366
-272.370	-200.000	0.032	-0.369
-271.355	-105.170	-0.264	-0.075
-270.340	-200.000	-0.008	-0.375
-269.326	76.850	0.162	-0.215
-268.311	186.115	-0.170	0.316
-267.297	-14.243	-0.167	0.133
-266.282	-146.201	0.622	-0.067
-265.267	-200.000	-0.007	0.281
-264.253	-78.261	-0.273	0.116
-263.238	800.000	0.039	0.213
-262.224	-86.812	-0.194	0.074
-261.209	46.883	-0.111	-0.129
-260.195	-20.168	0.346	-0.265
-259.180	0.539	0.030	-0.027
-258.165	70.896	0.048	0.062
-257.151	-86.277	-0.454	-0.173
-256.136	-200.000	0.016	0.418
-255.122	-92.681	0.375	0.130
-254.107	-138.613	-0.237	0.032
-253.092	356.934	0.034	-0.085
-252.078	-200.000	-0.025	-0.235
-251.063	-200.000	0.017	0.320
-250.049	-200.000	-0.043	0.512
-249.034	3.982	0.204	-0.186
-248.019	22.301	-0.141	0.143
-247.005	-124.360	-0.307	0.059
-245.990	-53.427	0.197	0.112
-244.976	800.000	-0.057	0.241
-243.961	-133.126	0.448	0.070
-242.946	-153.616	0.071	0.006
-241.932	-62.389	-0.390	0.201
-240.917	11.115	-0.361	0.344
-239.903	378.902	-0.069	0.177
-238.888	336.415	0.045	0.108
-237.873	800.000	0.052	-0.200
-236.859	504.371	-0.103	-0.299
-235.844	319.908	0.127	-0.302
-234.830	-29.816	0.261	-0.185
-233.815	-61.203	-0.343	-0.179
-232.800	34.060	-0.325	-0.353
-231.786	-89.363	-0.424	0.154
-230.771	800.000	0.138	0.645
-229.757	-69.619	0.295	-0.140
-228.742	95.651	0.084	0.119
-227.727	-200.000	-0.001	-0.098
-226.713	800.000	0.033	-0.154
-225.698	-86.049	-0.110	0.042
-224.684	229.508	0.180	0.366
-223.669	-2.402	-0.247	0.215
-222.655	140.712	0.011	0.017
-221.640	-200.000	-0.018	0.363
-220.625	-25.894	0.255	0.187
-219.611	398.919	0.188	-0.491
-218.596	800.000	-0.131	-0.462
-217.582	-153.074	-0.271	-0.023
-216.567	-71.612	-0.245	-0.113
-215.552	102.803	0.041	0.060
-214.538	800.000	-0.111	-0.392
-213.523	369.081	-0.073	0.185
-212.509	54.675	0.057	0.068
-211.494	683.898	0.091	-0.298
-210.479	-157.705	-0.322	-0.023
-209.465	-33.320	-0.239	-0.164
-208.450	-162.817	-0.393	0.023
-207.436	-103.419	0.172	-0.050
-206.421	109.394	0.099	0.147
-205.406	-200.000	0.006	0.181
-204.392	-113.630	-0.625	-0.150
-203.377	204.621	0.153	0.296
-202.363	171.185	-0.076	-0.136
-201.348	-200.000	-0.041	0.345
-200.333	-200.000	0.044	0.337
-199.319	-200.000	-0.029	0.331
-198.304	14.961	-0.237	-0.230
-197.290	-200.000	0.023	0.329
-196.275	-9.713	0.211	0.174
-195.260	67.710	0.260	0.330
-194.246	-96.282	-0.398	-0.130
-193.231	5.231	0.383	0.351
-192.217	76.809	-0.152	0.201
-191.202	-200.000	-0.060	0.348
-190.187	-19.694	0.461	-0.353
-189.173	748.136	0.085	-0.286
-188.158	374.890	-0.151	-0.383
-187.144	242.272	0.184	0.383
-186.129	67.013	-0.091	-0.115
-185.114	-200.000	-0.004	-0.226
-184.100	-55.135	0.244	0.136
-183.085	-40.246	0.532	0.343
-182.071	-151.156	0.347	-0.032
-181.056	-87.061	0.181	0.068
-180.042	2.944	-0.110	0.099
-179.027	-13.644	-0.287	-0.230
-178.012	-200.000	-0.031	-0.467
-176.998	-200.000	0.020	-0.114
-175.983	-198.839	0.039	-0.000
-174.969	431.969	0.100	0.269
-173.954	367.878	-0.165	0.416
-172.939	-95.248	0.185	-0.061
-171.925	-153.764	0.315	-0.026
-170.910	-113.314	0.302	0.073
-169.896	-63.840	0.415	0.210
-168.881	800.000	0.145	0.579
-167.866	-112.849	0.311	0.076
-166.852	-145.599	-0.234	0.026
-165.837	-5.207	0.178	0.151
-164.823	-75.777	0.217	-0.095
-163.808	-92.729	-0.159	-0.055
-162.793	-178.743	-0.404	0.011
-161.779	588.794	0.078	-0.239
-160.764	800.000	-0.147	-0.551
-159.750	140.269	-0.223	-0.366
-158.735	-87.112	0.300	-0.112
-157.720	-64.198	0.320	-0.161
-156.706	617.732	-0.087	0.273
-155.691	-112.784	0.144	-0.035
-154.677	10.794	-0.162	-0.154
-153.662	800.000	0.078	0.426
-152.647	28.019	-0.380	-0.397
-151.633	13.511	-0.457	-0.440
-150.618	212.217	-0.133	0.261
-149.604	277.349	-0.084	-0.185
-148.589	800.000	-0.017	-0.082
-147.574	47.010	0.292	-0.337
-146.560	162.740	0.174	-0.304
-145.545	-22.445	0.088	-0.066
-144.531	-163.632	-0.458	0.026
-143.516	54.485	-0.280	-0.335
-142.502	-87.484	0.429	0.160
-141.487	184.974	-0.119	-0.220
-140.472	-30.136	-0.289	0.203
-139.458	-200.000	-0.014	0.356
-138.443	159.188	-0.105	0.182
-137.429	-38.771	-0.178	0.116
-136.414	-53.766	0.580	0.327
-135.399	322.676	0.030	-0.071
-134.385	-55.343	0.199	-0.110
-133.370	651.721	0.036	-0.116
-132.356	-145.330	0.322	0.036
-131.341	317.459	0.167	0.393
-130.326	-80.591	-0.621	0.255
-129.312	10.179	-0.113	-0.107
-128.297	2.266	-0.289	-0.259
-127.283	-137.566	-0.387	-0.053
-126.268	420.446	-0.126	-0.336
-125.253	119.074	0.186	-0.286
-124.239	800.000	0.060	0.243
-123.224	-134.588	-0.444	-0.066
-122.210	308.181	0.108	-0.250
-121.195	-150.429	-0.537	-0.050
