DTS Sentinel unit serial number:	SN409020Multiplexer serial number:	ORYXHardware model number:	OX4-SRSoftware version number:	ORYX F/W v3.00 Oryx Data Collector v3.7.2.0data status	okinstallation	HaddamTimeLapsedifferential loss correction	single-endedforward channel	channel 3reverse channel	N/Adate	2011/06/21time	21:36:17forward acquisition time	30.00reverse acquisition time	0.00gamma	498.7831k internal	0.1761k external	0.1761temperature offset calibration	1.0074default loss term (dB/km)	0.3790temperature slope calibration	1.3530multiplexer offset coefficient	1.0000multiplexer slope coefficient	1.0000fibre end	0.00T internal ref (°C)	25.87T ext. ref 1 (°C)	19.53T ext. ref 2 (°C)	0.03length (m)	temperature (°C)	Stokes	anti-Stokes-747.200	-77.239	-0.609	0.279
-746.185	6.572	-0.300	0.295
-745.171	147.148	0.151	0.269
-744.156	-74.707	-0.233	-0.110
-743.142	32.982	-0.272	-0.311
-742.127	-132.350	0.255	0.043
-741.112	109.688	0.104	-0.164
-740.098	-200.000	0.132	0.910
-739.083	-24.296	0.105	-0.083
-738.069	126.412	0.083	-0.139
-737.054	-78.510	-0.615	0.277
-736.039	242.493	-0.120	0.266
-735.025	24.965	-0.186	-0.204
-734.010	56.560	-0.088	0.113
-732.996	125.825	0.125	-0.209
-731.981	-91.472	-0.162	0.061
-730.966	-63.868	-0.286	-0.154
-729.952	-121.442	0.239	0.052
-728.937	800.000	-0.073	0.276
-727.923	394.432	-0.125	0.346
-726.908	120.702	-0.161	0.265
-725.894	20.665	0.228	-0.244
-724.879	-11.389	-0.095	0.082
-723.864	-153.851	0.141	-0.013
-722.850	-6.341	-0.132	-0.119
-721.835	800.000	0.073	-0.309
-720.821	-11.593	-0.267	0.232
-719.806	800.000	-0.177	0.684
-718.791	-76.969	-0.319	-0.146
-717.777	294.730	-0.083	-0.202
-716.762	12.362	-0.284	-0.289
-715.748	-156.142	-0.100	0.008
-714.733	800.000	-0.038	-0.151
-713.718	-166.210	0.506	0.028
-712.704	-200.000	-0.014	0.228
-711.689	-25.085	-0.215	-0.168
-710.675	-67.714	-0.165	0.085
-709.660	479.016	0.102	-0.307
-708.645	-200.000	-0.022	-0.200
-707.631	-88.837	0.299	0.116
-706.616	46.041	-0.136	-0.166
-705.602	-95.728	0.176	-0.062
-704.587	192.152	0.122	-0.243
-703.572	-128.694	-0.399	0.074
-702.558	-57.988	-0.257	-0.148
-701.543	-25.476	0.248	0.193
-700.529	-125.476	0.702	-0.140
-699.514	487.306	-0.200	-0.604
-698.499	585.653	-0.068	-0.221
-697.485	-187.555	0.482	-0.008
-696.470	-3.013	0.076	-0.070
-695.456	93.836	-0.072	0.108
-694.441	53.947	0.090	0.114
-693.426	-200.000	0.005	0.394
-692.412	43.963	0.029	-0.035
-691.397	-94.264	0.207	0.074
-690.383	-200.000	-0.002	0.030
-689.368	-24.407	0.354	-0.278
-688.354	107.167	0.271	-0.425
-687.339	800.000	0.066	0.271
-686.324	-136.260	-0.415	0.063
-685.310	-200.000	-0.020	0.214
-684.295	143.538	0.113	-0.198
-683.281	14.697	-0.221	-0.227
-682.266	-6.182	0.185	0.167
-681.251	-200.000	0.017	-0.247
-680.237	-197.738	-0.595	-0.005
-679.222	77.917	-0.105	0.148
-678.208	-69.644	-0.194	0.097
-677.193	-143.473	0.198	0.025
-676.178	-108.025	0.472	-0.134
-675.164	666.685	0.080	-0.276
-674.149	585.465	0.022	-0.072
-673.135	-130.350	-0.210	-0.037
-672.120	-200.000	0.059	-0.736
-671.105	-96.030	0.197	-0.069
-670.091	-97.919	-0.595	-0.201
-669.076	-25.666	-0.464	-0.360
-668.062	-200.000	-0.031	-0.319
-667.047	-145.074	0.262	0.031
-666.032	-200.000	-0.087	-0.648
-665.018	462.413	0.081	-0.239
-664.003	-200.000	-0.026	-0.571
-662.989	-87.719	0.163	-0.064
-661.974	-37.003	-0.313	0.220
-660.959	60.018	-0.047	0.061
-659.945	-6.564	0.342	-0.306
-658.930	-53.618	-0.161	0.096
-657.916	-79.045	0.090	-0.040
-656.901	-35.715	-0.067	0.048
-655.886	-122.107	-0.398	-0.085
-654.872	103.733	-0.047	-0.073
-653.857	757.155	-0.065	-0.233
-652.843	-200.000	-0.058	-0.370
-651.828	154.827	-0.130	0.235
-650.814	-60.175	0.308	-0.172
-649.799	185.506	0.340	-0.666
-648.784	14.654	0.389	0.400
-647.770	132.224	0.190	0.323
-646.755	-10.242	0.182	-0.159
-645.741	3.440	-0.258	-0.247
-644.726	-31.356	0.030	-0.022
-643.711	125.451	0.179	0.297
-642.697	-200.000	0.012	0.231
-641.682	146.817	0.091	0.162
-640.668	-152.733	0.229	-0.021
-639.653	-112.817	-0.395	-0.102
-638.638	-32.573	-0.436	0.319
-637.624	-169.509	0.346	-0.016
-636.609	-108.709	0.164	-0.046
-635.595	-40.927	-0.028	-0.019
-634.580	-67.858	0.440	0.225
-633.565	364.118	-0.087	-0.230
-632.551	-200.000	0.011	-0.731
-631.536	-200.000	0.068	-0.464
-630.522	-200.000	-0.026	0.000
-629.507	550.354	-0.056	0.178
-628.492	-39.803	0.094	0.065
-627.478	800.000	-0.043	0.182
-626.463	273.040	-0.164	0.382
-625.449	47.195	-0.170	-0.208
-624.434	-157.190	0.111	-0.009
-623.419	-91.324	0.204	-0.076
-622.405	800.000	-0.053	0.226
-621.390	-39.913	0.195	0.134
-620.376	-162.078	0.257	0.017
-619.361	-200.000	-0.024	-0.372
-618.346	-60.007	-0.454	0.254
-617.332	-150.028	-0.508	0.051
-616.317	-74.495	0.289	-0.136
-615.303	-200.000	0.023	0.466
-614.288	-67.900	0.319	-0.163
-613.273	340.897	0.149	0.384
-612.259	79.711	-0.184	0.261
-611.244	-90.030	0.486	-0.185
-610.230	-200.000	-0.336	-0.001
-609.215	-64.319	-0.164	-0.087
-608.201	54.008	-0.318	-0.402
-607.186	-104.452	-0.303	0.092
-606.171	-100.427	0.311	-0.101
-605.157	5.145	0.365	0.353
-604.142	-165.191	0.444	-0.025
-603.128	-200.000	0.023	0.138
-602.113	-84.304	0.150	0.062
-601.098	-200.000	0.180	-0.001
-600.084	356.503	0.119	0.312
-599.069	-109.136	0.517	-0.143
-598.055	-33.741	-0.114	-0.083
-597.040	459.703	0.078	0.230
-596.025	-24.583	-0.167	-0.131
-595.011	-147.974	0.106	0.011
-593.996	-50.981	0.351	-0.216
-592.982	677.284	-0.183	0.629
-591.967	1.237	0.130	-0.122
-590.952	-75.893	0.275	0.127
-589.938	183.157	-0.071	-0.138
-588.923	259.287	0.071	-0.162
-587.909	-90.211	0.456	0.173
-586.894	-86.376	-0.716	0.288
-585.879	-58.439	-0.312	0.177
-584.865	-160.613	0.276	0.019
-583.850	-106.693	0.156	0.045
-582.836	-108.918	0.638	0.178
-581.821	-37.667	0.174	0.122
-580.806	800.000	-0.032	-0.166
-579.792	-98.685	0.427	-0.142
-578.777	78.548	-0.126	0.177
-577.763	141.571	0.074	0.128
-576.748	744.202	-0.087	0.309
-575.733	-115.193	-0.161	0.040
-574.719	-200.000	-0.027	0.406
-573.704	-200.000	-0.013	0.124
-572.690	-200.000	-0.030	0.271
-571.675	-164.240	-0.086	-0.005
-570.661	14.108	0.222	-0.227
-569.646	-200.000	-0.000	0.162
-568.631	26.951	-0.386	0.425
-567.617	-75.630	0.340	-0.158
-566.602	-99.238	0.063	-0.021
-565.588	-135.760	0.396	-0.061
-564.573	591.257	-0.067	-0.218
-563.558	-200.000	0.000	-0.359
-562.544	-176.661	-0.473	0.016
-561.529	113.149	-0.071	0.114
-560.515	800.000	0.084	-0.423
-559.500	-50.136	-0.283	0.175
-558.485	-200.000	0.014	0.194
-557.471	94.288	-0.263	0.393
-556.456	51.867	0.398	-0.497
-555.442	-112.786	-0.316	-0.082
-554.427	-188.600	-0.210	-0.003
-553.412	-28.537	0.319	0.240
-552.398	800.000	-0.074	-0.287
-551.383	-135.806	-0.405	0.062
-550.369	-183.780	-0.115	-0.003
-549.354	-77.782	-0.291	0.131
-548.339	-200.000	-0.084	-0.671
-547.325	-176.511	-0.274	-0.009
-546.310	19.360	-0.315	0.331
-545.296	169.465	-0.124	-0.233
-544.281	-200.000	0.029	-0.449
-543.266	-200.000	-0.022	-0.417
-542.252	-147.650	0.421	-0.046
-541.237	133.627	0.204	-0.346
-540.223	30.497	0.145	-0.162
-539.208	168.834	-0.189	-0.353
-538.193	202.175	-0.043	0.087
-537.179	-132.595	0.112	-0.019
-536.164	-93.707	-0.284	-0.102
-535.150	73.814	-0.231	-0.318
-534.135	800.000	0.067	0.314
-533.121	-200.000	0.035	0.293
-532.106	-73.729	-0.073	-0.034
-531.091	-178.614	0.589	0.017
-530.077	800.000	0.124	-0.456
-529.062	800.000	-0.025	-0.135
-528.048	-44.345	0.116	-0.076
-527.033	258.508	0.274	-0.620
-526.018	-150.626	0.408	0.040
-525.004	-90.389	0.042	0.016
-523.989	432.470	-0.139	0.396
-522.975	-75.127	-0.370	0.173
-521.960	312.847	0.155	0.382
-520.945	-85.826	0.148	-0.060
-519.931	-79.040	-0.304	0.135
-518.916	800.000	-0.098	-0.548
-517.902	342.954	0.090	-0.231
-516.887	473.802	-0.041	-0.123
-515.872	-77.876	0.134	0.060
-514.858	-27.511	-0.621	-0.472
-513.843	-116.636	0.105	0.025
-512.829	311.843	-0.208	-0.512
-511.814	-200.000	-0.088	-0.548
-510.799	276.328	-0.030	0.070
-509.785	-107.614	-0.352	-0.100
-508.770	-200.000	0.041	-0.444
-507.756	-179.831	-0.246	-0.007
-506.741	0.160	0.506	-0.472
-505.726	10.555	0.166	-0.165
-504.712	-70.161	-0.089	0.044
-503.697	-59.516	0.423	-0.237
-502.683	-79.539	0.018	-0.008
-501.668	-154.007	0.219	0.019
-500.653	-199.381	0.364	0.002
-499.639	129.381	0.163	-0.273
-498.624	236.801	-0.091	-0.198
-497.610	-62.374	-0.255	-0.139
-496.595	-129.008	-0.288	0.052
-495.581	124.325	-0.209	0.345
-494.566	-115.990	0.321	-0.078
-493.551	-124.294	-0.769	-0.156
-492.537	86.215	-0.069	-0.100
-491.522	-200.000	0.033	-0.270
-490.508	800.000	-0.049	0.206
-489.493	800.000	0.082	0.311
-488.478	-119.534	-0.218	-0.049
-487.464	-200.000	0.025	-0.279
-486.449	-96.440	0.336	0.115
-485.435	-110.758	-0.665	-0.178
-484.420	-200.000	-0.001	0.064
-483.405	-200.000	-0.005	-0.043
-482.391	-27.863	0.303	0.229
-481.376	-200.000	-0.033	0.205
-480.362	50.726	0.042	0.052
-479.347	800.000	-0.057	-0.321
-478.332	104.786	-0.395	-0.609
-477.318	252.284	0.184	-0.411
-476.303	-200.000	-0.006	0.137
-475.289	-159.313	-0.094	-0.007
-474.274	-108.835	0.511	-0.142
-473.259	-116.061	0.394	-0.095
-472.245	363.565	0.044	-0.115
-471.230	217.736	0.277	0.580
-470.216	-138.336	-0.077	-0.011
-469.201	64.270	-0.212	0.280
-468.186	-27.422	0.243	-0.184
-467.172	136.322	-0.276	-0.471
-466.157	800.000	-0.017	-0.070
-465.143	572.171	0.104	-0.334
-464.128	-37.291	0.395	-0.275
-463.113	226.711	0.211	-0.448
-462.099	237.434	0.114	-0.247
-461.084	-200.000	0.026	-0.214
-460.070	-113.568	-0.184	0.047
-459.055	-200.000	0.030	-0.271
-458.040	-133.848	0.281	0.045
-457.026	-47.888	0.296	0.187
-456.011	14.077	0.248	0.252
-454.997	-45.690	-0.526	0.339
-453.982	79.088	-0.119	-0.167
-452.968	-103.134	0.321	-0.099
-451.953	-193.013	-0.493	-0.006
-450.938	-61.412	0.232	-0.127
-449.924	-104.335	0.103	-0.031
-448.909	-200.000	-0.007	0.239
-447.895	-200.000	0.021	0.457
-446.880	-149.660	0.414	0.042
-445.865	-119.025	-0.264	-0.060
-444.851	131.640	-0.309	0.521
-443.836	-94.515	-0.338	0.120
-442.822	-165.001	0.327	0.019
-441.807	800.000	-0.095	-0.396
-440.792	306.902	-0.068	-0.166
-439.778	597.967	-0.060	-0.194
-438.763	-50.568	-0.305	-0.187
-437.749	-66.086	0.316	-0.164
-436.734	-68.540	0.172	-0.087
-435.719	-108.781	-0.418	0.116
-434.705	455.534	0.151	-0.440
-433.690	800.000	-0.013	0.060
-432.676	-96.868	-0.057	0.020
-431.661	-132.728	0.049	-0.008
-430.646	-17.800	-0.426	0.348
-429.632	286.867	-0.063	-0.150
-428.617	-162.108	-0.091	0.006
-427.603	52.807	-0.036	-0.045
-426.588	51.184	0.196	-0.243
-425.573	-200.000	0.055	0.336
-424.559	-168.602	-0.485	0.024
-423.544	-65.323	-0.150	-0.078
-422.530	237.777	-0.326	-0.709
-421.515	-200.000	0.006	0.455
-420.500	-200.000	0.003	0.091
-419.486	-12.604	0.123	-0.105
-418.471	-46.404	0.059	-0.038
-417.457	-122.705	0.100	-0.021
-416.442	-2.888	0.230	-0.209
-415.428	800.000	-0.111	0.449
-414.413	800.000	-0.069	-0.293
-413.398	-85.367	-0.072	0.029
-412.384	349.506	0.103	0.266
-411.369	115.865	0.121	0.193
-410.355	283.504	-0.076	0.178
-409.340	-200.000	0.014	0.331
-408.325	254.021	0.121	0.271
-407.311	-50.146	-0.183	0.112
-406.296	-80.518	-0.335	-0.145
-405.282	-156.118	0.337	-0.027
-404.267	378.269	0.184	0.492
-403.252	-45.126	-0.291	-0.188
-402.238	499.420	-0.120	-0.363
-401.223	144.970	0.049	-0.085
-400.209	-115.703	0.045	0.011
-399.194	-88.084	-0.143	0.056
-398.179	118.421	0.312	0.502
-397.165	652.926	0.099	0.331
-396.150	-53.585	-0.249	0.148
-395.136	92.400	0.211	0.311
-394.121	-200.000	-0.005	-0.276
-393.106	29.536	0.251	0.278
-392.092	-175.270	0.314	-0.011
-391.077	9.629	-0.396	0.391
-390.063	91.926	0.056	0.082
-389.048	-79.976	-0.211	0.092
-388.033	18.714	0.367	0.383
-387.019	-149.310	0.207	-0.021
-386.004	134.074	0.138	-0.234
-384.990	235.927	-0.083	0.179
-383.975	789.043	0.142	0.509
-382.960	-87.747	-0.330	0.129
-381.946	-156.737	-0.246	-0.019
-380.931	-81.368	-0.404	-0.172
-379.917	-24.173	0.088	0.068
-378.902	411.765	-0.086	0.239
-377.888	-69.794	-0.422	-0.209
-376.873	-198.110	0.216	0.002
-375.858	-198.455	-0.154	0.001
-374.844	100.627	-0.197	0.298
-373.829	123.282	0.268	-0.438
-372.815	-46.397	-0.305	0.194
-371.800	-145.246	-0.319	0.037
-370.785	-89.745	-0.365	0.138
-369.771	23.204	-0.167	0.179
-368.756	-18.445	-0.339	0.275
-367.742	-134.018	-0.322	0.051
-366.727	-71.962	0.134	0.064
-365.712	-98.303	-0.425	0.141
-364.698	-122.571	-0.365	0.076
-363.683	-118.597	-0.554	-0.126
-362.669	7.291	-0.208	-0.202
-361.654	800.000	0.030	0.164
-360.639	-45.992	0.320	-0.205
-359.625	-105.911	-0.049	0.014
-358.610	-200.000	-0.019	0.184
-357.596	-33.714	-0.099	-0.071
-356.581	-59.279	-0.300	-0.167
-355.566	-148.097	-0.171	0.018
-354.552	800.000	-0.045	0.200
-353.537	29.458	-0.306	-0.339
-352.523	-128.105	0.364	-0.067
-351.508	-74.940	0.402	-0.187
-350.493	800.000	-0.036	-0.158
-349.479	-67.315	0.261	0.133
-348.464	311.151	0.132	-0.324
-347.450	-131.057	-0.261	0.045
-346.435	-58.199	0.304	-0.172
-345.420	-137.095	-0.311	-0.046
-344.406	43.832	0.103	-0.123
-343.391	-90.182	-0.185	0.069
-342.377	-80.409	-0.268	-0.116
-341.362	-1.579	-0.376	-0.345
-340.348	131.395	0.283	-0.473
-339.333	-132.154	0.128	-0.021
-338.318	-150.230	0.189	-0.019
-337.304	117.658	0.307	-0.492
-336.289	416.272	0.188	-0.525
-335.275	800.000	-0.085	0.320
-334.260	-140.606	-0.106	0.014
-333.245	-200.000	0.028	-0.235
-332.231	-160.373	0.547	0.038
-331.216	218.587	0.116	-0.242
-330.202	-200.000	-0.036	0.238
-329.187	173.243	0.140	0.263
-328.172	351.503	0.064	-0.165
-327.158	257.229	0.199	0.446
-326.143	-76.249	-0.107	-0.049
-325.129	-157.301	0.083	-0.006
-324.114	405.013	-0.023	0.063
-323.099	-200.000	-0.034	-0.222
-322.085	-200.000	0.010	0.079
-321.070	125.063	-0.359	0.589
-320.056	800.000	-0.077	0.352
-319.041	595.738	0.070	0.228
-318.026	7.109	-0.171	0.165
-317.012	800.000	-0.092	0.414
-315.997	22.124	-0.024	-0.025
-314.983	-86.097	0.327	-0.130
-313.968	-0.976	0.240	0.221
-312.953	59.146	0.114	-0.145
-311.939	42.856	-0.148	0.175
-310.924	-200.000	0.007	-0.335
-309.910	-72.756	-0.032	-0.015
-308.895	-200.000	0.011	-0.476
-307.880	270.337	-0.153	0.350
-306.866	-109.064	0.422	0.116
-305.851	82.426	-0.162	-0.229
-304.837	146.610	-0.049	-0.086
-303.822	-3.095	0.039	-0.035
-302.807	-0.654	0.243	-0.224
-301.793	248.811	0.116	0.256
-300.778	-154.525	0.309	0.026
-299.764	256.561	-0.086	0.192
-298.749	-200.000	0.029	-0.201
-297.735	800.000	0.052	-0.243
-296.720	-200.000	0.011	0.485
-295.705	37.928	0.202	0.233
-294.691	-38.132	-0.232	0.159
-293.676	-80.156	0.123	-0.053
-292.662	-117.067	0.788	0.185
-291.647	-144.820	0.188	-0.022
-290.632	83.073	-0.195	0.276
-289.618	-20.182	0.154	0.123
-288.603	-182.123	0.057	-0.001
-287.589	-104.208	-0.189	-0.057
-286.574	795.849	-0.031	-0.111
-285.559	73.292	-0.245	0.333
-284.545	-126.816	-0.192	0.037
-283.530	-62.578	0.177	0.095
-282.516	181.608	-0.140	0.269
-281.501	-155.184	-0.428	-0.036
-280.486	170.548	0.086	0.161
-279.472	-179.517	-0.332	-0.009
-278.457	-56.812	-0.106	-0.060
-277.443	-109.694	-0.102	-0.028
-276.428	94.740	0.118	0.174
-275.413	-200.000	-0.036	-0.868
-274.399	-176.195	0.398	0.013
-273.384	96.613	-0.210	-0.312
-272.370	800.000	0.044	0.190
-271.355	-71.516	0.199	-0.096
-270.340	-38.894	-0.437	0.298
-269.326	468.460	-0.179	0.523
-268.311	-134.866	-0.220	-0.034
-267.297	-93.866	0.225	0.080
-266.282	-200.000	0.142	0.000
-265.267	-81.188	-0.216	-0.092
-264.253	-200.000	0.027	0.363
-263.238	-34.901	0.212	0.150
-262.224	-1.504	0.305	0.279
-261.209	-39.073	-0.293	0.200
-260.195	-42.051	0.189	-0.125
-259.180	54.685	-0.060	-0.075
-258.165	-200.000	0.004	0.127
-257.151	-79.987	0.436	-0.189
-256.136	-25.323	0.360	-0.276
-255.122	-57.276	0.043	-0.025
-254.107	50.455	-0.095	0.116
-253.092	448.002	0.036	0.103
-252.078	308.353	-0.142	-0.344
-251.063	-139.448	-0.416	0.057
-250.049	587.056	0.073	0.233
-249.034	76.770	-0.121	0.167
-248.019	-200.000	-0.024	-0.221
-247.005	-200.000	-0.061	0.666
-245.990	207.042	-0.064	0.130
-244.976	-19.274	-0.198	0.159
-243.961	-200.000	0.013	0.317
-242.946	-101.166	0.275	-0.087
-241.932	-41.740	-0.051	0.034
-240.917	-117.337	-0.475	0.111
-239.903	800.000	0.072	0.337
-238.888	-114.989	0.373	-0.091
-237.873	800.000	-0.060	0.343
-236.859	603.355	-0.028	-0.091
-235.844	169.806	-0.266	-0.494
-234.830	640.215	-0.118	-0.392
-233.815	-75.009	-0.125	-0.058
-232.800	-200.000	0.012	0.106
-231.786	-96.195	0.318	-0.109
-230.771	105.291	0.169	0.259
-229.757	108.911	0.118	-0.183
-228.742	-36.255	0.423	0.295
-227.727	75.832	0.361	-0.495
-226.713	-55.676	0.308	-0.178
-225.698	-75.157	-0.451	0.208
-224.684	-200.000	-0.035	-0.444
-223.669	36.814	-0.129	-0.148
-222.655	-75.190	-0.460	0.212
-221.640	-130.160	0.262	0.046
-220.625	-200.000	-0.040	0.296
-219.611	-159.256	-0.544	0.039
-218.596	-56.041	0.204	0.118
-217.582	-200.000	0.009	0.613
-216.567	-24.325	0.287	0.221
-215.552	242.167	-0.119	0.258
-214.538	77.095	-0.359	-0.494
-213.523	-128.936	-0.179	0.032
-212.509	80.415	0.290	-0.405
-211.494	-49.336	0.344	0.212
-210.479	-200.000	0.090	0.533
-209.465	-78.338	0.392	-0.173
-208.450	115.646	-0.210	0.332
-207.436	4.902	-0.420	-0.400
-206.421	392.850	0.170	-0.458
-205.406	-70.646	-0.165	0.080
-204.392	-133.938	0.114	-0.018
-203.377	-200.000	-0.006	0.036
-202.363	800.000	-0.054	0.232
-201.348	624.717	-0.115	-0.377
-200.333	163.119	0.214	0.390
-199.319	-200.000	0.025	0.150
-198.304	160.847	-0.091	-0.165
-197.290	285.411	-0.085	0.200
-196.275	-58.561	-0.220	0.123
-195.260	-200.000	0.005	0.119
-194.246	-78.058	0.528	0.234
-193.231	-99.511	0.528	0.171
-192.217	-85.714	-0.333	-0.133
-191.202	-200.000	0.019	0.356
-190.187	-177.623	-0.247	-0.008
-189.173	-200.000	0.024	0.171
-188.158	-200.000	0.000	0.005
-187.144	137.145	0.228	-0.386
-186.129	-5.963	-0.270	-0.238
-185.114	-42.629	0.231	-0.152
-184.100	-149.200	-0.322	0.033
-183.085	-127.647	-0.369	0.068
-182.071	-47.367	-0.121	0.076
-181.056	-82.669	-0.430	-0.179
-180.042	369.432	-0.127	0.334
-179.027	-83.089	0.334	0.138
-178.012	2.229	0.254	0.237
-176.998	800.000	-0.117	-0.461
-175.983	111.725	0.263	-0.412
-174.969	-57.598	-0.121	0.068
-173.954	-200.000	-0.032	0.331
-172.939	-28.191	0.580	0.432
-171.925	-26.397	0.213	0.161
-170.910	-130.657	0.384	-0.066
-169.896	228.334	0.071	-0.150
-168.881	-117.323	-0.540	-0.126
-167.866	-27.845	0.139	0.104
-166.852	110.960	-0.211	0.329
-165.837	-200.000	-0.059	-0.458
-164.823	-200.000	0.016	-0.215
-163.808	228.287	0.062	0.131
-162.793	65.246	0.269	-0.352
-161.779	-199.610	0.107	-0.001
-160.764	185.757	-0.153	-0.295
-159.750	-69.448	-0.228	-0.112
-158.735	800.000	-0.102	0.497
-157.720	-200.000	0.081	-0.497
-156.706	151.003	-0.182	-0.321
-155.691	-13.643	-0.090	0.075
-154.677	166.536	-0.057	-0.105
-153.662	-42.187	-0.410	-0.270
-152.647	0.172	-0.228	0.210
-151.633	60.803	0.044	-0.056
-150.618	112.633	0.126	-0.198
-149.604	-42.721	0.387	-0.253
-148.589	-54.797	0.265	-0.154
-147.574	-83.821	0.053	-0.022
-146.560	-113.028	0.409	0.104
-145.545	-200.000	0.048	-0.272
-144.531	-200.000	0.011	0.104
-143.516	-20.217	-0.181	-0.144
-142.502	535.947	0.092	0.285
-141.487	-109.533	0.309	0.084
-140.472	76.482	0.126	0.173
-139.458	800.000	-0.052	-0.258
-138.443	800.000	-0.053	-0.252
-137.429	-20.634	0.186	0.147
-136.414	-200.000	-0.029	0.539
-135.399	62.075	0.297	0.382
-134.385	-143.564	0.363	0.044
-133.370	-184.131	-0.284	-0.006
-132.356	-11.972	-0.417	-0.352
-131.341	55.318	0.180	0.225
-130.326	441.722	0.066	0.186
-129.312	-141.781	0.289	0.037
-128.297	-133.856	0.079	-0.013
-127.283	214.409	-0.079	-0.161
-126.268	-200.000	0.028	0.173
-125.253	-24.642	0.041	0.031
-124.239	-179.788	-0.418	-0.011
-123.224	130.219	-0.150	0.248
