DTS Sentinel unit serial number:	SN409020Multiplexer serial number:	ORYXHardware model number:	OX4-SRSoftware version number:	ORYX F/W v3.00 Oryx Data Collector v3.7.2.0data status	okinstallation	HaddamTimeLapsedifferential loss correction	single-endedforward channel	channel 3reverse channel	N/Adate	2011/06/21time	17:36:16forward acquisition time	30.00reverse acquisition time	0.00gamma	498.7831k internal	0.1826k external	0.1826temperature offset calibration	1.0074default loss term (dB/km)	0.3790temperature slope calibration	1.3530multiplexer offset coefficient	1.0000multiplexer slope coefficient	1.0000fibre end	0.00T internal ref (°C)	34.69T ext. ref 1 (°C)	29.28T ext. ref 2 (°C)	0.27length (m)	temperature (°C)	Stokes	anti-Stokes-747.200	499.796	0.168	0.495
-746.185	-200.000	-0.021	0.716
-745.171	-90.385	0.344	0.126
-744.156	12.274	0.500	0.490
-743.142	426.965	0.141	-0.389
-742.127	-200.000	0.022	0.517
-741.112	-44.165	-0.255	-0.163
-740.098	426.452	-0.132	0.364
-739.083	23.082	-0.266	-0.277
-738.069	393.320	0.156	0.414
-737.054	-14.883	-0.220	0.179
-736.039	183.451	0.107	0.202
-735.025	367.559	-0.296	0.765
-734.010	-122.489	-0.233	-0.048
-732.996	-121.033	-0.319	0.068
-731.981	-200.000	-0.033	-0.325
-730.966	800.000	-0.049	-0.240
-729.952	800.000	-0.067	-0.302
-728.937	55.194	0.035	0.043
-727.923	-167.575	-0.046	0.002
-726.908	466.711	-0.135	-0.388
-725.894	-3.957	-0.225	-0.199
-724.879	90.184	0.050	0.071
-723.864	-10.865	0.264	-0.222
-722.850	800.000	0.070	0.299
-721.835	278.475	0.140	0.319
-720.821	-112.056	0.222	0.057
-719.806	-117.415	0.504	0.115
-718.791	-14.333	0.361	-0.295
-717.777	-137.100	-0.683	-0.098
-716.762	-200.000	-0.016	-0.265
-715.748	62.052	-0.184	0.234
-714.733	-140.473	0.096	-0.013
-713.718	66.334	-0.378	-0.489
-712.704	-200.000	-0.001	-0.146
-711.689	2.094	-0.190	-0.175
-710.675	-13.791	-0.528	-0.434
-709.660	-79.807	0.313	0.133
-708.645	-200.000	0.010	-0.113
-707.631	82.737	0.294	-0.407
-706.616	4.624	0.278	0.259
-705.602	-137.158	-0.037	-0.005
-704.587	-200.000	-0.033	0.280
-703.572	-88.487	-0.395	-0.149
-702.558	36.342	0.130	0.146
-701.543	-176.468	-0.266	-0.009
-700.529	-118.680	-0.336	-0.075
-699.514	206.959	-0.073	-0.144
-698.499	-51.078	-0.210	0.125
-697.485	-125.997	-0.559	0.106
-696.470	652.239	0.151	0.496
-695.456	-200.000	-0.015	0.266
-694.441	62.780	0.288	0.367
-693.426	-142.822	-0.430	-0.053
-692.412	103.799	-0.117	-0.176
-691.397	-200.000	0.042	-0.427
-690.383	43.434	0.305	-0.355
-689.368	-101.868	-0.337	-0.103
-688.354	-15.662	-0.118	-0.095
-687.339	-107.232	0.074	0.021
-686.324	113.972	-0.173	-0.269
-685.310	-52.624	-0.278	0.163
-684.295	-156.306	-0.047	-0.004
-683.281	-69.960	-0.440	-0.212
-682.266	-200.000	-0.005	0.222
-681.251	170.481	-0.129	0.235
-680.237	17.666	0.434	-0.439
-679.222	331.112	-0.059	0.146
-678.208	-200.000	0.009	-0.110
-677.193	-62.763	0.028	0.015
-676.178	800.000	-0.071	0.295
-675.164	-200.000	0.030	0.760
-674.149	622.670	0.123	-0.394
-673.135	108.699	0.052	-0.079
-672.120	-132.356	-0.539	0.088
-671.105	-117.189	-0.315	0.072
-670.091	-118.905	0.273	0.060
-669.076	-52.711	0.164	0.096
-668.062	800.000	0.031	-0.127
-667.047	-48.252	0.194	-0.118
-666.032	41.263	0.363	-0.417
-665.018	-200.000	0.002	-0.480
-664.003	-124.498	-0.434	-0.085
-662.989	-41.989	0.121	-0.078
-661.974	499.965	0.136	-0.400
-660.959	566.115	-0.119	-0.370
-659.945	-118.803	-0.217	-0.048
-658.930	-103.977	0.351	-0.103
-657.916	800.000	-0.092	-0.369
-656.901	-122.515	0.285	-0.058
-655.886	-63.262	0.132	0.069
-654.872	514.020	-0.033	-0.098
-653.857	208.755	0.150	0.299
-652.843	11.571	0.266	0.258
-651.828	56.222	-0.088	0.108
-650.814	-119.244	0.105	0.023
-649.799	-200.000	0.085	0.543
-648.784	-200.000	0.013	0.197
-647.770	-92.615	-0.226	0.080
-646.755	197.893	0.110	-0.215
-645.741	-159.296	0.376	0.026
-644.726	800.000	-0.038	0.195
-643.711	-200.000	-0.036	0.293
-642.697	28.992	0.190	-0.204
-641.682	182.310	0.106	-0.200
-640.668	-23.134	0.462	0.352
-639.653	-35.573	0.219	-0.150
-638.638	120.429	-0.163	-0.257
-637.624	-200.000	-0.055	0.442
-636.609	-16.349	0.410	-0.329
-635.595	-98.731	0.265	0.085
-634.580	48.042	0.168	0.200
-633.565	-200.000	0.574	-0.001
-632.551	-200.000	-0.021	-0.305
-631.536	800.000	-0.005	0.028
-630.522	17.369	-0.232	-0.234
-629.507	24.038	-0.179	0.188
-628.492	-41.350	-0.155	0.101
-627.478	-63.232	-0.405	0.211
-626.463	-161.021	0.027	0.002
-625.449	-200.000	0.029	0.213
-624.434	4.736	-0.273	-0.254
-623.419	20.990	0.108	0.111
-622.405	-103.658	-0.369	0.109
-621.390	-34.571	0.257	0.178
-620.376	102.205	-0.117	-0.174
-619.361	800.000	0.105	0.404
-618.346	-80.580	-0.650	-0.273
-617.332	-200.000	0.026	-0.147
-616.317	32.144	0.230	-0.252
-615.303	168.247	-0.236	-0.427
-614.288	800.000	-0.111	-0.411
-613.273	268.283	0.200	-0.446
-612.259	-117.519	0.092	-0.021
-611.244	686.414	-0.102	0.341
-610.230	-27.846	-0.024	0.018
-609.215	16.759	0.242	0.242
-608.201	-129.587	-0.245	-0.043
-607.186	800.000	0.029	-0.117
-606.171	-88.943	0.194	0.072
-605.157	-38.747	-0.492	0.328
-604.142	259.454	-0.174	-0.382
-603.128	19.287	-0.248	-0.252
-602.113	-200.000	-0.042	-0.398
-601.098	-125.444	-0.147	0.028
-600.084	125.112	0.081	-0.129
-599.069	-164.959	0.561	-0.031
-598.055	800.000	0.203	0.756
-597.040	-6.400	0.255	0.220
-596.025	-179.760	-0.566	-0.015
-595.011	-200.000	0.023	0.137
-593.996	-68.748	-0.070	-0.034
-592.982	11.793	0.440	0.428
-591.967	-128.785	-0.386	-0.068
-590.952	118.668	-0.135	-0.211
-589.938	-177.130	0.303	-0.009
-588.923	-48.301	-0.274	0.167
-587.909	40.625	0.086	0.098
-586.894	-99.495	-0.647	-0.205
-585.879	-138.762	-0.323	-0.044
-584.865	-51.758	-0.425	-0.250
-583.850	-141.572	-0.380	-0.048
-582.836	-79.153	-0.226	0.097
-581.821	-41.031	-0.409	0.267
-580.806	-74.821	-0.301	0.136
-579.792	-200.000	-0.015	0.364
-578.777	-20.870	-0.502	0.388
-577.763	-105.116	0.121	-0.035
-576.748	-151.175	-0.657	-0.062
-575.733	-107.203	-0.045	0.012
-574.719	-162.093	-0.222	0.014
-573.704	800.000	0.007	0.034
-572.690	-155.097	-0.174	0.014
-571.675	-11.206	-0.266	0.221
-570.661	-178.373	-0.112	-0.003
-569.646	-71.399	-0.212	-0.100
-568.631	-26.155	0.264	-0.196
-567.617	196.167	0.113	0.218
-566.602	-200.000	-0.002	0.230
-565.588	-90.487	-0.438	-0.160
-564.573	-145.634	0.079	0.009
-563.558	-200.000	0.161	0.001
-562.544	-106.681	-0.412	0.115
-561.529	-78.173	-0.113	0.049
-560.515	119.170	-0.501	-0.785
-559.500	-107.865	0.544	-0.149
-558.485	141.483	-0.103	-0.173
-557.471	800.000	0.083	0.391
-556.456	2.436	-0.049	-0.045
-555.442	-141.665	0.626	-0.079
-554.427	364.412	-0.024	-0.062
-553.412	-99.532	-0.497	0.157
-552.398	800.000	-0.066	-0.327
-551.383	-32.585	0.402	-0.282
-550.369	-200.000	0.038	-0.217
-549.354	-122.412	0.328	0.067
-548.339	224.149	0.192	0.394
-547.325	252.629	0.119	0.257
-546.310	-10.570	0.258	0.215
-545.296	-176.242	0.548	-0.018
-544.281	760.426	-0.052	0.179
-543.266	-157.354	-0.140	0.011
-542.252	67.870	-0.258	0.333
-541.237	-200.000	-0.071	-0.493
-540.223	-200.000	-0.097	-0.598
-539.208	28.517	-0.566	-0.605
-538.193	300.954	-0.266	-0.624
-537.179	-200.000	0.098	-0.672
-536.164	-200.000	0.016	0.130
-535.150	4.666	0.076	-0.070
-534.135	-154.937	-0.394	0.032
-533.121	-63.872	0.079	0.041
-532.106	-109.928	0.232	-0.061
-531.091	47.278	-0.190	-0.224
-530.077	382.524	-0.101	-0.263
-529.062	-101.084	-0.254	-0.078
-528.048	-66.431	-0.369	0.185
-527.033	710.446	0.215	-0.722
-526.018	-130.835	0.553	-0.093
-525.004	-37.940	0.395	0.264
-523.989	-26.868	0.222	0.163
-522.975	-27.188	-0.299	-0.220
-521.960	24.926	-0.047	0.049
-520.945	23.624	0.095	-0.099
-519.931	-166.437	-0.220	-0.011
-518.916	-47.226	0.456	0.280
-517.902	800.000	0.120	-0.545
-516.887	338.620	-0.116	-0.287
-515.872	-106.988	0.351	0.097
-514.858	32.044	0.208	0.226
-513.843	-85.137	0.558	0.219
-512.829	-38.843	0.375	-0.249
-511.814	-87.790	-0.302	-0.114
-510.799	-200.000	-0.031	0.175
-509.785	-185.114	-0.423	-0.008
-508.770	37.544	0.157	-0.176
-507.756	-18.667	0.058	0.046
-506.741	-47.599	0.207	0.127
-505.726	391.130	-0.160	-0.420
-504.712	-57.093	-0.509	0.282
-503.697	-200.000	0.007	0.224
-502.683	-69.211	-0.275	0.133
-501.668	57.108	0.068	-0.084
-500.653	-150.001	-0.422	-0.041
-499.639	-200.000	-0.256	-0.001
-498.624	553.366	0.153	-0.465
-497.610	800.000	-0.049	0.201
-496.595	800.000	-0.125	-0.638
-495.581	72.677	-0.167	0.219
-494.566	117.347	0.093	0.145
-493.551	112.226	-0.245	-0.374
-492.537	-49.067	-0.260	0.156
-491.522	-31.459	0.250	0.177
-490.508	113.443	0.195	0.299
-489.493	-16.978	0.416	-0.331
-488.478	-75.132	-0.246	-0.110
-487.464	-200.000	-0.015	0.187
-486.449	-200.000	-0.028	-0.367
-485.435	-127.986	-0.106	0.019
-484.420	75.084	0.252	0.335
-483.405	172.923	0.210	-0.382
-482.391	263.661	-0.107	0.237
-481.376	-180.118	-0.311	0.008
-480.362	-49.854	-0.162	-0.097
-479.347	69.757	0.261	-0.340
-478.332	682.602	-0.065	-0.216
-477.318	-131.457	0.247	-0.041
-476.303	-200.000	-0.061	-0.369
-475.289	800.000	0.034	0.171
-474.274	-74.536	0.308	-0.139
-473.259	-200.000	0.073	0.578
-472.245	-200.000	-0.027	0.647
-471.230	-54.202	0.466	0.266
-470.216	-82.448	-0.227	0.093
-469.201	51.511	0.167	0.200
-468.186	476.467	0.069	-0.197
-467.172	800.000	0.045	0.244
-466.157	-57.530	-0.162	0.089
-465.143	-48.601	0.383	0.231
-464.128	56.085	-0.155	0.190
-463.113	31.290	-0.182	0.197
-462.099	323.488	-0.056	0.135
-461.084	93.030	-0.075	-0.107
-460.070	-173.179	-0.630	-0.024
-459.055	-30.164	-0.290	-0.207
-458.040	96.456	-0.073	0.106
-457.026	-98.998	-0.208	-0.066
-456.011	179.656	-0.130	0.240
-454.997	-40.106	-0.188	0.123
-453.982	-200.000	-0.016	0.101
-452.968	159.672	0.083	0.146
-451.953	-171.960	0.438	-0.018
-450.938	-106.864	-0.070	-0.020
-449.924	147.576	-0.085	-0.144
-448.909	127.870	-0.251	0.402
-447.895	69.621	-0.241	0.313
-446.880	410.199	0.145	0.388
-445.865	-17.275	0.338	0.268
-444.851	-104.862	0.275	0.079
-443.836	19.801	-0.219	0.223
-442.822	122.211	-0.065	0.103
-441.807	-84.601	0.414	0.164
-440.792	104.948	0.294	0.438
-439.778	207.726	0.110	0.217
-438.763	800.000	-0.074	0.328
-437.749	244.224	0.060	0.127
-436.734	-162.558	-0.087	0.005
-435.719	8.962	0.326	0.310
-434.705	-200.000	0.000	0.426
-433.690	-28.091	-0.174	-0.127
-432.676	800.000	0.120	-0.516
-431.661	-47.712	0.363	-0.221
-430.646	-192.447	0.148	0.002
-429.632	421.965	-0.060	0.163
-428.617	-200.000	-0.063	-0.397
-427.603	800.000	-0.012	-0.066
-426.588	-50.927	0.114	0.067
-425.573	484.644	-0.099	0.285
-424.559	-139.392	-0.306	0.041
-423.544	63.584	0.174	-0.221
-422.530	-93.764	0.386	0.133
-421.515	-97.124	0.287	0.094
-420.500	788.078	0.137	-0.475
-419.486	633.799	-0.131	0.421
-418.471	-150.713	0.110	0.010
-417.457	-93.895	-0.239	0.082
-416.442	639.603	0.119	-0.383
-415.428	-103.472	-0.333	0.098
-414.413	101.379	-0.135	-0.198
-413.398	-100.529	0.389	-0.120
-412.384	-152.128	0.409	-0.037
-411.369	-200.000	0.082	0.479
-410.355	-184.316	0.135	-0.003
-409.340	274.258	0.035	-0.077
-408.325	-6.776	0.412	-0.352
-407.311	548.278	0.071	-0.216
-406.296	46.261	-0.072	0.084
-405.282	-72.870	-0.427	-0.197
-404.267	-128.213	-0.186	0.033
-403.252	800.000	-0.057	0.228
-402.238	63.305	-0.147	-0.186
-401.223	-129.835	-0.511	0.087
-400.209	-200.000	0.049	-0.638
-399.194	-19.606	0.207	-0.161
-398.179	-109.992	0.411	-0.107
-397.165	-55.829	0.250	0.140
-396.150	-121.236	0.188	-0.039
-395.136	-200.000	0.005	0.265
-394.121	218.379	-0.222	0.446
-393.106	-7.837	-0.347	-0.294
-392.092	-79.070	-0.238	0.101
-391.077	-200.000	0.083	0.680
-390.063	-200.000	-0.008	0.188
-389.048	74.616	0.247	-0.326
-388.033	-200.000	0.027	-0.224
-387.019	290.622	0.211	0.483
-386.004	-67.597	0.363	0.178
-384.990	34.547	-0.085	-0.094
-383.975	-85.285	0.182	0.071
-382.960	-200.000	0.038	-0.314
-381.946	-94.989	-0.523	0.176
-380.931	800.000	-0.084	0.335
-379.917	131.945	0.166	0.270
-378.902	-18.764	0.137	0.107
-377.888	-35.599	-0.176	0.120
-376.873	116.874	-0.071	-0.110
-375.858	-136.585	-0.399	-0.057
-374.844	-111.337	0.234	-0.059
-373.829	-149.828	0.202	0.020
-372.815	34.535	0.055	0.061
-371.800	80.916	-0.065	-0.088
-370.785	-98.017	-0.505	-0.162
-369.771	-17.821	-0.185	-0.146
-368.756	559.168	-0.051	-0.154
-367.742	-97.012	0.529	-0.173
-366.727	57.330	0.334	0.410
-365.712	-26.467	0.339	0.249
-364.698	-143.559	0.256	0.030
-363.683	-200.000	0.020	0.222
-362.669	-42.705	0.141	-0.090
-361.654	751.044	-0.148	0.503
-360.639	-175.312	0.336	-0.011
-359.625	800.000	-0.062	0.331
-358.610	-77.284	0.175	0.076
-357.596	-56.413	0.329	-0.182
-356.581	488.035	-0.081	-0.235
-355.566	-19.374	-0.347	-0.270
-354.552	-66.563	-0.249	0.124
-353.537	415.040	-0.146	-0.393
-352.523	708.169	0.070	-0.233
-351.508	-200.000	-0.050	-0.348
-350.493	27.071	-0.186	0.196
-349.479	-169.043	0.664	-0.031
-348.464	178.185	-0.061	-0.112
-347.450	380.596	0.139	-0.358
-346.435	325.984	0.208	0.502
-345.420	58.878	0.257	-0.318
-344.406	38.328	0.382	-0.427
-343.391	260.251	-0.044	0.097
-342.377	-15.617	-0.461	0.368
-341.362	557.266	-0.127	0.387
-340.348	12.871	-0.193	-0.187
-339.333	312.460	0.087	0.206
-338.318	-181.765	-0.348	0.008
-337.304	74.743	-0.187	-0.247
-336.289	-106.638	0.277	0.077
-335.275	227.911	-0.124	-0.254
-334.260	-166.758	0.537	-0.027
-333.245	178.666	-0.056	-0.103
-332.231	-200.000	-0.015	0.155
-331.216	-160.033	-0.229	-0.015
-330.202	-200.000	-0.011	0.193
-329.187	-18.269	0.072	0.057
-328.172	-98.774	0.532	0.169
-327.158	-93.535	0.233	-0.080
-326.143	54.591	0.329	0.398
-325.129	319.006	0.074	-0.176
-324.114	800.000	0.033	0.159
-323.099	370.805	0.062	0.159
-322.085	-200.000	-0.124	0.919
-321.070	-200.000	0.010	0.280
-320.056	-200.000	-0.015	-0.165
-319.041	-13.920	-0.667	-0.540
-318.026	800.000	0.066	-0.321
-317.012	-141.561	0.071	-0.009
-315.997	-6.182	-0.181	0.155
-314.983	211.500	0.170	0.336
-313.968	55.538	0.228	0.276
-312.953	-200.000	0.121	-0.719
-311.939	-200.000	-0.016	-0.399
-310.924	-47.900	0.103	-0.062
-309.910	653.807	0.215	-0.694
-308.895	-93.588	-0.499	-0.172
-307.880	56.591	0.095	-0.116
-306.866	-53.341	0.133	0.076
-305.851	7.801	0.521	-0.488
-304.837	71.663	0.177	-0.230
-303.822	57.441	-0.039	-0.047
-302.807	-63.513	-0.365	-0.187
-301.793	-80.885	0.457	0.189
-300.778	13.305	-0.035	-0.034
-299.764	169.710	-0.186	0.333
-298.749	68.364	-0.112	0.143
-297.735	800.000	0.049	0.208
-296.720	-14.200	-0.240	0.193
-295.705	-136.268	0.434	-0.063
-294.691	-200.000	-0.005	-0.263
-293.676	-200.000	-0.007	-0.747
-292.662	-126.353	-0.085	-0.016
-291.647	620.902	0.096	-0.304
-290.632	390.679	-0.183	-0.478
-289.618	-26.095	0.261	0.192
-288.603	-137.638	-0.064	0.009
-287.589	-93.269	0.107	-0.037
-286.574	508.206	-0.268	-0.783
-285.559	-77.535	-0.106	0.046
-284.545	211.263	0.223	-0.441
-283.530	399.768	0.061	-0.159
-282.516	-200.000	-0.045	0.360
-281.501	195.263	-0.123	-0.234
-280.486	47.662	0.097	0.113
-279.472	-65.624	-0.260	0.130
-278.457	-152.403	-0.390	0.035
-277.443	-106.649	0.231	0.064
-276.428	73.562	-0.063	-0.082
-275.413	-200.000	0.007	0.133
-274.399	42.228	0.037	0.042
-273.384	-7.009	-0.082	-0.070
-272.370	-72.905	0.275	-0.126
-271.355	34.983	-0.368	-0.403
-270.340	-51.393	-0.083	0.048
-269.326	-52.613	-0.468	-0.269
-268.311	-192.447	-0.509	0.006
-267.297	-148.493	-0.238	0.024
-266.282	-46.190	-0.223	-0.137
-265.267	211.032	-0.078	0.154
-264.253	-119.138	-0.443	-0.096
-263.238	-44.793	-0.182	0.113
-262.224	507.434	0.135	0.392
-261.209	800.000	-0.099	0.427
-260.195	-123.050	-0.287	-0.057
-259.180	64.057	-0.124	-0.156
-258.165	800.000	-0.044	-0.166
-257.151	-115.523	-0.474	-0.111
-256.136	277.092	0.149	-0.332
-255.122	31.996	0.095	0.102
-254.107	119.308	0.162	-0.251
-253.092	86.498	0.213	-0.294
-252.078	-133.621	0.456	-0.071
-251.063	-87.421	-0.272	-0.102
-250.049	-121.855	0.189	0.039
-249.034	-121.494	0.239	-0.049
-248.019	-67.710	-0.053	0.026
-247.005	37.822	0.207	0.230
-245.990	800.000	0.027	0.114
-244.976	-200.000	-0.024	0.348
-243.961	129.153	0.165	-0.264
-242.946	50.054	0.133	-0.156
-241.932	-113.335	0.282	-0.069
-240.917	47.788	-0.214	0.249
-239.903	11.169	0.316	-0.302
-238.888	-65.049	0.422	-0.212
-237.873	-27.348	-0.048	-0.035
-236.859	-84.087	-0.215	0.085
-235.844	69.034	-0.188	0.242
-234.830	-200.000	-0.042	-0.291
-233.815	-46.964	-0.234	0.142
-232.800	800.000	-0.135	-0.485
-231.786	800.000	-0.012	-0.056
-230.771	-163.581	0.133	-0.008
-229.757	438.051	-0.208	0.568
-228.742	-200.000	0.551	0.002
-227.727	104.939	-0.218	0.321
-226.713	130.873	-0.279	0.447
-225.698	-84.680	-0.305	0.119
-224.684	-32.086	-0.445	0.310
-223.669	-101.434	-0.248	-0.075
-222.655	32.944	0.269	0.290
-221.640	176.153	0.092	-0.168
-220.625	109.523	0.061	0.091
-219.611	-185.297	-0.486	-0.009
-218.596	-152.552	0.188	0.017
-217.582	800.000	-0.032	-0.148
-216.567	-73.899	0.272	-0.123
-215.552	-92.328	-0.321	-0.112
-214.538	-29.744	0.358	-0.254
-213.523	-130.809	0.772	0.128
-212.509	-76.672	-0.274	-0.119
-211.494	210.389	0.141	0.277
-210.479	800.000	0.038	-0.206
-209.465	-61.722	-0.277	0.145
-208.450	-181.811	-0.247	-0.006
-207.436	-111.663	0.156	0.039
-206.421	87.505	-0.330	-0.456
-205.406	-87.907	0.163	0.061
-204.392	98.758	-0.121	-0.174
-203.377	-35.509	0.225	0.152
-202.363	-99.447	-0.649	0.203
-201.348	89.203	-0.262	-0.365
-200.333	542.890	-0.068	0.203
-199.319	-77.407	0.182	0.078
-198.304	-46.686	0.277	0.168
-197.290	310.657	0.108	-0.253
-196.275	-79.304	-0.315	-0.132
-195.260	26.230	0.122	-0.127
-194.246	-105.422	0.364	0.102
-193.231	52.037	-0.174	0.207
-192.217	-62.115	0.177	0.092
-191.202	-55.318	0.454	0.253
-190.187	-78.557	0.275	-0.117
-189.173	-106.783	0.699	-0.192
-188.158	-77.359	-0.259	0.112
-187.144	-118.950	0.585	0.127
-186.129	-104.508	-0.217	-0.062
-185.114	-200.000	-0.030	-0.267
-184.100	62.625	0.139	0.173
-183.085	-200.000	0.040	0.355
-182.071	-200.000	-0.003	0.487
-181.056	77.770	0.219	-0.291
-180.042	195.096	0.198	-0.376
-179.027	-12.004	0.126	0.102
-178.012	30.130	-0.136	0.145
-176.998	69.858	0.210	0.270
-175.983	586.784	-0.098	0.302
-174.969	-200.000	0.009	0.398
-173.954	393.701	-0.045	-0.118
-172.939	127.342	0.192	0.304
-171.925	800.000	0.108	0.428
-170.910	576.834	-0.028	0.086
-169.896	-170.837	0.283	-0.012
-168.881	264.385	-0.083	-0.180
-167.866	24.698	0.366	-0.378
-166.852	-110.442	-0.145	0.037
-165.837	800.000	-0.095	0.419
-164.823	99.781	-0.141	-0.204
-163.808	800.000	-0.099	-0.414
-162.793	-111.544	-0.523	0.131
-161.779	95.653	-0.134	0.190
-160.764	-176.218	0.713	-0.023
-159.750	-104.747	-0.458	0.130
-158.735	-63.355	-0.175	-0.089
-157.720	800.000	-0.055	-0.231
-156.706	-155.060	-0.316	0.025
-155.691	1.837	0.279	0.250
-154.677	-131.391	0.427	0.070
-153.662	280.363	-0.162	-0.362
-152.647	-200.000	-0.023	0.166
-151.633	139.413	-0.048	-0.079
-150.618	177.408	-0.111	0.202
-149.604	412.073	-0.017	-0.045
-148.589	291.565	-0.136	-0.309
-147.574	-200.000	0.043	-0.279
-146.560	-161.259	-0.215	0.014
-145.545	-148.068	-0.113	0.012
-144.531	800.000	-0.073	-0.281
-143.516	-200.000	-0.017	-0.179
-142.502	-41.083	-0.412	0.264
-141.487	-4.199	-0.263	0.226
-140.472	30.867	-0.194	0.206
-139.458	-200.000	-0.033	0.477
-138.443	-92.746	-0.344	0.119
-137.429	-45.608	-0.282	0.173
-136.414	-120.154	0.337	0.071
-135.399	-34.329	0.271	-0.185
-134.385	-136.057	0.187	0.027
-133.370	-200.000	0.008	0.319
-132.356	290.092	-0.129	-0.292
-131.341	-88.489	-0.285	0.105
-130.326	84.866	0.192	0.262
-129.312	-119.577	0.433	-0.092
-128.297	360.634	0.062	-0.154
-127.283	-34.966	-0.480	0.325
-126.268	-169.923	-0.490	0.021
-125.253	-35.904	0.118	0.079
-124.239	-170.160	-0.515	0.022
-123.224	-96.975	0.120	0.039
-122.210	800.000	-0.052	0.241
