DTS Sentinel unit serial number:	SN409020Multiplexer serial number:	ORYXHardware model number:	OX4-SRSoftware version number:	ORYX F/W v3.00 Oryx Data Collector v3.7.2.0data status	okinstallation	HaddamTimeLapsedifferential loss correction	single-endedforward channel	channel 3reverse channel	N/Adate	2011/06/22time	06:26:16forward acquisition time	30.00reverse acquisition time	0.00gamma	498.7831k internal	0.1751k external	0.1751temperature offset calibration	1.0074default loss term (dB/km)	0.3790temperature slope calibration	1.3530multiplexer offset coefficient	1.0000multiplexer slope coefficient	1.0000fibre end	0.00T internal ref (°C)	22.62T ext. ref 1 (°C)	18.45T ext. ref 2 (°C)	0.19length (m)	temperature (°C)	Stokes	anti-Stokes-747.200	55.226	-0.205	-0.264
-746.185	-89.016	-0.357	-0.140
-745.171	-60.490	0.286	-0.161
-744.156	-17.837	0.082	0.068
-743.142	112.628	0.146	0.235
-742.127	402.590	0.158	0.444
-741.112	800.000	-0.026	0.132
-740.098	31.095	0.322	0.367
-739.083	-200.000	-0.058	-0.552
-738.069	-91.017	0.117	0.044
-737.054	231.020	-0.254	0.554
-736.039	-51.160	-0.222	-0.138
-735.025	-104.124	0.527	-0.162
-734.010	-200.000	-0.005	0.392
-732.996	-10.245	0.126	-0.111
-731.981	226.036	0.105	-0.228
-730.966	-121.663	0.124	0.027
-729.952	-73.638	-0.073	0.035
-728.937	-145.262	-0.962	0.114
-727.923	-95.088	-0.381	0.136
-726.908	800.000	-0.036	0.174
-725.894	-166.328	0.355	-0.020
-724.879	-23.768	0.418	-0.332
-723.864	-200.000	-0.007	-0.167
-722.850	-14.840	0.150	-0.127
-721.835	-133.069	0.300	-0.050
-720.821	-100.297	-0.223	-0.073
-719.806	-33.007	0.070	-0.051
-718.791	596.151	0.035	-0.115
-717.777	218.608	-0.133	-0.283
-716.762	184.138	-0.242	-0.476
-715.748	204.777	-0.163	-0.337
-714.733	3.828	0.176	-0.171
-713.718	-200.000	-0.005	-0.246
-712.704	-13.368	-0.369	-0.317
-711.689	-200.000	0.155	-0.952
-710.675	597.984	0.033	0.109
-709.660	135.080	-0.087	0.150
-708.645	800.000	-0.022	-0.112
-707.631	-91.147	-0.679	0.257
-706.616	-200.000	0.041	-0.381
-705.602	67.834	-0.135	-0.183
-704.587	-19.598	0.247	-0.203
-703.572	-68.468	-0.121	-0.062
-702.558	-31.304	-0.321	0.239
-701.543	-174.965	-0.337	0.012
-700.529	-123.769	0.516	-0.107
-699.514	-13.644	0.199	-0.170
-698.499	176.436	-0.076	0.148
-697.485	-87.527	-0.591	-0.236
-696.470	-141.281	0.181	0.024
-695.456	-200.000	-0.022	-0.306
-694.441	205.580	0.078	-0.161
-693.426	-120.810	0.228	-0.051
-692.412	120.506	-0.116	0.191
-691.397	46.325	0.061	-0.075
-690.383	560.973	0.144	-0.463
-689.368	170.797	-0.073	0.139
-688.354	-200.000	-0.009	-0.408
-687.339	775.240	-0.080	-0.292
-686.324	40.303	0.211	0.251
-685.310	-103.295	-0.086	-0.027
-684.295	660.708	-0.143	-0.489
-683.281	-66.502	-0.708	-0.371
-682.266	91.204	-0.060	0.090
-681.251	-200.000	-0.016	0.106
-680.237	800.000	-0.009	0.051
-679.222	-75.705	-0.022	0.010
-678.208	138.693	0.102	0.177
-677.193	800.000	-0.097	-0.448
-676.178	331.574	-0.165	-0.424
-675.164	-74.087	0.164	0.078
-674.149	-200.000	-0.024	-0.197
-673.135	800.000	-0.076	-0.372
-672.120	-48.382	-0.368	-0.234
-671.105	-150.203	0.421	0.043
-670.091	-106.811	0.494	0.144
-669.076	-63.514	0.207	0.112
-668.062	800.000	-0.015	0.083
-667.047	-108.947	-0.245	-0.069
-666.032	-186.174	-0.355	-0.007
-665.018	335.915	-0.111	0.285
-664.003	729.783	0.065	0.232
-662.989	-93.809	-0.620	0.225
-661.974	-7.692	0.139	-0.124
-660.959	339.191	-0.196	-0.507
-659.945	69.478	0.185	-0.252
-658.930	-86.463	0.202	-0.082
-657.916	758.268	0.144	-0.518
-656.901	-200.000	0.052	-0.326
-655.886	215.624	-0.054	0.114
-654.872	-40.236	0.514	0.353
-653.857	169.237	0.040	-0.075
-652.843	-71.211	-0.340	-0.168
-651.828	-119.914	0.777	-0.175
-650.814	303.155	-0.046	0.113
-649.799	-131.760	-0.238	0.041
-648.784	-132.333	-0.362	0.061
-647.770	41.055	0.213	-0.255
-646.755	14.005	-0.436	-0.448
-645.741	-94.446	0.515	0.185
-644.726	207.584	0.139	0.289
-643.711	-175.919	0.120	0.004
-642.697	-113.645	-0.239	0.061
-641.682	-167.566	-0.608	-0.032
-640.668	-63.132	-0.501	0.273
-639.653	-27.560	-0.485	-0.372
-638.638	14.906	-0.133	0.138
-637.624	330.611	0.149	-0.382
-636.609	414.093	0.245	-0.693
-635.595	-86.604	-0.453	0.183
-634.580	-43.935	0.386	-0.256
-633.565	72.631	-0.275	0.380
-632.551	-114.656	-0.341	0.086
-631.536	-168.812	0.018	0.001
-630.522	77.057	0.060	-0.085
-629.507	-120.266	0.170	0.038
-628.492	-155.062	0.459	-0.039
-627.478	335.887	-0.094	0.241
-626.463	147.326	-0.094	-0.167
-625.449	-2.199	-0.116	0.107
-624.434	122.479	-0.175	0.289
-623.419	-55.796	0.206	-0.121
-622.405	30.483	0.071	0.080
-621.390	196.966	0.204	0.412
-620.376	-70.793	0.031	0.015
-619.361	267.198	-0.124	-0.288
-618.346	27.167	-0.395	-0.438
-617.332	-16.013	-0.264	0.222
-616.317	711.435	0.046	-0.162
-615.303	-40.967	-0.212	-0.145
-614.288	-152.821	0.337	-0.031
-613.273	-128.706	0.330	-0.061
-612.259	243.632	-0.209	-0.466
-611.244	800.000	0.042	-0.199
-610.230	-27.925	-0.068	-0.052
-609.215	-32.389	-0.257	-0.189
-608.201	58.057	0.161	-0.209
-607.186	-133.144	0.601	-0.100
-606.171	800.000	-0.027	0.118
-605.157	-124.532	-0.720	0.147
-604.142	15.297	-0.078	0.081
-603.128	-82.714	0.121	-0.052
-602.113	-200.000	0.009	0.084
-601.098	-28.553	0.173	-0.131
-600.084	134.222	-0.127	-0.218
-599.069	-155.888	-0.464	-0.038
-598.055	12.822	-0.334	-0.341
-597.040	75.115	-0.243	0.338
-596.025	-114.629	0.254	0.064
-595.011	-74.655	-0.313	-0.148
-593.996	-174.412	-0.307	0.011
-592.982	-118.592	-0.199	-0.046
-591.967	800.000	0.085	-0.424
-590.952	-200.000	-0.001	-0.440
-589.938	-75.233	0.643	0.302
-588.923	314.905	0.022	-0.055
-587.909	135.562	0.097	-0.167
-586.894	774.882	-0.051	-0.186
-585.879	-200.000	0.031	0.220
-584.865	-200.000	-0.057	-0.435
-583.850	-38.287	-0.510	0.356
-582.836	800.000	0.048	-0.266
-581.821	19.120	0.223	0.236
-580.806	-17.974	0.336	-0.277
-579.792	-88.026	0.034	0.013
-578.777	-160.345	-0.264	0.018
-577.763	-118.986	0.134	-0.031
-576.748	800.000	0.048	0.179
-575.733	148.741	-0.250	0.447
-574.719	492.098	-0.023	-0.071
-573.704	455.620	0.086	0.252
-572.690	-117.729	0.155	-0.037
-571.675	800.000	0.101	0.441
-570.661	-71.494	0.213	-0.105
-569.646	458.771	-0.130	0.383
-568.631	460.709	-0.119	0.351
-567.617	134.935	-0.243	-0.418
-566.602	191.604	-0.073	-0.145
-565.588	-41.744	0.311	0.210
-564.573	229.616	0.073	-0.158
-563.558	-91.350	0.234	-0.088
-562.544	46.993	-0.141	-0.173
-561.529	-115.510	0.624	-0.154
-560.515	800.000	-0.140	-0.530
-559.500	-98.624	-0.792	-0.265
-558.485	-35.012	-0.408	0.293
-557.471	-67.968	0.259	-0.133
-556.456	800.000	-0.052	-0.233
-555.442	46.104	-0.163	-0.200
-554.427	-108.998	0.104	-0.029
-553.412	402.987	-0.035	-0.097
-552.398	19.285	-0.117	-0.123
-551.383	-200.000	-0.043	-0.616
-550.369	-27.257	-0.311	-0.238
-549.354	-22.943	0.451	0.358
-548.339	800.000	-0.002	0.007
-547.325	-13.785	-0.372	-0.317
-546.310	92.626	0.237	0.353
-545.296	208.383	0.119	0.247
-544.281	19.163	0.376	0.398
-543.266	800.000	0.047	0.210
-542.252	-8.886	-0.482	0.425
-541.237	365.344	0.048	-0.128
-540.223	23.193	-0.091	-0.099
-539.208	800.000	-0.016	0.063
-538.193	162.757	0.294	-0.546
-537.179	5.128	0.436	-0.423
-536.164	142.591	-0.092	-0.161
-535.150	1.485	0.372	-0.353
-534.135	-200.000	0.050	-0.421
-533.121	82.409	-0.124	0.178
-532.106	-132.033	-0.350	0.060
-531.091	-120.163	0.137	-0.031
-530.077	346.604	-0.229	0.595
-529.062	-52.645	-0.173	0.105
-528.048	-34.621	0.229	0.165
-527.033	-81.643	0.492	0.212
-526.018	800.000	0.106	0.408
-525.004	-38.934	-0.281	-0.195
-523.989	-161.097	-0.332	-0.023
-522.975	-200.000	0.014	0.411
-521.960	-80.731	0.175	-0.076
-520.945	75.604	-0.181	-0.252
-519.931	-124.749	0.279	-0.056
-518.916	101.331	0.016	0.024
-517.902	-45.859	0.516	0.335
-516.887	17.720	0.153	-0.161
-515.872	-197.844	-0.347	0.003
-514.858	19.041	-0.090	0.094
-513.843	-200.000	0.496	-0.003
-512.829	30.082	0.284	-0.319
-511.814	-200.000	-0.020	-0.498
-510.799	-122.615	0.162	0.034
-509.785	-135.629	0.126	0.019
-508.770	-93.939	0.305	0.110
-507.756	-200.000	-0.005	0.394
-506.741	76.964	0.208	0.290
-505.726	-200.000	0.014	-0.250
-504.712	-200.000	-0.075	-0.481
-503.697	-138.270	-0.128	0.018
-502.683	-106.507	-0.143	0.042
-501.668	-186.415	-0.421	0.008
-500.653	16.747	0.260	-0.271
-499.639	-159.001	-0.326	-0.024
-498.624	-88.004	-0.247	-0.097
-497.610	-126.877	0.266	-0.051
-496.595	119.282	-0.127	-0.206
-495.581	-78.084	0.485	-0.219
-494.566	-179.031	0.525	0.015
-493.551	35.926	-0.159	-0.184
-492.537	227.673	0.059	-0.126
-491.522	532.841	0.074	0.232
-490.508	-134.680	-0.556	0.088
-489.493	20.685	-0.177	-0.189
-488.478	489.709	-0.035	-0.107
-487.464	-59.181	-0.267	-0.151
-486.449	-49.948	0.144	0.089
-485.435	80.642	-0.170	0.242
-484.420	-68.162	-0.297	0.151
-483.405	56.003	-0.267	0.341
-482.391	31.878	0.162	-0.183
-481.376	-200.000	-0.054	0.336
-480.362	-200.000	0.014	0.234
-479.347	184.761	0.216	-0.422
-478.332	-100.835	0.455	-0.146
-477.318	-130.437	0.531	0.094
-476.303	13.157	-0.095	0.097
-475.289	-23.579	-0.194	0.152
-474.274	-30.785	0.030	0.022
-473.259	-31.022	0.112	0.083
-472.245	90.858	-0.130	-0.192
-471.230	-76.781	-0.104	-0.048
-470.216	9.677	-0.183	0.182
-469.201	115.187	0.309	0.496
-468.186	67.597	0.139	-0.186
-467.172	-12.292	-0.309	-0.265
-466.157	-66.558	0.376	0.195
-465.143	-200.000	0.039	-0.445
-464.128	65.493	-0.406	-0.541
-463.113	275.649	-0.198	-0.463
-462.099	26.339	0.421	-0.462
-461.084	-200.000	0.059	-0.487
-460.070	-200.000	-0.005	-0.137
-459.055	-200.000	-0.025	-0.224
-458.040	97.978	0.219	0.332
-457.026	66.280	-0.383	0.512
-456.011	-79.360	0.322	-0.142
-454.997	-60.992	0.087	0.048
-453.982	-44.496	0.381	0.250
-452.968	800.000	0.131	0.500
-451.953	487.863	-0.047	-0.143
-450.938	-76.139	-0.220	0.101
-449.924	-157.733	0.315	0.024
-448.909	-157.408	0.368	0.029
-447.895	-75.047	-0.417	-0.195
-446.880	95.925	-0.183	-0.274
-445.865	753.955	0.059	0.211
-444.851	-58.865	-0.311	0.176
-443.836	-57.361	-0.421	0.242
-442.822	-14.522	-0.380	0.321
-441.807	-160.685	-0.258	0.018
-440.792	-52.222	0.231	-0.140
-439.778	-92.168	0.523	-0.193
-438.763	19.320	-0.202	0.212
-437.749	272.410	-0.054	-0.127
-436.734	68.516	-0.337	0.454
-435.719	-14.066	0.126	0.106
-434.705	-73.054	-0.273	-0.131
-433.690	331.533	-0.143	0.364
-432.676	-110.650	0.356	-0.096
-431.661	-115.143	0.789	0.195
-430.646	78.777	0.058	0.081
-429.632	-86.096	0.092	-0.037
-428.617	-15.023	0.069	0.058
-427.603	-25.024	0.167	-0.130
-426.588	800.000	0.106	-0.475
-425.573	130.746	-0.076	0.129
-424.559	-101.181	0.232	-0.074
-423.544	417.251	-0.098	0.275
-422.530	-68.837	-0.183	0.092
-421.515	160.236	0.258	-0.473
-420.500	-48.932	0.371	0.232
-419.486	-128.527	-0.091	-0.017
-418.471	-79.090	0.179	-0.080
-417.457	-59.142	-0.048	0.027
-416.442	17.598	-0.280	0.291
-415.428	-80.635	-0.128	0.056
-414.413	-48.592	-0.337	-0.212
-413.398	-200.000	-0.014	-0.086
-412.384	-114.106	0.553	0.139
-411.369	-89.152	0.696	0.268
-410.355	-110.999	0.315	0.084
-409.340	-153.397	-0.332	-0.030
-408.325	177.458	0.260	0.497
-407.311	-100.608	0.215	0.069
-406.296	17.216	0.267	-0.277
-405.282	81.246	0.253	0.358
-404.267	541.994	0.056	-0.176
-403.252	-19.193	-0.291	-0.236
-402.238	87.515	-0.266	-0.387
-401.223	-52.050	0.787	-0.477
-400.209	97.853	0.150	-0.226
-399.194	98.577	-0.112	0.169
-398.179	1.085	-0.168	-0.157
-397.165	-174.375	-0.175	-0.006
-396.150	800.000	-0.154	-0.594
-395.136	-120.129	0.052	0.012
-394.121	92.907	0.145	-0.215
-393.106	-200.000	0.039	0.254
-392.092	800.000	-0.043	0.233
-391.077	-35.577	-0.078	0.055
-390.063	-58.814	0.596	-0.337
-389.048	-153.768	0.172	-0.015
-388.033	438.004	-0.100	-0.287
-387.019	21.226	0.197	-0.210
-386.004	-20.260	-0.087	-0.070
-384.990	152.995	0.206	-0.370
-383.975	-26.583	0.250	0.192
-382.960	24.755	0.261	0.283
-381.946	397.698	0.047	0.129
-380.931	-38.821	-0.265	-0.182
-379.917	245.607	-0.107	-0.237
-378.902	-200.000	-0.010	0.064
-377.888	28.994	0.338	-0.375
-376.873	-125.919	0.323	-0.063
-375.858	-35.290	0.318	0.226
-374.844	27.737	-0.250	-0.276
-373.829	44.800	0.354	0.426
-372.815	34.659	-0.164	-0.188
-371.800	-94.269	-0.388	0.138
-370.785	40.222	0.196	0.231
-369.771	-65.138	-0.268	0.141
-368.756	-200.000	0.005	-0.053
-367.742	49.388	0.174	-0.214
-366.727	-37.898	-0.069	0.048
-365.712	-43.867	0.363	0.238
-364.698	405.691	-0.075	0.208
-363.683	27.730	0.409	-0.450
-362.669	-143.615	0.737	-0.091
-361.654	4.359	0.162	-0.155
-360.639	-63.890	-0.305	-0.163
-359.625	87.310	-0.005	-0.007
-358.610	-149.947	0.458	-0.046
-357.596	-66.681	-0.137	0.071
-356.581	36.078	-0.264	-0.304
-355.566	119.822	-0.311	0.505
-354.552	690.002	-0.064	0.222
-353.537	5.078	0.498	0.479
-352.523	148.697	-0.198	0.350
-351.508	-114.993	-0.170	0.042
-350.493	-55.318	-0.557	0.326
-349.479	342.488	0.148	0.379
-348.464	-105.703	0.213	0.063
-347.450	116.498	-0.010	0.017
-346.435	457.913	-0.171	0.501
-345.420	-35.430	-0.198	-0.140
-344.406	444.281	-0.062	0.179
-343.391	267.298	-0.033	0.075
-342.377	-104.997	0.250	-0.075
-341.362	-11.812	0.115	0.099
-340.348	443.604	0.054	0.154
-339.333	-76.442	0.286	-0.131
-338.318	-42.476	0.389	-0.258
-337.304	-70.058	-0.090	0.045
-336.289	-200.000	0.010	0.382
-335.275	-48.305	-0.205	0.129
-334.260	-105.471	-0.409	0.121
-333.245	-115.446	-0.163	0.040
-332.231	-155.427	0.356	0.030
-331.216	-137.662	-0.274	0.040
-330.202	39.184	-0.269	-0.314
-329.187	-130.741	0.984	-0.171
-328.172	-124.472	-0.351	-0.071
-327.158	330.319	0.189	0.478
-326.143	325.104	-0.273	0.684
-325.129	-18.047	-0.267	0.218
-324.114	105.265	0.295	0.456
-323.099	257.633	-0.241	0.543
-322.085	-10.568	-0.466	0.403
-321.070	-128.690	-0.455	-0.083
-320.056	402.248	-0.113	-0.313
-319.041	-200.000	0.019	-0.114
-318.026	351.680	0.192	0.498
-317.012	-26.853	0.262	0.200
-315.997	-200.000	0.021	-0.279
-314.983	-126.098	-0.630	0.122
-313.968	399.757	0.081	-0.223
-312.953	-6.405	-0.303	0.270
-311.939	-161.036	-0.226	-0.015
-310.924	249.080	-0.149	0.331
-309.910	-200.000	-0.024	0.179
-308.895	97.377	0.179	0.269
-307.880	-200.000	-0.016	-0.482
-306.866	463.169	0.185	0.541
-305.851	22.664	-0.158	-0.169
-304.837	-81.665	-0.441	0.188
-303.822	-92.279	-0.740	-0.271
-302.807	164.154	-0.108	0.200
-301.793	172.169	-0.160	-0.302
-300.778	-6.071	0.358	0.319
-299.764	-54.295	-0.324	-0.191
-298.749	-42.652	-0.361	-0.239
-297.735	-68.963	-0.198	-0.099
-296.720	-200.000	-0.010	0.357
-295.705	-112.121	-0.329	0.086
-294.691	-124.183	0.599	-0.122
-293.676	-24.617	0.086	-0.066
-292.662	-71.148	-0.153	-0.075
-291.647	-171.620	0.165	0.007
-290.632	800.000	-0.095	0.378
-289.618	-39.631	-0.144	-0.098
-288.603	50.476	-0.152	0.188
-287.589	-54.635	-0.281	-0.165
-286.574	-29.883	-0.202	-0.150
-285.559	49.269	0.188	-0.231
-284.545	-101.942	0.248	0.078
-283.530	173.266	0.102	-0.192
-282.516	-99.274	0.477	-0.156
-281.501	-120.198	0.292	0.064
-280.486	-112.216	0.683	0.178
-279.472	457.151	0.072	-0.211
-278.457	-18.602	-0.375	-0.305
-277.443	23.640	-0.188	-0.202
-276.428	66.986	-0.308	-0.410
-275.413	-133.069	-0.258	-0.042
-274.399	-200.000	-0.025	-0.460
-273.384	-200.000	-0.037	0.489
-272.370	-133.645	-0.348	-0.056
-271.355	83.191	-0.228	0.323
-270.340	-15.005	0.244	-0.203
-269.326	-200.000	0.000	-0.618
-268.311	-84.850	0.432	-0.176
-267.297	0.454	-0.178	-0.166
-266.282	-101.102	0.357	-0.113
-265.267	75.154	0.098	0.135
-264.253	155.719	-0.142	0.255
-263.238	-113.597	0.473	-0.120
-262.224	62.039	0.259	-0.337
-261.209	-128.501	-0.248	-0.045
-260.195	-200.000	0.003	-0.088
-259.180	305.216	-0.110	0.267
-258.165	800.000	0.062	0.323
-257.151	-90.909	-0.548	-0.204
-256.136	-104.888	-0.401	-0.119
-255.122	800.000	-0.102	0.389
-254.107	-97.647	-0.176	-0.059
-253.092	-57.248	-0.477	-0.272
-252.078	-200.000	0.068	-0.429
-251.063	-41.165	0.102	-0.068
-250.049	-52.178	-0.244	0.147
-249.034	112.242	0.132	0.208
-248.019	416.150	0.015	-0.042
-247.005	139.931	-0.213	0.367
-245.990	21.728	0.357	-0.378
-244.976	-47.476	0.184	0.116
-243.961	-200.000	0.049	0.300
-242.946	-51.012	-0.506	0.308
-241.932	40.744	-0.217	0.256
-240.917	6.870	-0.161	0.156
-239.903	-185.016	-0.228	-0.005
-238.888	-200.000	0.014	-0.189
-237.873	18.202	0.230	-0.239
-236.859	610.509	-0.201	0.659
-235.844	35.376	-0.162	-0.185
-234.830	453.572	0.115	-0.332
-233.815	800.000	0.139	-0.706
-232.800	-25.766	0.084	0.065
-231.786	-39.702	-0.238	-0.162
-230.771	-47.544	0.278	-0.175
-229.757	139.562	0.231	0.397
-228.742	-171.337	0.263	-0.011
-227.727	-164.241	0.336	0.020
-226.713	-200.000	0.024	0.458
-225.698	87.953	0.290	0.420
-224.684	-115.616	-0.177	0.043
-223.669	-12.912	0.378	0.320
-222.655	420.500	0.096	-0.270
-221.640	539.373	-0.104	-0.325
-220.625	-145.461	0.478	-0.055
-219.611	129.467	-0.237	-0.395
-218.596	-133.586	-0.016	-0.003
-217.582	-52.893	0.160	-0.095
-216.567	-0.137	0.354	-0.328
-215.552	96.906	-0.087	0.130
-214.538	-200.000	0.002	-0.146
-213.523	800.000	0.037	-0.165
-212.509	170.167	-0.253	0.472
-211.494	-117.126	0.173	-0.041
-210.479	289.787	-0.099	-0.236
-209.465	-35.955	-0.133	-0.093
-208.450	63.546	0.225	-0.294
-207.436	166.180	-0.327	-0.604
-206.421	-143.995	0.130	-0.016
-205.406	-143.982	0.389	0.047
-204.392	-6.939	0.286	0.252
-203.377	800.000	0.048	-0.222
-202.363	800.000	0.092	-0.374
-201.348	-98.922	-0.165	0.054
-200.333	-145.717	-0.229	0.026
-199.319	25.641	0.047	0.051
-198.304	-36.930	-0.206	-0.143
-197.290	55.768	-0.430	-0.543
-196.275	800.000	0.074	-0.395
-195.260	709.416	-0.071	0.246
-194.246	191.018	-0.089	-0.174
-193.231	-200.000	-0.006	-0.385
-192.217	58.453	-0.309	-0.394
-191.202	-109.637	-0.465	0.127
-190.187	-97.660	-0.227	0.076
-189.173	-200.000	0.026	0.223
-188.158	-174.484	0.020	-0.001
-187.144	800.000	-0.031	-0.113
-186.129	636.721	0.077	0.257
-185.114	367.847	0.043	0.113
-184.100	80.333	0.190	-0.266
-183.085	81.590	-0.184	-0.259
-182.071	135.400	-0.189	0.319
-181.056	800.000	0.046	0.201
-180.042	800.000	-0.173	0.636
-179.027	70.938	0.261	0.352
-178.012	800.000	-0.065	0.239
-176.998	-200.000	0.066	-0.402
-175.983	30.736	-0.187	0.208
-174.969	15.590	-0.275	0.281
-173.954	-105.024	0.339	0.100
-172.939	-116.714	0.203	0.048
-171.925	-143.700	-0.320	-0.039
-170.910	-29.033	0.369	0.275
-169.896	-103.578	0.369	-0.112
-168.881	-10.847	0.391	0.335
-167.866	-19.820	0.281	0.225
-166.852	-114.861	0.439	0.108
-165.837	-59.766	-0.548	-0.304
-164.823	79.618	-0.083	0.116
-163.808	-154.761	0.290	0.025
-162.793	-119.100	-0.188	0.042
-161.779	-111.076	-0.651	0.172
-160.764	244.682	0.182	0.399
-159.750	-200.000	0.094	1.004
-158.735	-121.646	0.346	-0.074
-157.720	-142.983	-0.393	-0.049
-156.706	203.237	-0.080	0.160
-155.691	110.379	0.225	0.352
-154.677	-148.062	-0.472	-0.050
-153.662	76.989	-0.184	0.254
-152.647	389.385	-0.094	0.253
-151.633	344.247	0.123	0.315
-150.618	-156.953	0.695	-0.054
-149.604	-200.000	-0.006	0.135
-148.589	250.791	0.104	-0.230
-147.574	-200.000	0.035	0.404
-146.560	800.000	0.141	0.575
-145.545	-176.554	0.198	-0.006
-144.531	-200.000	-0.022	0.261
-143.516	-43.666	0.085	0.055
-142.502	66.666	0.191	0.252
-141.487	-31.283	-0.328	-0.239
-140.472	-65.675	0.307	0.159
-139.458	6.883	-0.048	0.046
-138.443	-186.332	0.222	-0.004
-137.429	215.578	-0.039	0.080
-136.414	349.276	0.104	0.267
-135.399	-200.000	0.001	-0.725
-134.385	52.127	0.244	-0.301
-133.370	615.139	-0.087	-0.284
-132.356	52.026	0.187	-0.231
-131.341	-94.829	-0.315	-0.110
-130.326	-61.696	0.209	0.113
-129.312	449.424	0.187	0.537
-128.297	143.182	0.123	0.212
-127.283	92.871	-0.213	0.313
-126.268	-11.498	0.252	0.215
-125.253	9.972	-0.289	-0.285
-124.239	-135.213	0.264	-0.041
-123.224	-200.000	0.007	-0.043
-122.210	-3.896	-0.234	0.210
-121.195	-92.924	0.497	-0.179
