DTS Sentinel unit serial number:	SN409020Multiplexer serial number:	ORYXHardware model number:	OX4-SRSoftware version number:	ORYX F/W v3.00 Oryx Data Collector v3.7.2.0data status	okinstallation	HaddamTimeLapsedifferential loss correction	single-endedforward channel	channel 3reverse channel	N/Adate	2011/06/22time	06:16:17forward acquisition time	30.00reverse acquisition time	0.00gamma	498.7831k internal	0.1751k external	0.1751temperature offset calibration	1.0074default loss term (dB/km)	0.3790temperature slope calibration	1.3530multiplexer offset coefficient	1.0000multiplexer slope coefficient	1.0000fibre end	0.00T internal ref (°C)	22.56T ext. ref 1 (°C)	18.31T ext. ref 2 (°C)	0.17length (m)	temperature (°C)	Stokes	anti-Stokes-747.200	-78.661	-0.355	-0.160
-746.185	-174.570	-0.365	0.014
-745.171	800.000	0.035	0.181
-744.156	32.831	-0.429	0.493
-743.142	-200.000	-0.004	-0.535
-742.127	-81.643	-0.286	0.124
-741.112	7.925	-0.154	0.153
-740.098	-145.178	-0.117	0.014
-739.083	-172.983	-0.185	-0.007
-738.069	800.000	-0.123	0.524
-737.054	-90.607	-0.128	0.049
-736.039	517.081	-0.126	0.392
-735.025	133.349	0.304	0.523
-734.010	-133.344	0.076	0.013
-732.996	-4.900	0.124	-0.113
-731.981	141.138	0.020	0.035
-730.966	-126.342	0.202	-0.040
-729.952	-128.469	-0.056	-0.010
-728.937	-33.727	0.226	0.165
-727.923	-60.226	-0.339	-0.191
-726.908	-94.294	0.587	0.212
-725.894	-200.000	0.052	-0.482
-724.879	44.676	0.116	-0.142
-723.864	252.152	0.170	-0.385
-722.850	-134.482	0.165	0.026
-721.835	-200.000	-0.028	0.646
-720.821	-80.792	-0.506	0.222
-719.806	-163.913	-0.547	0.033
-718.791	-83.708	0.113	-0.047
-717.777	17.658	-0.381	0.402
-716.762	-200.000	-0.077	-0.540
-715.748	-200.000	-0.007	0.236
-714.733	66.511	0.088	-0.119
-713.718	185.936	-0.170	-0.336
-712.704	-59.291	-0.394	-0.225
-711.689	-64.344	-0.326	-0.175
-710.675	68.228	-0.143	0.194
-709.660	398.208	0.036	-0.100
-708.645	800.000	-0.027	-0.121
-707.631	221.208	-0.130	-0.279
-706.616	-29.635	-0.412	-0.312
-705.602	-104.545	0.158	0.048
-704.587	94.402	0.276	0.417
-703.572	-105.913	0.397	-0.118
-702.558	141.567	-0.320	0.564
-701.543	158.937	0.008	0.016
-700.529	-43.725	-0.118	-0.079
-699.514	137.002	0.108	-0.188
-698.499	-16.952	-0.297	0.249
-697.485	-200.000	-0.006	-0.052
-696.470	-145.923	-0.331	-0.038
-695.456	-23.037	0.128	-0.102
-694.441	800.000	-0.089	-0.453
-693.426	-200.000	-0.004	-0.320
-692.412	-158.761	0.475	0.036
-691.397	-96.263	0.631	-0.220
-690.383	188.613	0.159	-0.316
-689.368	-200.000	-0.027	0.197
-688.354	72.048	0.249	-0.343
-687.339	130.571	0.104	-0.177
-686.324	-168.462	-0.314	-0.016
-685.310	-29.675	0.322	0.243
-684.295	-200.000	0.035	0.211
-683.281	67.349	-0.315	-0.427
-682.266	150.459	-0.145	-0.261
-681.251	140.423	0.165	0.289
-680.237	176.951	0.130	-0.251
-679.222	242.790	-0.093	-0.206
-678.208	210.785	0.048	0.100
-677.193	496.428	-0.055	0.170
-676.178	118.414	-0.164	0.268
-675.164	-84.530	-0.073	-0.031
-674.149	-164.648	0.418	0.025
-673.135	-45.406	0.065	0.043
-672.120	800.000	-0.025	0.130
-671.105	-8.749	-0.138	-0.123
-670.091	425.266	-0.006	-0.018
-669.076	60.233	-0.168	-0.220
-668.062	-144.461	0.312	0.038
-667.047	-182.123	-0.220	0.005
-666.032	-200.000	-0.022	0.391
-665.018	-142.942	-0.496	0.063
-664.003	190.589	0.088	0.176
-662.989	-131.000	0.349	0.061
-661.974	-8.451	-0.144	-0.128
-660.959	-78.596	0.212	0.096
-659.945	-35.773	0.066	0.047
-658.930	-200.000	0.000	0.353
-657.916	-97.772	-0.201	0.068
-656.901	29.848	-0.155	-0.175
-655.886	-20.106	-0.270	-0.220
-654.872	-127.095	-0.247	-0.048
-653.857	-200.000	0.030	-0.470
-652.843	178.165	0.073	0.141
-651.828	65.030	0.259	0.347
-650.814	53.569	0.390	0.496
-649.799	200.295	-0.127	0.259
-648.784	121.726	0.061	0.101
-647.770	87.641	0.108	-0.158
-646.755	-126.952	0.106	-0.020
-645.741	-36.561	-0.280	-0.199
-644.726	166.804	-0.249	-0.468
-643.711	107.566	0.112	0.177
-642.697	-169.629	-0.413	-0.020
-641.682	-44.914	0.724	-0.476
-640.668	-44.303	-0.537	0.355
-639.653	-90.459	0.668	-0.255
-638.638	-81.791	-0.193	0.083
-637.624	-77.445	-0.352	-0.161
-636.609	-68.244	0.256	0.131
-635.595	29.311	-0.178	0.200
-634.580	-200.000	0.030	-0.197
-633.565	-33.955	-0.226	0.164
-632.551	-191.323	-0.243	-0.003
-631.536	-27.747	-0.353	-0.270
-630.522	129.856	0.187	0.318
-629.507	289.691	-0.141	0.339
-628.492	113.616	-0.120	0.193
-627.478	-134.116	-0.351	-0.057
-626.463	293.118	0.065	-0.158
-625.449	-150.476	-0.781	-0.078
-624.434	-81.930	0.175	0.075
-623.419	73.825	0.190	0.264
-622.405	183.700	-0.169	-0.332
-621.390	21.280	0.262	-0.282
-620.376	631.961	0.052	-0.174
-619.361	-62.870	-0.302	0.165
-618.346	509.629	-0.082	0.252
-617.332	10.381	-0.286	-0.288
-616.317	-200.000	-0.044	0.381
-615.303	170.214	0.127	0.241
-614.288	-120.375	-0.466	-0.104
-613.273	-200.000	-0.023	-0.318
-612.259	-200.000	0.063	-0.437
-611.244	-33.833	0.047	-0.034
-610.230	-200.000	-0.006	0.186
-609.215	-35.153	0.209	-0.150
-608.201	24.212	-0.301	-0.328
-607.186	-32.747	-0.366	-0.269
-606.171	-130.473	-0.156	-0.028
-605.157	-61.039	0.344	0.191
-604.142	-142.141	0.694	-0.090
-603.128	-64.293	-0.180	-0.096
-602.113	95.139	0.078	0.118
-601.098	-200.000	-0.004	0.495
-600.084	732.881	0.117	0.415
-599.069	-85.614	0.567	-0.232
-598.055	-87.895	-0.191	-0.076
-597.040	-180.425	-0.310	0.008
-596.025	800.000	0.038	0.164
-595.011	800.000	0.091	-0.354
-593.996	105.787	-0.303	-0.473
-592.982	800.000	-0.045	-0.227
-591.967	471.140	0.140	-0.417
-590.952	-88.083	-0.131	0.052
-589.938	89.534	0.120	0.177
-588.923	121.598	-0.210	0.346
-587.909	482.557	0.126	-0.379
-586.894	2.641	-0.124	-0.118
-585.879	800.000	-0.063	0.282
-584.865	-200.000	0.016	-0.170
-583.850	176.060	-0.222	-0.427
-582.836	-49.223	-0.603	0.379
-581.821	145.161	-0.236	0.418
-580.806	-200.000	0.021	0.179
-579.792	-75.410	-0.305	0.143
-578.777	289.415	0.076	-0.182
-577.763	800.000	-0.156	-0.578
-576.748	-55.853	-0.533	-0.313
-575.733	35.271	-0.314	-0.363
-574.719	-58.009	0.337	-0.193
-573.704	800.000	0.017	0.099
-572.690	-148.913	-0.143	-0.015
-571.675	-22.974	-0.051	-0.040
-570.661	36.010	-0.182	0.211
-569.646	800.000	-0.024	0.088
-568.631	-61.797	-0.160	0.088
-567.617	-161.575	0.668	0.045
-566.602	-91.925	0.266	0.099
-565.588	-122.790	0.288	-0.061
-564.573	800.000	0.122	-0.539
-563.558	-102.884	0.531	-0.165
-562.544	25.646	0.256	-0.281
-561.529	-54.681	0.206	-0.122
-560.515	-105.069	0.293	-0.088
-559.500	-74.856	0.280	-0.132
-558.485	-114.719	0.262	-0.066
-557.471	128.652	0.125	0.210
-556.456	157.002	-0.082	-0.150
-555.442	-28.639	0.262	0.199
-554.427	-200.000	-0.004	0.144
-553.412	489.012	-0.029	0.088
-552.398	11.339	-0.056	-0.056
-551.383	-28.791	0.186	-0.141
-550.369	-110.667	-0.329	0.089
-549.354	-200.000	0.023	0.226
-548.339	207.910	0.168	0.347
-547.325	28.788	0.077	0.086
-546.310	-93.768	0.290	0.105
-545.296	-200.000	0.040	-0.485
-544.281	514.759	-0.100	0.309
-543.266	28.238	0.177	0.197
-542.252	-200.000	-0.008	0.314
-541.237	-200.000	0.053	0.590
-540.223	364.118	0.064	0.171
-539.208	-176.602	-0.275	-0.009
-538.193	411.489	0.044	-0.123
-537.179	-107.459	-0.372	-0.107
-536.164	-200.000	-0.039	0.331
-535.150	174.984	0.343	-0.656
-534.135	74.404	-0.093	-0.128
-533.121	-15.692	-0.086	-0.072
-532.106	-182.657	-0.415	-0.010
-531.091	-58.529	-0.468	0.267
-530.077	201.865	-0.184	0.375
-529.062	-4.462	-0.057	-0.052
-528.048	-44.543	0.273	-0.180
-527.033	432.554	0.055	0.158
-526.018	800.000	0.064	-0.275
-525.004	-82.360	-0.213	0.091
-523.989	-200.000	0.029	-0.196
-522.975	-26.986	-0.235	0.180
-521.960	-162.357	0.142	0.009
-520.945	-20.770	0.314	-0.253
-519.931	181.771	0.119	-0.232
-518.916	-118.441	0.007	-0.002
-517.902	316.436	0.054	0.134
-516.887	-177.249	0.275	-0.009
-515.872	-144.444	-0.390	0.047
-514.858	-73.046	-0.248	-0.119
-513.843	-91.503	0.356	-0.133
-512.829	-115.112	-0.609	0.151
-511.814	-47.370	0.448	-0.286
-510.799	205.465	0.150	0.308
-509.785	800.000	-0.165	-0.617
-508.770	-79.916	-0.369	-0.162
-507.756	-115.837	-0.501	-0.122
-506.741	-45.299	-0.172	-0.112
-505.726	-143.387	0.347	-0.043
-504.712	800.000	0.054	0.272
-503.697	-156.600	0.240	-0.019
-502.683	-34.043	-0.081	-0.058
-501.668	159.874	-0.212	-0.390
-500.653	-159.385	0.165	-0.012
-499.639	166.693	0.175	0.327
-498.624	20.017	0.258	-0.274
-497.610	-114.389	-0.165	-0.041
-496.595	-39.082	0.316	-0.218
-495.581	272.923	0.172	-0.402
-494.566	144.687	0.208	-0.366
-493.551	800.000	-0.136	-0.633
-492.537	800.000	0.055	-0.299
-491.522	196.096	0.113	-0.228
-490.508	-115.164	-0.179	0.044
-489.493	124.822	0.177	0.293
-488.478	-11.658	-0.176	0.152
-487.464	-105.000	-0.135	0.040
-486.449	-58.906	-0.401	0.227
-485.435	-78.638	-0.273	0.122
-484.420	11.061	-0.399	0.401
-483.405	-200.000	-0.026	0.344
-482.391	-116.496	0.293	-0.071
-481.376	-158.786	-0.637	0.047
-480.362	10.940	-0.278	-0.279
-479.347	-49.258	-0.658	0.412
-478.332	5.344	-0.135	-0.131
-477.318	-160.945	0.280	0.019
-476.303	-110.091	0.209	0.057
-475.289	-154.666	-0.429	0.037
-474.274	72.249	-0.156	-0.214
-473.259	516.184	0.066	0.203
-472.245	-14.161	0.187	0.159
-471.230	-100.083	-0.113	-0.037
-470.216	-118.592	-0.404	-0.093
-469.201	130.640	0.333	-0.562
-468.186	77.604	-0.301	-0.422
-467.172	-135.391	-0.153	-0.024
-466.157	48.395	-0.157	-0.194
-465.143	-64.853	0.307	0.163
-464.128	-119.194	0.438	0.100
-463.113	51.282	-0.117	0.146
-462.099	-52.845	-0.075	-0.045
-461.084	-122.755	0.356	0.075
-460.070	158.229	0.089	-0.163
-459.055	-200.000	0.026	-0.324
-458.040	48.634	0.041	-0.051
-457.026	655.625	-0.046	-0.155
-456.011	145.323	0.131	0.231
-454.997	39.865	0.190	0.224
-453.982	-68.448	0.626	0.318
-452.968	-108.227	0.239	0.067
-451.953	87.778	0.138	-0.201
-450.938	-106.608	0.298	0.086
-449.924	-37.983	0.188	-0.131
-448.909	435.710	-0.049	0.142
-447.895	800.000	-0.123	0.490
-446.880	728.635	0.175	-0.618
-445.865	-200.000	-0.048	-0.288
-444.851	-200.000	-0.046	-0.407
-443.836	-96.755	-0.233	0.080
-442.822	-8.266	0.124	0.109
-441.807	1.718	0.050	-0.047
-440.792	-62.266	0.172	0.094
-439.778	-136.957	0.279	-0.042
-438.763	-94.997	-0.304	0.107
-437.749	-141.397	-0.396	0.052
-436.734	251.043	-0.061	-0.137
-435.719	-90.335	-0.347	0.131
-434.705	-28.618	-0.299	0.225
-433.690	-122.577	-0.278	0.059
-432.676	133.805	-0.126	-0.214
-431.661	-176.073	-0.104	0.004
-430.646	12.578	0.114	-0.115
-429.632	-142.546	-0.511	0.065
-428.617	-200.000	0.026	-0.244
-427.603	19.049	0.296	-0.312
-426.588	116.200	0.274	-0.441
-425.573	154.419	-0.155	-0.280
-424.559	-23.803	-0.015	-0.012
-423.544	-82.883	-0.372	0.157
-422.530	102.473	0.110	-0.170
-421.515	26.818	-0.031	-0.034
-420.500	70.876	-0.122	-0.166
-419.486	-61.164	-0.219	-0.121
-418.471	-86.662	-0.187	0.075
-417.457	38.663	-0.134	0.157
-416.442	-141.532	-0.308	0.040
-415.428	98.886	-0.172	0.261
-414.413	228.220	-0.135	-0.289
-413.398	-98.026	-0.215	0.072
-412.384	800.000	0.054	0.300
-411.369	-110.501	0.130	-0.035
-410.355	-74.862	-0.301	-0.141
-409.340	172.011	0.100	-0.189
-408.325	305.714	0.261	-0.640
-407.311	800.000	-0.020	0.105
-406.296	-161.598	0.551	0.037
-405.282	-45.312	-0.322	-0.209
-404.267	122.856	-0.192	0.316
-403.252	-97.989	-0.140	-0.047
-402.238	-165.569	-0.560	0.031
-401.223	-183.712	0.236	-0.005
-400.209	-21.395	0.528	-0.422
-399.194	-78.692	-0.322	-0.143
-398.179	-41.270	-0.298	-0.201
-397.165	-130.551	-0.269	0.047
-396.150	166.821	-0.152	0.283
-395.136	-158.580	0.094	0.007
-394.121	-137.308	-0.203	0.030
-393.106	-29.514	-0.670	-0.501
-392.092	-74.224	-0.314	-0.148
-391.077	-61.889	-0.212	-0.116
-390.063	-49.838	0.139	0.086
-389.048	-200.000	-0.023	0.511
-388.033	-101.010	0.334	-0.107
-387.019	-53.218	0.112	-0.067
-386.004	-200.000	0.025	0.241
-384.990	-115.363	0.598	0.147
-383.975	-200.000	0.019	0.202
-382.960	-85.358	-0.010	0.004
-381.946	-200.000	0.032	0.365
-380.931	-15.224	-0.585	-0.490
-379.917	-95.136	-0.359	0.126
-378.902	-200.000	-0.005	0.031
-377.888	16.888	0.074	-0.076
-376.873	740.669	0.071	-0.250
-375.858	446.196	0.034	0.097
-374.844	-15.253	-0.495	0.414
-373.829	-156.622	0.277	0.022
-372.815	-128.576	0.337	-0.062
-371.800	-110.914	0.282	0.075
-370.785	-129.676	-0.039	0.007
-369.771	800.000	-0.044	0.226
-368.756	-90.164	0.148	0.056
-367.742	-61.703	-0.161	0.088
-366.727	271.685	-0.160	0.370
-365.712	24.964	-0.137	-0.149
-364.698	-181.345	-0.492	0.012
-363.683	800.000	0.068	0.264
-362.669	-110.622	-0.278	-0.075
-361.654	-46.247	0.253	-0.163
-360.639	-200.000	0.011	-0.106
-359.625	-38.057	0.270	0.187
-358.610	800.000	0.098	0.424
-357.596	-130.096	-0.441	0.078
-356.581	39.537	-0.271	0.318
-355.566	76.427	0.134	0.186
-354.552	239.280	-0.006	-0.013
-353.537	-66.500	-0.281	0.146
-352.523	7.251	-0.167	0.163
-351.508	168.145	-0.025	0.047
-350.493	268.586	0.105	-0.242
-349.479	-12.995	-0.221	-0.188
-348.464	-4.963	0.515	-0.464
-347.450	-8.916	0.068	-0.060
-346.435	800.000	-0.077	0.374
-345.420	28.431	-0.400	0.442
-344.406	-200.000	-0.039	0.239
-343.391	-26.318	-0.260	0.199
-342.377	800.000	0.032	-0.176
-341.362	-41.089	-0.187	-0.126
-340.348	82.338	-0.124	-0.176
-339.333	-42.954	0.236	0.156
-338.318	118.157	-0.236	-0.382
-337.304	104.354	0.119	-0.183
-336.289	-200.000	0.089	0.518
-335.275	-40.404	0.189	-0.128
-334.260	800.000	-0.054	-0.266
-333.245	78.987	0.160	0.225
-332.231	-200.000	0.014	0.204
-331.216	-70.877	0.267	0.131
-330.202	-11.889	0.332	-0.284
-329.187	717.827	0.026	0.093
-328.172	-122.238	0.291	0.062
-327.158	-46.467	-0.251	0.160
-326.143	-73.584	0.492	0.233
-325.129	10.740	0.492	0.491
-324.114	137.220	-0.167	0.287
-323.099	-20.241	-0.261	0.210
-322.085	15.449	-0.082	0.084
-321.070	-30.193	-0.025	0.019
-320.056	-167.866	-0.428	-0.022
-319.041	800.000	-0.085	-0.332
-318.026	-139.282	0.387	-0.054
-317.012	-38.202	-0.319	0.220
-315.997	-200.000	-0.024	0.233
-314.983	-23.347	0.457	0.358
-313.968	321.513	0.167	0.416
-312.953	246.448	-0.108	-0.239
-311.939	-75.845	0.252	0.116
-310.924	-84.001	0.569	0.235
-309.910	-26.822	0.272	0.207
-308.895	800.000	-0.071	0.290
-307.880	-82.564	-0.184	-0.078
-306.866	-85.670	-0.029	-0.012
-305.851	75.377	-0.315	0.434
-304.837	-133.173	-0.298	0.049
-303.822	800.000	-0.110	0.432
-302.807	-200.000	-0.009	0.131
-301.793	-76.559	0.619	-0.283
-300.778	-32.390	-0.359	-0.261
-299.764	131.906	-0.277	0.466
-298.749	-200.000	0.020	0.199
-297.735	425.730	-0.130	-0.366
-296.720	84.685	-0.241	-0.344
-295.705	-91.349	-0.079	-0.029
-294.691	83.257	0.183	-0.261
-293.676	437.293	-0.029	-0.083
-292.662	32.263	-0.318	0.359
-291.647	21.604	-0.162	0.172
-290.632	126.947	0.239	0.397
-289.618	-95.413	0.183	0.064
-288.603	199.928	0.097	-0.195
-287.589	549.706	0.145	-0.456
-286.574	-200.000	0.013	-0.370
-285.559	320.028	-0.156	-0.387
-284.545	-87.684	-0.365	0.143
-283.530	-200.000	0.026	0.262
-282.516	124.830	0.508	0.836
-281.501	110.950	0.196	0.308
-280.486	84.519	0.284	0.406
-279.472	-117.568	-0.378	0.088
-278.457	800.000	0.093	0.362
-277.443	-49.888	0.293	-0.181
-276.428	-174.350	0.146	0.005
-275.413	-20.494	0.248	-0.199
-274.399	-111.450	0.142	-0.037
-273.384	800.000	-0.048	-0.234
-272.370	-67.089	-0.070	0.036
-271.355	-200.000	-0.030	0.419
-270.340	-120.110	0.436	-0.097
-269.326	-159.069	0.513	0.037
-268.311	-19.984	0.485	-0.390
-267.297	-74.941	0.544	-0.253
-266.282	-200.000	-0.001	-0.185
-265.267	73.633	-0.118	-0.161
-264.253	552.296	0.023	-0.072
-263.238	8.855	0.432	0.424
-262.224	466.210	-0.094	0.277
-261.209	28.911	-0.048	-0.053
-260.195	-90.619	-0.098	-0.037
-259.180	-145.361	0.199	0.023
-258.165	800.000	-0.119	-0.552
-257.151	800.000	0.088	-0.364
-256.136	-57.673	0.070	0.040
-255.122	-92.726	0.370	-0.134
-254.107	-4.065	0.382	-0.345
-253.092	-4.703	-0.457	0.411
-252.078	178.997	0.283	0.540
-251.063	125.857	0.299	-0.494
-250.049	567.117	0.109	-0.347
-249.034	-142.416	-0.164	-0.021
-248.019	163.562	-0.093	-0.171
-247.005	181.387	-0.059	-0.114
-245.990	-67.913	-0.569	-0.288
-244.976	-181.734	0.379	0.009
-243.961	-77.071	0.305	-0.138
-242.946	-128.642	0.273	0.050
-241.932	21.774	-0.119	-0.127
-240.917	-200.000	0.064	-0.387
-239.903	800.000	0.097	0.391
-238.888	397.218	-0.135	0.369
-237.873	46.210	0.319	-0.385
-236.859	43.237	0.325	-0.387
-235.844	28.357	-0.203	-0.224
-234.830	-200.000	0.011	-0.150
-233.815	-100.717	0.274	0.087
-232.800	-84.912	0.084	-0.034
-231.786	151.374	0.338	0.601
-230.771	-76.004	0.218	0.100
-229.757	51.469	-0.261	-0.323
-228.742	-80.119	0.331	-0.144
-227.727	-62.273	-0.452	-0.244
-226.713	-113.035	-0.305	-0.078
-225.698	-107.318	0.272	0.077
-224.684	176.631	-0.076	-0.144
-223.669	-161.859	0.164	0.011
-222.655	-9.165	0.188	-0.163
-221.640	256.190	0.094	0.211
-220.625	-106.786	0.490	0.141
-219.611	-169.196	0.258	-0.012
-218.596	167.255	-0.246	-0.455
-217.582	8.102	0.382	0.373
-216.567	-77.626	-0.203	-0.091
-215.552	-107.556	-0.333	-0.094
-214.538	164.474	0.129	-0.238
-213.523	316.905	-0.126	0.311
-212.509	-21.862	-0.390	0.308
-211.494	-86.367	-0.158	0.063
-210.479	145.131	-0.178	0.311
-209.465	259.930	-0.186	0.419
-208.450	800.000	-0.054	0.273
-207.436	335.098	0.151	0.381
-206.421	132.618	0.077	0.129
-205.406	-64.313	-0.133	0.070
-204.392	251.136	-0.143	0.317
-203.377	451.776	0.080	-0.232
-202.363	143.459	0.287	-0.498
-201.348	-9.467	0.253	-0.219
-200.333	-91.429	0.199	-0.073
-199.319	-152.263	0.440	0.041
-198.304	-175.650	-0.470	-0.016
-197.290	-16.330	0.173	0.143
-196.275	-80.501	0.517	-0.223
-195.260	800.000	0.023	-0.130
-194.246	69.483	0.204	0.274
-193.231	800.000	-0.045	-0.236
-192.217	71.483	0.241	0.326
-191.202	-40.673	0.208	-0.140
-190.187	-182.751	0.439	-0.010
-189.173	800.000	-0.032	0.137
-188.158	-93.926	0.296	-0.105
-187.144	194.766	-0.204	-0.404
-186.129	-141.630	0.489	0.063
-185.114	644.353	-0.053	-0.177
-184.100	4.905	-0.241	-0.230
-183.085	-61.700	-0.154	0.084
-182.071	-133.497	0.283	0.046
-181.056	-33.483	-0.421	0.302
-180.042	-52.904	-0.322	0.192
-179.027	-151.647	0.184	0.017
-178.012	16.170	-0.169	0.173
-176.998	52.065	-0.199	0.247
-175.983	-200.000	0.002	0.271
-174.969	-187.041	-0.435	-0.008
-173.954	45.750	-0.125	0.150
-172.939	-148.690	-0.433	-0.045
-171.925	-200.000	-0.003	0.213
-170.910	-91.966	0.339	-0.124
-169.896	-60.079	0.275	0.152
-168.881	-34.491	0.160	0.114
-167.866	-119.524	-0.268	-0.060
-166.852	-69.818	-0.352	-0.174
-165.837	-138.057	-0.208	-0.030
-164.823	-200.000	0.031	-0.275
-163.808	-47.710	0.206	-0.129
-162.793	-87.606	-0.209	-0.082
-161.779	-200.000	-0.031	0.370
-160.764	130.812	0.330	0.551
-159.750	800.000	0.076	-0.402
-158.735	401.308	-0.012	0.034
-157.720	-200.000	-0.059	0.552
-156.706	-92.727	0.266	0.096
-155.691	-136.905	0.343	0.051
-154.677	25.377	0.277	0.299
-153.662	10.247	0.285	0.281
-152.647	-50.132	0.043	-0.026
-151.633	-200.000	-0.007	-0.083
-150.618	-65.860	0.330	-0.171
-149.604	211.093	-0.072	-0.147
-148.589	114.011	0.275	-0.435
-147.574	-75.440	0.230	-0.106
-146.560	-121.882	0.493	0.105
-145.545	-44.536	0.232	0.150
-144.531	-200.000	0.034	0.354
-143.516	-89.184	0.248	0.094
-142.502	-70.146	0.089	0.044
-141.487	-182.956	-0.359	0.008
-140.472	-200.000	0.000	-0.083
-139.458	-200.000	-0.012	-0.268
-138.443	-200.000	-0.001	-0.560
-137.429	590.777	-0.167	0.539
-136.414	-179.284	0.147	-0.004
-135.399	49.633	0.311	-0.380
-134.385	75.823	-0.177	0.242
-133.370	-133.723	0.418	-0.067
-132.356	124.609	-0.229	0.375
-131.341	315.223	-0.129	0.317
-130.326	-117.959	-0.374	0.086
-129.312	-52.418	0.332	0.199
-128.297	-200.000	0.025	-0.266
-127.283	527.114	0.127	0.390
-126.268	-10.320	-0.206	0.177
-125.253	116.073	0.173	-0.275
-124.239	51.743	-0.276	-0.341
-123.224	165.064	0.102	-0.188
-122.210	174.027	0.156	-0.293
