DTS Sentinel unit serial number:	SN409020Multiplexer serial number:	ORYXHardware model number:	OX4-SRSoftware version number:	ORYX F/W v3.00 Oryx Data Collector v3.7.2.0data status	okinstallation	HaddamTimeLapsedifferential loss correction	single-endedforward channel	channel 3reverse channel	N/Adate	2011/06/21time	20:06:17forward acquisition time	30.00reverse acquisition time	0.00gamma	498.7831k internal	0.1785k external	0.1785temperature offset calibration	1.0074default loss term (dB/km)	0.3790temperature slope calibration	1.3530multiplexer offset coefficient	1.0000multiplexer slope coefficient	1.0000fibre end	0.00T internal ref (°C)	31.97T ext. ref 1 (°C)	23.53T ext. ref 2 (°C)	0.03length (m)	temperature (°C)	Stokes	anti-Stokes-747.200	-64.366	0.151	-0.080
-746.185	-200.000	0.003	0.694
-745.171	73.349	-0.172	-0.235
-744.156	62.164	-0.259	0.337
-743.142	532.040	-0.087	-0.271
-742.127	-200.000	0.004	0.732
-741.112	-200.000	0.023	-0.334
-740.098	6.293	-0.305	0.295
-739.083	4.355	-0.294	0.281
-738.069	608.521	0.101	0.330
-737.054	-58.887	-0.214	-0.120
-736.039	-153.080	-0.326	0.029
-735.025	304.530	0.313	-0.761
-734.010	-200.000	-0.049	-0.506
-732.996	-13.871	-0.513	-0.431
-731.981	-134.595	0.275	0.043
-730.966	51.655	0.036	-0.045
-729.952	58.666	0.118	-0.151
-728.937	800.000	-0.047	0.178
-727.923	-39.608	-0.223	-0.152
-726.908	-75.778	-0.696	-0.320
-725.894	61.018	-0.154	0.199
-724.879	-38.303	-0.396	-0.273
-723.864	-101.777	-0.542	-0.170
-722.850	8.325	-0.335	-0.328
-721.835	660.682	0.063	-0.213
-720.821	800.000	0.029	0.164
-719.806	56.567	-0.116	-0.148
-718.791	34.065	0.295	0.335
-717.777	-118.006	-0.148	0.034
-716.762	-53.905	-0.098	-0.058
-715.748	408.361	-0.099	-0.274
-714.733	800.000	-0.070	0.363
-713.718	-32.457	-0.056	0.041
-712.704	-30.508	-0.246	0.181
-711.689	-56.148	0.176	-0.102
-710.675	800.000	-0.008	-0.042
-709.660	-146.828	0.335	-0.037
-708.645	-168.336	-0.365	0.018
-707.631	-200.000	-0.044	-0.324
-706.616	61.038	-0.202	-0.261
-705.602	-144.156	-0.262	0.032
-704.587	583.855	-0.048	-0.154
-703.572	364.455	0.123	-0.324
-702.558	68.527	0.216	-0.289
-701.543	-31.314	-0.181	0.132
-700.529	-72.129	0.604	-0.290
-699.514	-200.000	0.011	0.093
-698.499	-200.000	-0.007	0.155
-697.485	349.595	-0.056	0.145
-696.470	64.966	-0.214	-0.282
-695.456	138.634	-0.196	0.335
-694.441	74.661	-0.123	-0.169
-693.426	32.543	0.126	-0.142
-692.412	-83.811	0.256	0.106
-691.397	-164.401	0.317	0.019
-690.383	-2.400	-0.433	0.394
-689.368	195.945	0.099	0.197
-688.354	379.453	-0.167	0.448
-687.339	-90.734	-0.661	-0.247
-686.324	137.228	-0.045	-0.076
-685.310	-55.009	0.303	0.177
-684.295	132.910	-0.327	-0.551
-683.281	-181.938	-0.410	-0.010
-682.266	-70.995	-0.224	-0.109
-681.251	800.000	-0.053	0.274
-680.237	-19.883	0.177	0.142
-679.222	-108.665	-0.193	0.053
-678.208	-112.603	0.212	-0.055
-677.193	-123.436	0.259	0.053
-676.178	-94.507	0.067	0.024
-675.164	-155.834	-0.635	-0.052
-674.149	-30.535	0.263	-0.193
-673.135	378.553	0.138	-0.370
-672.120	-200.000	0.040	-0.389
-671.105	217.584	-0.097	-0.202
-670.091	-69.171	0.195	-0.097
-669.076	87.438	-0.071	-0.102
-668.062	455.954	0.075	-0.218
-667.047	-158.016	0.278	-0.021
-666.032	-200.000	-0.010	0.117
-665.018	-45.256	0.474	-0.305
-664.003	42.584	0.240	0.284
-662.989	-86.630	-0.283	-0.112
-661.974	-109.425	-0.714	-0.195
-660.959	-78.249	0.166	0.074
-659.945	130.014	-0.112	-0.187
-658.930	800.000	0.057	0.238
-657.916	-102.710	0.301	0.093
-656.901	-121.109	-0.460	-0.099
-655.886	-154.887	0.156	0.013
-654.872	211.744	0.015	0.031
-653.857	79.195	-0.189	-0.263
-652.843	150.006	-0.380	-0.672
-651.828	143.192	-0.152	-0.263
-650.814	213.963	-0.122	-0.251
-649.799	-200.000	0.068	-0.591
-648.784	67.455	-0.103	-0.137
-647.770	-39.820	0.108	0.073
-646.755	37.327	-0.227	0.261
-645.741	-78.328	-0.438	-0.194
-644.726	-114.694	0.182	-0.045
-643.711	70.774	0.156	-0.210
-642.697	504.155	-0.047	0.141
-641.682	-33.260	-0.358	-0.257
-640.668	-69.345	0.257	-0.127
-639.653	-42.759	-0.424	-0.279
-638.638	-31.599	0.285	-0.207
-637.624	-41.927	-0.296	-0.196
-636.609	102.552	0.091	-0.138
-635.595	107.682	-0.219	-0.340
-634.580	-34.379	-0.175	0.124
-633.565	-83.545	-0.081	0.033
-632.551	-7.924	-0.174	-0.152
-631.536	181.504	0.106	0.202
-630.522	93.692	-0.245	0.361
-629.507	-100.451	0.321	-0.102
-628.492	-16.614	0.175	-0.144
-627.478	-200.000	0.045	-0.599
-626.463	-179.676	-0.372	-0.010
-625.449	800.000	-0.035	0.185
-624.434	90.387	-0.333	0.484
-623.419	-82.423	-0.463	-0.194
-622.405	800.000	-0.154	0.675
-621.390	3.144	0.338	0.318
-620.376	-172.070	-0.213	-0.009
-619.361	-143.183	-0.077	-0.009
-618.346	299.384	-0.120	-0.287
-617.332	52.210	-0.103	0.128
-616.317	-132.187	-0.376	0.063
-615.303	-132.936	0.400	-0.065
-614.288	-200.000	-0.037	0.303
-613.273	-117.357	0.171	-0.040
-612.259	-12.968	0.445	0.375
-611.244	59.310	-0.218	-0.279
-610.230	-135.967	0.132	-0.020
-609.215	-27.395	0.046	-0.035
-608.201	-17.374	-0.154	0.126
-607.186	-15.861	-0.490	0.404
-606.171	73.155	0.115	0.156
-605.157	13.540	-0.458	-0.461
-604.142	-137.816	0.231	0.033
-603.128	-182.244	0.093	0.002
-602.113	-200.000	0.028	0.666
-601.098	266.392	0.219	-0.498
-600.084	184.733	-0.049	-0.095
-599.069	800.000	0.098	0.378
-598.055	59.481	0.204	0.261
-597.040	377.545	-0.127	0.339
-596.025	-200.000	0.000	-0.248
-595.011	-42.628	0.108	0.071
-593.996	-2.584	-0.153	0.139
-592.982	499.700	-0.116	-0.347
-591.967	-68.357	-0.488	-0.245
-590.952	123.745	-0.089	0.144
-589.938	68.295	-0.068	0.090
-588.923	-200.000	0.041	0.435
-587.909	-57.263	0.350	0.199
-586.894	-26.357	-0.144	-0.109
-585.879	-200.000	0.014	0.080
-584.865	20.053	-0.233	-0.243
-583.850	84.679	0.160	-0.227
-582.836	158.911	0.266	0.480
-581.821	627.895	-0.059	0.193
-580.806	-155.947	0.117	-0.009
-579.792	800.000	-0.012	0.049
-578.777	-200.000	0.051	0.453
-577.763	-200.000	0.006	0.095
-576.748	-200.000	0.064	0.417
-575.733	-122.526	0.261	-0.054
-574.719	800.000	-0.060	-0.277
-573.704	237.884	-0.348	-0.750
-572.690	-200.000	-0.037	0.226
-571.675	-39.680	0.088	0.059
-570.661	346.389	-0.101	0.258
-569.646	-200.000	-0.059	0.678
-568.631	-186.395	-0.067	0.001
-567.617	-85.529	-0.106	-0.042
-566.602	-117.794	-0.746	0.172
-565.588	797.337	0.072	-0.257
-564.573	50.143	0.181	0.222
-563.558	-28.389	-0.078	-0.058
-562.544	-13.138	-0.091	-0.076
-561.529	-100.678	0.122	0.039
-560.515	-86.083	-0.319	-0.127
-559.500	-17.057	-0.112	0.091
-558.485	19.099	-0.177	0.184
-557.471	370.078	0.060	-0.159
-556.456	62.899	0.249	0.323
-555.442	213.701	0.081	0.166
-554.427	-94.148	-0.323	0.114
-553.412	-80.710	-0.337	-0.144
-552.398	800.000	-0.054	-0.198
-551.383	-54.938	0.152	0.089
-550.369	-137.412	0.261	-0.038
-549.354	381.857	0.195	-0.521
-548.339	-114.170	-0.072	0.018
-547.325	-81.808	0.493	-0.208
-546.310	-200.000	-0.015	-0.177
-545.296	-200.000	0.040	-0.360
-544.281	-87.974	0.115	-0.045
-543.266	-41.841	-0.094	0.062
-542.252	33.641	-0.232	-0.260
-541.237	399.926	0.119	0.325
-540.223	-109.938	-0.329	-0.089
-539.208	379.295	0.098	0.262
-538.193	408.726	-0.229	-0.628
-537.179	-200.000	0.233	0.001
-536.164	105.257	0.263	-0.402
-535.150	-182.165	0.238	-0.006
-534.135	442.005	0.053	0.150
-533.121	-21.199	-0.010	0.008
-532.106	-132.149	-0.198	0.033
-531.091	100.886	-0.082	0.124
-530.077	-78.715	-0.071	0.031
-529.062	-137.152	0.172	-0.025
-528.048	6.772	0.174	0.167
-527.033	19.392	-0.249	0.259
-526.018	-132.671	0.184	-0.030
-525.004	-74.539	-0.432	-0.200
-523.989	-28.890	-0.505	0.374
-522.975	-90.144	-0.322	0.121
-521.960	14.672	0.358	0.362
-520.945	-91.849	-0.498	-0.182
-519.931	10.653	-0.351	0.345
-518.916	-72.759	-0.294	-0.139
-517.902	800.000	-0.068	0.341
-516.887	-200.000	0.112	-0.001
-515.872	-122.291	0.404	-0.084
-514.858	-56.346	0.179	-0.102
-513.843	-55.803	0.142	0.082
-512.829	-136.196	0.081	0.012
-511.814	-117.899	0.296	0.068
-510.799	137.705	0.140	0.236
-509.785	11.626	-0.144	0.143
-508.770	304.695	0.116	-0.279
-507.756	59.181	-0.311	0.396
-506.741	-67.386	-0.420	0.212
-505.726	-36.222	0.127	0.088
-504.712	767.934	0.074	-0.263
-503.697	360.495	-0.105	-0.274
-502.683	-87.643	-0.258	-0.100
-501.668	800.000	-0.061	-0.292
-500.653	116.650	0.149	-0.237
-499.639	-80.840	-0.308	0.131
-498.624	515.646	-0.178	0.539
-497.610	-200.000	0.015	-0.690
-496.595	-200.000	0.007	0.316
-495.581	-111.901	-0.533	-0.138
-494.566	-105.966	-0.447	0.129
-493.551	170.666	-0.265	-0.491
-492.537	-97.561	0.136	0.045
-491.522	-73.261	0.327	-0.154
-490.508	-166.144	0.430	0.023
-489.493	-95.365	0.147	0.051
-488.478	88.114	0.190	-0.273
-487.464	-38.263	0.117	0.080
-486.449	-41.025	0.368	-0.245
-485.435	-150.135	0.214	0.021
-484.420	-170.677	-0.236	0.010
-483.405	800.000	-0.086	-0.343
-482.391	67.138	0.337	-0.444
-481.376	-41.558	-0.396	0.262
-480.362	800.000	0.066	0.332
-479.347	246.530	0.065	-0.142
-478.332	462.174	-0.111	0.321
-477.318	-109.079	0.088	0.024
-476.303	-64.678	0.109	-0.057
-475.289	417.237	-0.249	0.688
-474.274	-151.080	-0.335	0.032
-473.259	36.447	-0.169	-0.193
-472.245	-135.849	0.412	0.062
-471.230	800.000	-0.080	0.314
-470.216	-161.119	-0.534	-0.035
-469.201	83.525	-0.122	-0.172
-468.186	-200.000	0.001	0.301
-467.172	-200.000	0.027	-0.156
-466.157	-200.000	-0.031	-0.226
-465.143	-93.461	-0.257	-0.091
-464.128	-85.102	-0.029	-0.012
-463.113	-4.995	-0.040	0.035
-462.099	-140.100	0.404	-0.054
-461.084	-82.337	-0.317	-0.132
-460.070	-200.000	-0.051	-0.343
-459.055	-200.000	0.090	-0.639
-458.040	-65.235	0.217	0.112
-457.026	201.864	-0.219	0.436
-456.011	-200.000	0.002	0.064
-454.997	-115.530	0.272	-0.065
-453.982	-68.890	0.081	0.040
-452.968	-200.000	0.008	0.246
-451.953	-200.000	-0.061	-0.672
-450.938	73.589	-0.125	-0.169
-449.924	-49.570	0.129	0.079
-448.909	298.061	-0.083	-0.197
-447.895	-15.074	-0.263	0.216
-446.880	-96.496	-0.230	0.078
-445.865	11.406	0.088	0.087
-444.851	-123.824	0.013	0.003
-443.836	-200.000	0.007	0.123
-442.822	800.000	0.068	-0.263
-441.807	800.000	0.138	-0.520
-440.792	216.964	-0.259	-0.533
-439.778	98.577	0.043	0.064
-438.763	800.000	0.121	-0.577
-437.749	-17.750	-0.258	-0.208
-436.734	-117.811	0.875	-0.201
-435.719	-107.494	-0.451	0.126
-434.705	110.843	-0.076	0.117
-433.690	394.939	-0.193	0.521
-432.676	55.378	0.201	0.251
-431.661	16.847	-0.238	-0.242
-430.646	-200.000	-0.078	0.000
-429.632	19.876	-0.265	0.275
-428.617	37.100	-0.188	-0.215
-427.603	-108.140	-0.510	0.141
-426.588	-107.348	0.218	0.061
-425.573	100.221	-0.216	-0.324
-424.559	800.000	0.139	-0.500
-423.544	-161.361	-0.152	0.010
-422.530	-27.247	-0.277	-0.207
-421.515	82.711	0.208	-0.291
-420.500	287.681	-0.061	0.144
-419.486	-107.510	0.225	-0.063
-418.471	-20.250	-0.103	-0.081
-417.457	311.777	0.048	0.117
-416.442	-200.000	0.003	0.421
-415.428	108.127	0.122	-0.187
-414.413	216.905	0.036	0.075
-413.398	84.570	0.420	0.592
-412.384	-61.843	0.197	0.106
-411.369	84.789	-0.140	0.198
-410.355	124.472	-0.287	0.465
-409.340	-85.237	-0.146	0.058
-408.325	-132.512	-0.438	-0.072
-407.311	-59.969	-0.205	-0.112
-406.296	800.000	-0.058	0.288
-405.282	-151.110	-0.428	0.041
-404.267	-89.179	-0.384	-0.145
-403.252	-54.899	0.243	-0.140
-402.238	392.720	0.139	-0.374
-401.223	15.451	0.130	-0.131
-400.209	800.000	0.047	0.177
-399.194	-185.790	-0.776	0.015
-398.179	71.990	-0.152	0.203
-397.165	115.238	-0.161	0.254
-396.150	-157.707	0.206	-0.016
-395.136	-131.572	0.349	-0.059
-394.121	-35.752	0.242	0.168
-393.106	-200.000	-0.013	0.084
-392.092	93.934	0.350	0.511
-391.077	48.793	0.109	0.132
-390.063	-150.193	-0.200	-0.020
-389.048	-200.000	0.015	0.140
-388.033	202.393	0.227	0.453
-387.019	76.422	0.099	0.135
-386.004	-200.000	0.002	-0.262
-384.990	-34.993	-0.125	-0.088
-383.975	313.658	0.058	-0.142
-382.960	800.000	0.049	0.274
-381.946	-142.629	0.133	0.017
-380.931	101.420	0.343	0.514
-379.917	-79.021	0.135	0.059
-378.902	-50.900	0.369	-0.222
-377.888	800.000	-0.048	-0.178
-376.873	17.544	0.093	0.094
-375.858	-169.443	-0.365	-0.017
-374.844	577.707	-0.159	-0.502
-373.829	176.064	0.195	0.365
-372.815	-200.000	0.072	0.534
-371.800	-108.468	0.444	0.122
-370.785	-200.000	-0.523	0.001
-369.771	304.687	-0.142	-0.341
-368.756	-3.742	0.221	-0.197
-367.742	581.258	-0.071	-0.224
-366.727	-69.938	-0.863	0.421
-365.712	76.534	0.225	0.306
-364.698	-24.868	0.479	0.364
-363.683	-119.712	0.378	-0.083
-362.669	-73.020	0.053	0.025
-361.654	800.000	0.025	-0.126
-360.639	-180.848	-0.273	-0.007
-359.625	19.448	0.277	0.285
-358.610	-138.547	-0.167	0.023
-357.596	-85.931	-0.352	-0.139
-356.581	-136.294	-0.144	0.021
-355.566	-22.325	0.169	-0.131
-354.552	-200.000	0.043	0.389
-353.537	-91.356	0.236	0.086
-352.523	148.179	-0.106	0.184
-351.508	105.094	-0.157	-0.238
-350.493	-85.310	-0.246	-0.098
-349.479	-52.383	-0.050	0.030
-348.464	341.635	0.103	0.260
-347.450	-25.009	-0.198	-0.150
-346.435	122.164	0.176	0.283
-345.420	-200.000	-0.070	0.446
-344.406	-66.980	-0.080	0.040
-343.391	342.628	0.179	-0.450
-342.377	800.000	-0.047	0.212
-341.362	-83.505	-0.367	0.150
-340.348	-200.000	-0.009	0.317
-339.333	-32.021	0.228	-0.163
-338.318	84.453	-0.265	-0.372
-337.304	-50.031	0.110	-0.067
-336.289	-200.000	-0.026	0.317
-335.275	662.594	-0.082	0.272
-334.260	0.711	0.174	-0.160
-333.245	-126.329	0.357	-0.068
-332.231	416.656	-0.097	0.265
-331.216	-86.713	-0.509	-0.199
-330.202	-150.306	0.338	0.033
-329.187	-57.932	-0.064	-0.036
-328.172	225.127	0.144	-0.300
-327.158	-115.337	-0.319	0.077
-326.143	-67.036	-0.306	0.154
-325.129	-200.000	0.017	-0.140
-324.114	-65.845	0.246	-0.126
-323.099	-147.197	0.411	0.044
-322.085	400.287	-0.079	-0.213
-321.070	800.000	0.050	-0.226
-320.056	-39.525	0.329	0.221
-319.041	-62.960	-0.447	0.236
-318.026	800.000	-0.136	-0.745
-317.012	800.000	-0.051	0.217
-315.997	800.000	0.054	-0.215
-314.983	22.830	0.186	-0.195
-313.968	111.034	-0.272	-0.421
-312.953	-200.000	0.028	-0.374
-311.939	-200.000	0.012	-0.292
-310.924	-67.215	0.604	0.304
-309.910	-91.757	0.408	-0.148
-308.895	198.310	0.254	-0.499
-307.880	-160.068	0.434	-0.030
-306.866	111.813	-0.254	-0.394
-305.851	15.257	0.050	-0.050
-304.837	132.144	0.109	0.180
-303.822	-6.464	-0.374	0.327
-302.807	92.715	-0.040	0.057
-301.793	140.113	0.162	0.274
-300.778	-200.000	-0.013	-0.557
-299.764	-164.262	-0.336	-0.019
-298.749	-200.000	-0.019	-0.432
-297.735	129.096	-0.111	0.181
-296.720	-200.000	-0.006	0.632
-295.705	438.960	-0.242	-0.681
-294.691	-98.373	0.496	-0.162
-293.676	-200.000	-0.016	-0.371
-292.662	-63.589	0.381	0.200
-291.647	44.312	0.222	0.261
-290.632	-142.660	-0.097	-0.012
-289.618	115.050	0.135	0.211
-288.603	-105.261	-0.180	0.052
-287.589	-200.000	-0.102	0.779
-286.574	-80.827	-0.445	0.188
-285.559	28.609	0.382	-0.414
-284.545	-163.884	-0.289	0.017
-283.530	-12.368	-0.356	-0.298
-282.516	-200.000	-0.077	0.622
-281.501	-135.255	-0.228	-0.035
-280.486	-129.966	0.101	-0.018
-279.472	-105.458	0.518	-0.150
-278.457	73.112	-0.389	0.520
-277.443	-125.949	-0.115	-0.022
-276.428	-200.000	0.010	0.260
-275.413	-200.000	-0.012	0.130
-274.399	1.429	0.204	0.187
-273.384	-127.176	0.519	-0.096
-272.370	51.769	0.343	0.418
-271.355	-52.085	0.392	-0.232
-270.340	-200.000	-0.019	-0.208
-269.326	-11.294	0.249	-0.210
-268.311	27.386	0.228	-0.246
-267.297	556.778	0.015	-0.048
-266.282	-87.670	0.192	-0.074
-265.267	-63.854	0.389	-0.203
-264.253	-151.244	0.348	0.033
-263.238	-132.363	-0.117	-0.019
-262.224	328.915	0.095	-0.235
-261.209	-194.920	0.227	-0.002
-260.195	-14.005	-0.187	0.155
-259.180	-43.938	0.264	0.169
-258.165	-200.000	-0.043	0.562
-257.151	182.691	-0.065	-0.123
-256.136	-200.000	-0.043	-0.585
-255.122	-200.000	-0.109	-0.766
-254.107	-78.693	-0.444	0.193
-253.092	113.684	-0.188	-0.293
-252.078	59.332	0.504	-0.636
-251.063	38.195	0.192	-0.219
-250.049	-194.573	0.044	-0.000
-249.034	65.944	0.189	0.245
-248.019	64.346	-0.095	-0.123
-247.005	-49.114	0.392	-0.239
-245.990	-66.500	-0.344	0.174
-244.976	800.000	0.092	-0.351
-243.961	697.946	-0.150	0.506
-242.946	-141.271	-0.521	0.067
-241.932	-112.247	-0.218	0.056
-240.917	-113.377	-0.378	-0.094
-239.903	-42.225	-0.389	-0.253
-238.888	411.584	0.128	0.349
-237.873	-41.015	-0.320	-0.210
-236.859	69.798	0.304	-0.401
-235.844	138.925	0.061	-0.103
-234.830	800.000	0.020	-0.099
-233.815	192.002	0.199	0.384
-232.800	-41.492	0.129	-0.085
-231.786	-115.940	0.337	0.080
-230.771	-200.000	0.001	-0.238
-229.757	-155.811	0.198	-0.016
-228.742	-17.891	-0.432	-0.345
-227.727	-71.637	0.289	-0.137
-226.713	-38.943	0.279	-0.187
-225.698	223.744	0.203	-0.420
-224.684	-96.932	0.480	0.160
-223.669	-74.798	0.258	0.118
-222.655	588.631	0.206	0.652
-221.640	-200.000	-0.041	0.526
-220.625	-59.961	0.310	-0.168
-219.611	52.488	0.070	0.085
-218.596	-197.823	0.225	-0.002
-217.582	85.272	-0.243	0.341
-216.567	-200.000	-0.002	-0.110
-215.552	-153.063	0.473	-0.042
-214.538	-200.000	0.005	-0.384
-213.523	-135.447	0.522	-0.079
-212.509	21.231	0.178	-0.184
-211.494	-200.000	0.037	-0.650
-210.479	628.961	-0.149	-0.483
-209.465	-136.765	0.361	-0.052
-208.450	-200.000	-0.014	-0.095
-207.436	-45.329	-0.375	0.237
-206.421	-200.000	0.095	0.587
-205.406	115.553	-0.262	-0.410
-204.392	56.029	-0.201	0.249
-203.377	-89.392	-0.282	-0.106
-202.363	-200.000	0.028	-0.334
-201.348	-4.452	0.225	-0.198
-200.333	-181.661	-0.377	-0.009
-199.319	-60.151	0.086	-0.047
-198.304	27.445	0.200	-0.214
-197.290	-200.000	-0.025	0.255
-196.275	-22.580	0.280	-0.216
-195.260	249.390	-0.126	-0.273
-194.246	-200.000	0.039	-0.278
-193.231	-3.528	0.252	-0.223
-192.217	-141.120	-0.240	0.031
-191.202	-200.000	-0.023	0.200
-190.187	373.745	0.260	-0.678
-189.173	-24.730	0.187	0.142
-188.158	782.142	0.074	-0.260
-187.144	-35.542	0.450	-0.311
-186.129	-95.343	0.255	0.087
-185.114	-190.576	0.082	-0.001
-184.100	19.047	-0.168	0.172
-183.085	88.416	0.326	0.463
-182.071	-36.233	-0.450	0.309
-181.056	-33.253	0.240	-0.169
-180.042	-150.670	-0.410	0.039
-179.027	-94.091	0.508	-0.177
-178.012	-57.615	0.246	-0.137
-176.998	723.414	-0.152	0.517
-175.983	-112.839	0.234	-0.059
-174.969	-75.193	0.356	0.161
-173.954	-66.247	0.261	-0.132
-172.939	-200.000	0.005	0.712
-171.925	-101.319	-0.535	0.165
-170.910	800.000	0.085	0.355
-169.896	-200.000	-0.043	0.649
-168.881	89.998	-0.055	0.079
-167.866	-40.448	0.259	-0.171
-166.852	-31.997	0.076	0.054
-165.837	800.000	0.083	0.451
-164.823	93.648	0.150	-0.216
-163.808	203.499	0.067	0.133
-162.793	-160.020	-0.265	0.018
-161.779	-134.161	-0.155	0.024
-160.764	-30.314	0.111	0.080
-159.750	212.577	0.178	-0.358
-158.735	254.877	0.063	-0.138
-157.720	-200.000	-0.042	0.402
-156.706	-111.320	-0.150	0.039
-155.691	-125.139	0.250	-0.048
-154.677	144.005	0.332	0.566
-153.662	-97.129	-0.133	0.044
-152.647	-75.122	0.047	-0.022
-151.633	-113.015	-0.458	0.114
-150.618	260.513	-0.116	0.256
-149.604	11.605	-0.408	-0.398
-148.589	-124.165	-0.245	0.048
-147.574	377.310	0.004	-0.011
-146.560	-32.574	-0.330	0.233
-145.545	-93.793	0.317	-0.111
-144.531	-94.661	-0.211	-0.073
-143.516	-45.457	0.232	0.146
-142.502	-56.147	-0.204	0.115
-141.487	-129.695	0.152	-0.026
-140.472	2.637	-0.125	0.116
-139.458	437.100	-0.047	0.132
-138.443	-84.808	-0.291	0.116
-137.429	113.543	0.135	0.209
-136.414	47.155	0.160	0.190
-135.399	-87.146	0.445	-0.171
-134.385	-72.395	-0.164	0.077
-133.370	-30.329	-0.129	-0.093
-132.356	34.805	0.143	0.159
-131.341	132.144	-0.171	-0.281
-130.326	83.532	-0.193	0.267
-129.312	-46.093	-0.028	-0.018
-128.297	-196.364	0.395	0.003
-127.283	-85.555	-0.134	0.053
-126.268	-167.162	-0.202	0.010
-125.253	-29.895	-0.369	0.267
-124.239	-69.350	-0.336	-0.163
-123.224	180.879	-0.123	0.231
-122.210	615.341	-0.108	0.345
