DTS Sentinel unit serial number:	SN409020Multiplexer serial number:	ORYXHardware model number:	OX4-SRSoftware version number:	ORYX F/W v3.00 Oryx Data Collector v3.7.2.0data status	okinstallation	HaddamTimeLapsedifferential loss correction	single-endedforward channel	channel 3reverse channel	N/Adate	2011/06/22time	10:41:00forward acquisition time	30.00reverse acquisition time	0.00gamma	498.7831k internal	0.1797k external	0.1797temperature offset calibration	1.0074default loss term (dB/km)	0.3790temperature slope calibration	1.3530multiplexer offset coefficient	1.0000multiplexer slope coefficient	1.0000fibre end	0.00T internal ref (°C)	30.31T ext. ref 1 (°C)	25.70T ext. ref 2 (°C)	-0.05length (m)	temperature (°C)	Stokes	anti-Stokes-747.200	-179.590	-0.279	-0.008
-746.185	800.000	-0.027	-0.098
-745.171	-28.552	0.283	-0.210
-744.156	218.213	0.182	0.378
-743.142	119.302	0.342	0.548
-742.127	-200.000	0.015	0.684
-741.112	-165.752	-0.452	-0.025
-740.098	616.693	-0.117	0.383
-739.083	-200.000	0.019	0.288
-738.069	-179.173	0.259	0.007
-737.054	-136.491	-0.576	-0.086
-736.039	-102.780	-0.041	0.012
-735.025	528.701	0.128	0.392
-734.010	800.000	0.118	0.468
-732.996	692.427	-0.072	0.246
-731.981	159.463	0.180	-0.326
-730.966	-81.731	-0.259	0.109
-729.952	-200.000	-0.017	0.135
-728.937	-99.062	0.115	-0.038
-727.923	-35.386	-0.147	-0.103
-726.908	-92.911	-0.636	-0.228
-725.894	-111.954	0.091	0.024
-724.879	-15.039	0.194	0.161
-723.864	-57.259	-0.323	-0.183
-722.850	-200.000	0.015	0.175
-721.835	294.861	-0.062	-0.146
-720.821	112.339	-0.245	-0.384
-719.806	-131.476	-0.437	0.074
-718.791	-154.621	0.201	-0.017
-717.777	-5.917	-0.336	-0.297
-716.762	106.491	-0.079	-0.122
-715.748	-200.000	0.035	-0.324
-714.733	21.042	-0.268	0.281
-713.718	175.696	-0.203	-0.382
-712.704	-76.324	0.292	0.132
-711.689	516.144	-0.079	-0.238
-710.675	-200.000	-0.033	0.195
-709.660	48.165	-0.266	-0.322
-708.645	63.017	-0.272	-0.353
-707.631	-123.270	0.104	0.021
-706.616	-200.000	-0.002	0.423
-705.602	177.923	0.256	0.483
-704.587	-171.447	-0.194	-0.008
-703.572	271.067	-0.131	-0.299
-702.558	-92.233	-0.034	0.012
-701.543	-180.601	0.351	-0.009
-700.529	-15.982	-0.249	-0.204
-699.514	-200.000	-0.023	0.301
-698.499	-77.200	0.689	0.309
-697.485	178.561	-0.223	-0.422
-696.470	-14.882	-0.447	0.370
-695.456	-156.014	0.215	-0.017
-694.441	170.612	-0.143	0.265
-693.426	310.408	0.144	0.350
-692.412	90.510	0.105	0.152
-691.397	-113.152	0.213	-0.054
-690.383	-200.000	0.002	0.121
-689.368	185.587	0.073	0.141
-688.354	83.747	-0.214	-0.301
-687.339	349.183	-0.122	-0.312
-686.324	791.653	0.199	-0.711
-685.310	-200.000	0.039	-0.325
-684.295	635.685	-0.076	0.249
-683.281	-67.466	-0.244	-0.123
-682.266	-66.011	-0.024	0.012
-681.251	85.909	-0.165	0.235
-680.237	-91.918	0.391	-0.142
-679.222	546.283	-0.048	-0.149
-678.208	-114.104	0.285	0.071
-677.193	-72.366	0.316	0.150
-676.178	-111.267	-0.559	-0.146
-675.164	253.097	-0.075	0.166
-674.149	326.533	-0.168	-0.418
-673.135	795.590	0.057	-0.202
-672.120	96.641	-0.086	-0.127
-671.105	-140.105	0.518	0.070
-670.091	-105.997	-0.058	-0.017
-669.076	-10.589	0.163	0.139
-668.062	-182.405	-0.565	0.013
-667.047	-104.215	-0.171	0.051
-666.032	-90.520	0.209	-0.078
-665.018	-200.000	-0.035	-0.573
-664.003	357.390	0.239	-0.618
-662.989	-86.247	-0.085	-0.034
-661.974	-104.331	0.191	-0.057
-660.959	800.000	0.066	-0.365
-659.945	47.470	0.117	0.141
-658.930	-180.637	0.073	0.002
-657.916	800.000	0.010	0.046
-656.901	-105.536	-0.094	0.027
-655.886	-200.000	0.012	0.122
-654.872	-131.742	-0.487	-0.082
-653.857	15.308	0.033	-0.034
-652.843	-92.913	0.089	-0.032
-651.828	-50.996	-0.403	0.243
-650.814	-190.177	-0.596	-0.008
-649.799	-92.949	-0.101	0.036
-648.784	-113.319	-0.122	-0.031
-647.770	800.000	0.114	0.629
-646.755	20.065	-0.115	0.120
-645.741	-114.256	-0.286	-0.071
-644.726	82.528	-0.135	-0.189
-643.711	19.039	0.065	-0.068
-642.697	-200.000	0.016	0.120
-641.682	-200.000	0.004	-0.334
-640.668	-200.000	0.073	-0.507
-639.653	-147.038	-0.126	0.014
-638.638	-117.040	-0.197	0.046
-637.624	-87.927	-0.313	0.121
-636.609	-72.898	-0.414	0.195
-635.595	-123.746	0.397	0.080
-634.580	205.654	-0.053	0.107
-633.565	-162.566	-0.255	-0.016
-632.551	800.000	-0.055	0.286
-631.536	70.008	0.086	-0.115
-630.522	800.000	-0.095	0.343
-629.507	86.334	-0.236	-0.336
-628.492	182.565	-0.193	0.369
-627.478	-69.985	-0.103	0.050
-626.463	209.208	0.198	-0.401
-625.449	-86.549	-0.288	-0.113
-624.434	-54.075	-0.368	0.215
-623.419	-27.463	-0.090	0.067
-622.405	-155.529	0.260	0.021
-621.390	530.703	0.096	-0.294
-620.376	-200.000	0.032	0.512
-619.361	63.426	-0.056	0.073
-618.346	-173.731	0.216	0.008
-617.332	231.438	0.217	-0.459
-616.317	207.487	0.104	0.211
-615.303	20.249	-0.199	0.207
-614.288	153.365	-0.218	-0.385
-613.273	463.473	-0.207	-0.600
-612.259	-118.638	0.348	0.078
-611.244	-89.177	0.251	-0.095
-610.230	-14.123	0.197	-0.163
-609.215	-119.633	0.164	-0.036
-608.201	-77.925	0.355	-0.157
-607.186	-109.792	0.286	-0.077
-606.171	563.996	0.008	-0.026
-605.157	161.637	-0.093	-0.167
-604.142	-56.428	0.305	0.174
-603.128	-21.137	0.239	0.188
-602.113	32.261	0.103	0.114
-601.098	268.626	0.061	-0.139
-600.084	43.990	0.142	-0.168
-599.069	58.990	-0.380	0.481
-598.055	112.162	0.163	-0.254
-597.040	-26.984	0.316	0.237
-596.025	532.176	0.065	0.198
-595.011	-200.000	-0.020	-0.641
-593.996	-68.186	-0.183	0.091
-592.982	16.984	-0.117	-0.119
-591.967	24.835	0.240	0.256
-590.952	-36.669	0.127	0.088
-589.938	189.277	-0.207	0.400
-588.923	37.569	-0.175	0.200
-587.909	-75.010	-0.163	-0.075
-586.894	-139.961	-0.097	0.013
-585.879	355.721	-0.133	-0.342
-584.865	280.204	-0.050	-0.116
-583.850	-29.119	0.176	0.130
-582.836	-200.000	0.023	0.202
-581.821	5.847	-0.095	-0.090
-580.806	-147.815	0.483	0.051
-579.792	-55.210	0.150	-0.086
-578.777	139.025	0.201	-0.341
-577.763	-200.000	-0.050	0.000
-576.748	-200.000	-0.092	-0.523
-575.733	-79.298	0.151	0.066
-574.719	428.394	0.198	0.551
-573.704	-181.579	0.333	0.008
-572.690	-46.445	0.330	0.208
-571.675	800.000	0.098	-0.353
-570.661	122.264	0.308	-0.496
-569.646	-200.000	-0.066	0.687
-568.631	-200.000	-0.006	0.098
-567.617	5.485	-0.083	-0.079
-566.602	-142.212	0.281	-0.035
-565.588	-200.000	0.079	-0.449
-564.573	-200.000	0.022	0.226
-563.558	-50.561	0.316	0.191
-562.544	-48.300	0.286	-0.177
-561.529	670.135	0.132	0.441
-560.515	103.064	-0.093	0.140
-559.500	122.081	-0.124	0.200
-558.485	-113.923	-0.556	0.138
-557.471	-89.959	0.059	-0.022
-556.456	-123.997	0.408	0.082
-555.442	-189.408	0.353	0.005
-554.427	-126.887	-0.255	0.048
-553.412	-108.555	0.122	-0.034
-552.398	-41.992	0.334	0.219
-551.383	-57.692	-0.173	-0.097
-550.369	-87.429	0.351	-0.136
-549.354	-130.948	0.463	0.079
-548.339	631.263	-0.137	-0.447
-547.325	-122.357	-0.563	-0.117
-546.310	-200.000	-0.049	-0.855
-545.296	341.016	0.112	-0.281
-544.281	-82.472	-0.127	0.053
-543.266	520.468	0.203	-0.615
-542.252	30.526	-0.280	-0.307
-541.237	-66.623	0.468	-0.237
-540.223	27.554	-0.317	-0.343
-539.208	125.324	-0.272	0.441
-538.193	-112.466	-0.354	-0.090
-537.179	233.639	-0.106	-0.224
-536.164	167.305	-0.245	0.448
-535.150	144.851	-0.145	-0.249
-534.135	126.839	0.336	-0.547
-533.121	-200.000	-0.146	-0.000
-532.106	-100.265	-0.351	-0.111
-531.091	-73.437	-0.294	-0.137
-530.077	-136.252	0.432	-0.064
-529.062	93.065	-0.409	-0.594
-528.048	19.714	0.243	-0.251
-527.033	642.124	-0.077	-0.252
-526.018	-89.937	-0.310	0.116
-525.004	362.695	-0.084	0.217
-523.989	-200.000	0.038	0.258
-522.975	-16.082	-0.112	-0.091
-521.960	800.000	0.028	-0.111
-520.945	-10.315	0.567	-0.482
-519.931	-118.865	0.478	-0.107
-518.916	7.687	-0.545	0.523
-517.902	-127.907	-0.373	0.068
-516.887	-102.647	-0.213	-0.065
-515.872	-23.988	0.185	-0.142
-514.858	286.233	0.115	-0.266
-513.843	-200.000	0.015	0.084
-512.829	153.337	0.119	-0.209
-511.814	482.030	-0.032	0.094
-510.799	42.526	-0.353	0.413
-509.785	237.343	0.062	-0.131
-508.770	134.593	-0.190	-0.316
-507.756	-87.462	0.461	-0.178
-506.741	246.123	0.265	-0.575
-505.726	-56.049	0.261	-0.149
-504.712	-151.314	-0.175	-0.017
-503.697	-115.967	-0.166	0.039
-502.683	-60.271	-0.408	-0.222
-501.668	16.554	0.068	-0.069
-500.653	-0.162	-0.188	-0.171
-499.639	59.010	-0.436	0.551
-498.624	-92.338	-0.487	0.175
-497.610	-59.563	-0.490	0.269
-496.595	109.492	-0.099	0.152
-495.581	-200.000	0.022	-0.488
-494.566	-70.425	0.268	0.130
-493.551	80.236	0.075	-0.103
-492.537	352.893	-0.162	-0.414
-491.522	360.229	-0.192	-0.495
-490.508	-84.753	0.500	-0.200
-489.493	46.194	0.181	-0.215
-488.478	213.591	0.190	0.387
-487.464	-200.000	-0.006	-0.297
-486.449	267.733	-0.098	0.220
-485.435	-37.849	-0.382	0.260
-484.420	513.778	0.084	0.253
-483.405	-113.115	-0.382	0.096
-482.391	-57.213	-0.302	0.170
-481.376	173.794	-0.119	0.222
-480.362	70.019	-0.368	0.487
-479.347	24.879	-0.208	0.221
-478.332	800.000	0.212	0.830
-477.318	188.074	-0.041	-0.079
-476.303	-54.650	-0.147	0.085
-475.289	234.515	0.048	-0.102
-474.274	-77.389	-0.267	0.118
-473.259	-197.363	-0.214	0.002
-472.245	7.088	0.205	-0.195
-471.230	-65.414	-0.664	0.341
-470.216	0.899	-0.516	0.473
-469.201	660.576	0.145	0.479
-468.186	54.787	-0.154	0.190
-467.172	-107.803	0.039	-0.011
-466.157	-200.000	0.007	-0.310
-465.143	-120.878	0.080	-0.017
-464.128	-162.667	0.363	0.022
-463.113	258.572	0.304	0.674
-462.099	-80.602	-0.429	0.182
-461.084	-77.349	-0.066	0.029
-460.070	-75.164	0.130	-0.059
-459.055	55.120	0.190	0.235
-458.040	-77.132	0.213	-0.095
-457.026	800.000	0.090	-0.437
-456.011	13.950	0.300	-0.299
-454.997	-200.000	0.056	0.537
-453.982	46.810	0.053	-0.063
-452.968	218.562	0.133	-0.273
-451.953	749.647	0.160	-0.555
-450.938	-64.048	0.168	0.088
-449.924	-152.691	0.155	-0.014
-448.909	-88.460	0.052	0.020
-447.895	401.094	0.054	0.146
-446.880	-59.163	0.243	-0.134
-445.865	800.000	-0.053	-0.276
-444.851	-200.000	-0.003	0.057
-443.836	193.515	-0.195	-0.379
-442.822	36.681	-0.309	0.349
-441.807	9.528	-0.166	-0.161
-440.792	566.482	0.165	-0.514
-439.778	-172.639	0.460	0.018
-438.763	-200.000	-0.032	0.302
-437.749	264.835	-0.146	-0.326
-436.734	435.015	0.127	-0.355
-435.719	22.020	0.278	0.290
-434.705	-38.210	0.222	-0.150
-433.690	130.331	0.239	-0.392
-432.676	33.172	0.114	-0.126
-431.661	-14.417	0.270	0.222
-430.646	-200.000	-0.075	0.444
-429.632	86.149	-0.215	0.303
-428.617	80.851	0.121	0.168
-427.603	-22.044	-0.536	0.415
-426.588	-13.099	-0.504	-0.418
-425.573	56.029	-0.050	0.063
-424.559	36.679	-0.356	0.402
-423.544	372.249	-0.104	0.270
-422.530	-130.605	0.323	-0.055
-421.515	-40.207	-0.107	0.071
-420.500	237.560	-0.237	-0.504
-419.486	267.605	0.141	-0.315
-418.471	184.923	-0.217	-0.413
-417.457	0.187	-0.096	-0.088
-416.442	-200.000	-0.008	-0.342
-415.428	31.823	0.323	-0.355
-414.413	361.511	-0.187	0.481
-413.398	793.425	-0.031	0.109
-412.384	800.000	0.095	-0.418
-411.369	337.524	0.145	0.362
-410.355	87.904	-0.203	0.288
-409.340	66.552	-0.202	0.262
-408.325	-90.910	0.552	0.202
-407.311	800.000	0.051	0.209
-406.296	25.916	0.098	0.105
-405.282	382.218	0.219	0.577
-404.267	-200.000	0.007	0.274
-403.252	141.481	0.314	0.533
-402.238	19.162	-0.523	-0.536
-401.223	-124.590	-0.172	-0.034
-400.209	-200.000	0.011	-0.241
-399.194	-55.972	-0.095	-0.054
-398.179	21.978	-0.202	-0.211
-397.165	-141.636	-0.080	0.010
-396.150	-62.125	0.265	-0.141
-395.136	159.344	-0.127	-0.226
-394.121	-51.290	0.368	0.219
-393.106	-121.581	0.404	-0.085
-392.092	-70.177	0.285	0.138
-391.077	-102.633	0.300	0.091
-390.063	800.000	0.131	-0.492
-389.048	-47.731	-0.416	0.257
-388.033	210.012	0.070	-0.140
-387.019	36.267	-0.171	-0.192
-386.004	240.763	-0.050	0.106
-384.990	173.027	-0.159	-0.294
-383.975	-200.000	0.015	0.244
-382.960	523.122	-0.085	-0.257
-381.946	-139.406	0.336	-0.045
-380.931	800.000	-0.061	0.297
-379.917	-1.847	0.358	0.321
-378.902	61.555	-0.244	-0.309
-377.888	-108.181	-0.603	-0.165
-376.873	-29.513	0.155	0.113
-375.858	587.391	0.049	0.154
-374.844	-29.109	0.516	-0.376
-373.829	226.277	-0.262	0.544
-372.815	-166.510	0.410	-0.021
-371.800	-186.058	0.276	-0.005
-370.785	274.081	-0.035	-0.080
-369.771	524.129	-0.054	0.164
-368.756	-200.000	0.014	-0.235
-367.742	-159.417	-0.188	0.013
-366.727	796.160	0.099	0.349
-365.712	104.996	-0.322	-0.485
-364.698	800.000	-0.084	-0.418
-363.683	-69.392	0.270	-0.132
-362.669	-6.365	-0.057	-0.049
-361.654	45.472	0.252	0.297
-360.639	-11.175	0.297	-0.249
-359.625	134.253	-0.257	0.425
-358.610	75.903	0.457	0.617
-357.596	-178.115	-0.051	0.002
-356.581	-68.156	-0.476	-0.235
-355.566	-69.141	-0.324	0.158
-354.552	-200.000	-0.009	-0.052
-353.537	-53.875	0.361	-0.209
-352.523	429.087	-0.104	-0.287
-351.508	56.006	-0.260	-0.321
-350.493	-98.414	0.332	-0.108
-349.479	-200.000	-0.030	0.237
-348.464	-171.322	-0.253	0.011
-347.450	-0.898	-0.141	0.127
-346.435	537.614	-0.111	0.337
-345.420	7.607	0.367	0.350
-344.406	-27.791	0.110	-0.081
-343.391	-200.000	0.027	-0.216
-342.377	-3.314	0.544	-0.482
-341.362	-73.140	0.616	0.287
-340.348	1.681	-0.208	-0.191
-339.333	-150.806	-0.209	0.020
-338.318	222.016	0.130	0.268
-337.304	8.140	0.217	0.207
-336.289	667.109	0.099	0.329
-335.275	-168.012	-0.159	0.008
-334.260	800.000	0.045	-0.165
-333.245	-90.212	-0.206	0.076
-332.231	477.834	-0.111	0.321
-331.216	-50.270	0.230	0.138
-330.202	-200.000	0.017	0.306
-329.187	-159.589	-0.291	0.020
-328.172	-200.000	-0.015	-0.099
-327.158	503.145	-0.090	0.265
-326.143	-130.886	-0.227	-0.038
-325.129	-200.000	0.004	-0.272
-324.114	-80.529	-0.368	0.156
-323.099	-37.400	0.395	0.268
-322.085	649.475	-0.134	-0.440
-321.070	-4.076	-0.324	-0.285
-320.056	-172.592	-0.453	-0.018
-319.041	34.821	-0.211	0.235
-318.026	-77.067	0.155	0.068
-317.012	-110.048	0.246	-0.065
-315.997	-120.044	-0.032	-0.007
-314.983	-53.452	0.444	0.258
-313.968	800.000	0.043	0.160
-312.953	-75.972	-0.152	-0.068
-311.939	-79.390	0.226	-0.097
-310.924	155.205	-0.140	0.246
-309.910	-83.881	-0.359	-0.145
-308.895	-138.375	-0.088	-0.012
-307.880	-101.159	-0.675	-0.209
-306.866	-97.725	-0.534	0.175
-305.851	-200.000	-0.002	0.117
-304.837	-82.970	-0.255	0.104
-303.822	-137.916	0.332	0.047
-302.807	-120.034	0.266	-0.057
-301.793	88.237	0.181	0.256
-300.778	-144.979	0.036	0.004
-299.764	-200.000	0.037	0.303
-298.749	-200.000	0.051	0.485
-297.735	144.232	-0.226	0.384
-296.720	-200.000	0.037	0.317
-295.705	43.013	0.199	0.231
-294.691	-32.942	-0.290	-0.204
-293.676	800.000	-0.025	-0.128
-292.662	352.122	0.054	-0.136
-291.647	-87.106	0.235	-0.090
-290.632	-82.601	0.092	0.038
-289.618	-90.171	0.475	0.175
-288.603	-124.354	0.084	-0.017
-287.589	-22.312	-0.101	-0.077
-286.574	-200.000	-0.017	-0.639
-285.559	-148.978	0.535	-0.054
-284.545	-127.465	-0.400	0.073
-283.530	582.964	0.074	-0.234
-282.516	-78.330	-0.401	0.174
-281.501	45.423	-0.119	0.140
-280.486	-1.309	0.210	-0.188
-279.472	155.158	-0.191	-0.335
-278.457	275.220	0.173	0.391
-277.443	-200.000	0.006	-0.265
-276.428	65.242	-0.276	-0.355
-275.413	228.504	0.253	0.526
-274.399	-200.000	0.054	-0.344
-273.384	26.528	0.208	0.221
-272.370	101.090	0.215	0.318
-271.355	-200.000	-0.015	-0.219
-270.340	-61.747	0.288	-0.152
-269.326	-33.749	-0.387	0.270
-268.311	800.000	0.077	0.280
-267.297	-10.888	0.187	-0.157
-266.282	103.064	-0.071	0.105
-265.267	7.537	0.246	0.234
-264.253	-38.220	0.586	0.394
-263.238	-67.687	0.474	0.235
-262.224	-57.755	-0.323	-0.179
-261.209	800.000	0.039	0.198
-260.195	13.101	0.239	0.235
-259.180	-151.619	-0.323	-0.030
-258.165	800.000	-0.062	0.278
-257.151	-106.590	-0.398	-0.112
-256.136	-82.266	-0.419	-0.172
-255.122	-134.658	0.229	-0.035
-254.107	-200.000	0.025	0.439
-253.092	-143.739	0.371	-0.044
-252.078	140.483	-0.169	0.284
-251.063	466.042	-0.131	-0.374
-250.049	27.200	-0.189	0.202
-249.034	-200.000	0.011	-0.292
-248.019	45.122	0.246	-0.288
-247.005	34.128	0.270	0.299
-245.990	-134.488	-0.032	0.005
-244.976	170.885	-0.189	0.344
-243.961	800.000	-0.146	0.588
-242.946	-192.822	0.285	0.003
-241.932	-67.331	0.516	0.256
-240.917	800.000	0.029	-0.105
-239.903	13.240	-0.545	-0.535
-238.888	-71.489	0.329	-0.156
-237.873	167.053	0.124	-0.224
-236.859	367.756	0.077	0.199
-235.844	-71.872	0.059	0.028
-234.830	-90.790	-0.489	-0.178
-233.815	34.897	-0.173	0.192
-232.800	-69.063	0.174	0.085
-231.786	-39.252	-0.108	0.072
-230.771	-8.275	-0.063	0.054
-229.757	-33.270	-0.460	-0.323
-228.742	190.870	0.138	-0.264
-227.727	-84.779	0.125	0.050
-226.713	-158.640	-0.173	-0.012
-225.698	56.832	-0.130	-0.161
-224.684	144.466	0.328	0.556
-223.669	89.412	-0.186	-0.263
-222.655	-22.120	-0.447	0.344
-221.640	86.499	-0.197	-0.276
-220.625	-127.527	-0.342	-0.062
-219.611	-72.714	0.424	-0.197
-218.596	75.555	-0.091	-0.122
-217.582	-159.602	0.149	-0.010
-216.567	30.453	-0.319	0.345
-215.552	-91.555	0.112	-0.040
-214.538	-119.844	-0.360	0.078
-213.523	12.677	-0.163	-0.160
-212.509	-104.597	0.380	-0.110
-211.494	43.606	-0.156	0.181
-210.479	109.996	-0.156	-0.238
-209.465	-149.510	0.540	-0.053
-208.450	-200.000	-0.066	-0.371
-207.436	103.960	-0.183	-0.272
-206.421	20.559	0.115	-0.117
-205.406	293.888	-0.220	0.511
-204.392	-22.570	-0.646	-0.495
-203.377	548.530	0.011	0.034
-202.363	800.000	0.048	-0.173
-201.348	29.700	0.319	-0.345
-200.333	-132.671	0.199	0.032
-199.319	-200.000	-0.015	0.662
-198.304	241.343	-0.059	-0.125
-197.290	-152.225	0.313	0.028
-196.275	-85.986	0.434	-0.169
-195.260	166.970	0.284	0.512
-194.246	800.000	0.044	-0.206
-193.231	-88.024	-0.170	0.064
-192.217	303.338	-0.175	0.412
-191.202	-55.109	0.302	-0.172
-190.187	-182.554	0.496	0.011
-189.173	-74.214	0.397	0.181
-188.158	-49.702	-0.196	0.118
-187.144	-6.225	-0.463	-0.400
-186.129	30.392	-0.277	0.300
-185.114	76.808	-0.255	-0.343
-184.100	98.563	-0.103	0.151
-183.085	48.505	-0.286	0.339
-182.071	-200.000	-0.069	0.697
-181.056	273.028	0.294	-0.660
-180.042	-86.251	-0.471	-0.183
-179.027	-200.000	-0.011	0.190
-178.012	-54.891	-0.026	-0.015
-176.998	-60.320	0.234	0.126
-175.983	800.000	-0.019	-0.082
-174.969	-59.232	0.318	-0.173
-173.954	800.000	-0.063	0.321
-172.939	209.728	-0.154	0.306
-171.925	-101.856	0.454	0.138
-170.910	-118.031	-0.428	0.096
-169.896	36.879	-0.069	-0.077
-168.881	-77.824	0.058	-0.025
-167.866	-111.337	-0.151	-0.039
-166.852	117.733	-0.323	-0.504
-165.837	147.149	0.319	-0.545
-164.823	29.541	0.047	0.050
-163.808	52.986	0.166	-0.201
-162.793	-118.987	-0.406	-0.089
-161.779	-60.075	0.255	-0.137
-160.764	90.685	0.124	-0.176
-159.750	-123.054	-0.152	-0.031
-158.735	-200.000	-0.035	0.240
-157.720	-15.577	0.052	0.042
-156.706	-200.000	0.072	0.615
-155.691	-145.456	-0.119	-0.013
-154.677	-109.894	0.400	0.105
-153.662	24.858	-0.188	-0.197
-152.647	-29.325	0.598	-0.432
-151.633	207.826	-0.311	-0.616
-150.618	745.850	-0.108	-0.370
-149.604	-83.465	0.295	0.119
-148.589	-103.303	0.387	0.115
-147.574	-137.780	0.217	-0.030
-146.560	-85.843	-0.407	0.158
-145.545	-17.958	-0.040	-0.031
-144.531	-42.546	0.496	-0.319
-143.516	-137.156	-0.243	0.035
-142.502	-70.803	-0.236	0.112
-141.487	-156.312	0.176	0.014
-140.472	38.773	0.323	0.365
-139.458	-200.000	0.016	0.696
-138.443	551.352	-0.026	0.079
-137.429	75.439	-0.178	-0.238
-136.414	622.566	-0.104	0.332
-135.399	232.933	0.160	-0.334
-134.385	410.478	-0.047	-0.127
-133.370	-68.114	-0.464	-0.227
-132.356	-100.703	0.130	-0.040
-131.341	-31.004	0.320	-0.228
-130.326	-145.755	0.259	-0.029
-129.312	564.788	-0.063	0.195
-128.297	-117.840	0.125	0.028
-127.283	-80.581	0.462	-0.194
-126.268	10.965	-0.332	0.320
-125.253	8.224	-0.144	0.137
-124.239	412.125	-0.022	-0.061
-123.224	384.521	-0.017	0.046
-122.210	64.771	0.184	-0.235
-121.195	6.175	0.182	-0.170
