DTS Sentinel unit serial number:	SN409020Multiplexer serial number:	ORYXHardware model number:	OX4-SRSoftware version number:	ORYX F/W v3.00 Oryx Data Collector v3.7.2.0data status	okinstallation	HaddamTimeLapsedifferential loss correction	single-endedforward channel	channel 3reverse channel	N/Adate	2011/06/22time	04:41:17forward acquisition time	30.00reverse acquisition time	0.00gamma	498.7831k internal	0.1752k external	0.1752temperature offset calibration	1.0074default loss term (dB/km)	0.3790temperature slope calibration	1.3530multiplexer offset coefficient	1.0000multiplexer slope coefficient	1.0000fibre end	0.00T internal ref (°C)	22.72T ext. ref 1 (°C)	17.98T ext. ref 2 (°C)	0.14length (m)	temperature (°C)	Stokes	anti-Stokes-747.200	-70.718	-0.198	-0.099
-746.185	-92.125	-0.109	0.041
-745.171	-85.439	-0.457	0.188
-744.156	-147.033	-0.400	0.045
-743.142	667.782	0.220	-0.761
-742.127	70.731	-0.176	0.242
-741.112	-108.988	0.271	-0.076
-740.098	-200.000	0.003	0.356
-739.083	2.764	0.123	0.118
-738.069	449.518	-0.156	0.459
-737.054	800.000	0.068	-0.319
-736.039	-19.404	-0.426	-0.350
-735.025	236.065	0.269	0.591
-734.010	-145.933	-0.342	0.040
-732.996	-78.389	0.514	0.233
-731.981	-200.000	0.071	-0.434
-730.966	-200.000	0.038	0.281
-729.952	377.889	0.189	0.516
-728.937	-139.444	-0.152	0.021
-727.923	800.000	-0.108	0.617
-726.908	-200.000	0.010	-0.076
-725.894	-25.119	0.357	0.280
-724.879	92.930	0.328	0.492
-723.864	-38.072	0.596	-0.419
-722.850	68.778	-0.031	-0.042
-721.835	125.128	-0.335	-0.561
-720.821	48.515	-0.236	-0.293
-719.806	-189.327	-0.346	0.005
-718.791	28.880	-0.340	-0.382
-717.777	-66.622	0.361	0.189
-716.762	-200.000	0.019	-0.204
-715.748	305.594	0.164	-0.407
-714.733	580.712	-0.156	-0.508
-713.718	-94.964	-0.440	-0.157
-712.704	107.448	-0.164	0.260
-711.689	-200.000	0.057	-0.516
-710.675	800.000	-0.092	-0.347
-709.660	41.120	-0.351	-0.421
-708.645	263.543	0.117	0.271
-707.631	139.523	-0.470	0.821
-706.616	800.000	0.049	0.278
-705.602	-91.105	-0.448	0.169
-704.587	36.836	-0.124	-0.145
-703.572	-175.830	-0.473	-0.016
-702.558	-60.028	0.141	-0.079
-701.543	20.104	0.336	0.359
-700.529	-133.536	-0.519	0.085
-699.514	-169.725	0.336	0.016
-698.499	415.491	-0.179	0.509
-697.485	-200.000	-0.004	0.488
-696.470	-38.876	0.268	-0.187
-695.456	800.000	0.121	-0.555
-694.441	-122.504	-0.114	0.024
-693.426	243.942	-0.146	-0.327
-692.412	287.292	0.070	-0.168
-691.397	227.549	-0.222	0.479
-690.383	224.688	0.105	-0.225
-689.368	75.951	0.117	0.163
-688.354	582.711	-0.124	-0.404
-687.339	-200.000	-0.011	-0.109
-686.324	295.727	-0.091	0.222
-685.310	800.000	-0.054	-0.229
-684.295	121.568	-0.123	0.203
-683.281	-81.736	0.252	-0.109
-682.266	-84.832	0.159	0.066
-681.251	-200.000	0.008	0.231
-680.237	-42.677	0.223	-0.150
-679.222	-43.591	0.239	-0.159
-678.208	226.453	0.140	0.301
-677.193	-36.813	0.331	-0.235
-676.178	-51.343	-0.396	-0.245
-675.164	-159.873	-0.294	-0.021
-674.149	28.716	0.287	-0.321
-673.135	800.000	-0.091	-0.371
-672.120	-86.306	0.210	0.085
-671.105	800.000	0.069	-0.306
-670.091	11.225	0.049	0.049
-669.076	-133.422	-0.301	0.050
-668.062	-55.570	-0.732	-0.432
-667.047	-123.595	0.069	-0.014
-666.032	-200.000	0.039	0.485
-665.018	72.491	-0.229	-0.316
-664.003	-30.064	-0.438	-0.329
-662.989	239.422	0.076	-0.169
-661.974	-41.390	0.134	-0.091
-660.959	-124.190	0.272	0.056
-659.945	200.178	0.091	0.186
-658.930	165.166	0.122	-0.229
-657.916	-200.000	-0.014	-0.744
-656.901	800.000	0.030	-0.120
-655.886	-49.118	-0.516	-0.326
-654.872	-84.417	-0.390	-0.162
-653.857	78.949	-0.314	0.445
-652.843	15.301	-0.068	0.071
-651.828	-140.647	0.526	-0.071
-650.814	-41.117	0.221	-0.151
-649.799	700.200	0.039	-0.136
-648.784	-17.849	-0.267	-0.221
-647.770	8.485	0.187	0.186
-646.755	-111.611	0.085	0.023
-645.741	-200.000	0.046	-0.548
-644.726	35.500	-0.340	-0.395
-643.711	800.000	-0.040	0.173
-642.697	-13.950	0.154	-0.131
-641.682	-3.877	-0.157	-0.144
-640.668	329.350	0.140	0.358
-639.653	800.000	0.044	0.194
-638.638	84.454	0.034	-0.049
-637.624	10.682	-0.183	0.184
-636.609	-65.403	0.164	-0.087
-635.595	18.487	0.101	-0.107
-634.580	800.000	0.075	-0.281
-633.565	-74.478	-0.363	-0.172
-632.551	-10.427	-0.488	-0.427
-631.536	-49.829	-0.458	-0.286
-630.522	0.280	0.267	-0.251
-629.507	-94.398	-0.311	-0.112
-628.492	-170.645	0.278	-0.013
-627.478	104.471	-0.190	-0.296
-626.463	16.114	-0.314	-0.327
-625.449	70.258	0.201	-0.275
-624.434	-91.392	0.454	-0.171
-623.419	-136.034	-0.082	0.013
-622.405	-29.805	0.370	0.278
-621.390	-7.170	0.459	0.411
-620.376	-69.616	-0.274	0.138
-619.361	-200.000	0.010	-0.121
-618.346	-59.201	-0.385	-0.218
-617.332	-63.425	0.465	-0.251
-616.317	-200.000	0.008	-0.185
-615.303	800.000	0.119	0.521
-614.288	-200.000	-0.041	0.463
-613.273	-10.075	0.184	0.162
-612.259	-94.416	-0.162	0.058
-611.244	-200.000	0.072	0.677
-610.230	166.666	-0.128	0.240
-609.215	-27.568	-0.134	0.103
-608.201	-117.731	-0.535	0.126
-607.186	403.931	-0.047	0.132
-606.171	221.740	-0.118	-0.251
-605.157	-200.000	0.273	-0.001
-604.142	191.438	-0.196	0.392
-603.128	-118.687	0.314	-0.072
-602.113	800.000	0.076	0.316
-601.098	35.418	0.086	0.100
-600.084	-91.522	0.165	0.062
-599.069	-109.971	0.152	0.042
-598.055	-123.987	-0.094	0.019
-597.040	-32.486	-0.057	0.042
-596.025	-110.360	0.390	0.106
-595.011	55.804	-0.103	-0.132
-593.996	320.911	-0.132	0.333
-592.982	800.000	0.017	0.076
-591.967	335.806	0.171	0.439
-590.952	-200.000	-0.035	0.412
-589.938	762.438	-0.060	-0.216
-588.923	-23.249	-0.319	0.253
-587.909	-5.246	-0.173	0.156
-586.894	83.838	0.149	-0.215
-585.879	-31.816	-0.149	-0.110
-584.865	14.476	0.076	-0.078
-583.850	436.162	0.209	-0.603
-582.836	-26.988	0.254	-0.195
-581.821	800.000	0.087	0.429
-580.806	800.000	-0.088	0.325
-579.792	800.000	-0.087	0.500
-578.777	30.724	-0.166	-0.188
-577.763	110.215	0.089	-0.141
-576.748	-25.431	0.256	0.199
-575.733	-156.529	-1.064	-0.086
-574.719	-200.000	-0.029	-0.283
-573.704	26.935	0.241	0.267
-572.690	147.523	0.291	0.518
-571.675	44.339	-0.284	0.344
-570.661	532.047	0.038	-0.120
-569.646	-55.168	-0.363	-0.214
-568.631	-97.854	-0.242	-0.082
-567.617	-66.615	0.309	-0.161
-566.602	26.875	0.056	-0.061
-565.588	-8.714	-0.103	-0.091
-564.573	-79.533	-0.100	-0.044
-563.558	-200.000	0.004	0.436
-562.544	800.000	-0.058	-0.217
-561.529	166.401	0.107	-0.200
-560.515	70.768	-0.223	-0.304
-559.500	160.223	-0.132	-0.243
-558.485	-200.000	0.010	0.139
-557.471	800.000	-0.032	0.169
-556.456	-99.799	-0.315	-0.103
-555.442	124.011	-0.233	-0.387
-554.427	371.133	-0.167	0.448
-553.412	107.497	-0.015	0.024
-552.398	136.536	0.127	-0.220
-551.383	183.662	-0.158	-0.309
-550.369	-115.827	0.214	-0.052
-549.354	-128.058	-0.442	-0.083
-548.339	-0.664	-0.189	-0.177
-547.325	442.976	-0.058	0.168
-546.310	155.447	-0.067	-0.122
-545.296	112.170	-0.139	-0.222
-544.281	-113.636	-0.698	0.178
-543.266	-12.783	-0.179	0.154
-542.252	800.000	-0.101	0.563
-541.237	-81.766	0.546	0.235
-540.223	-138.468	0.205	-0.029
-539.208	-19.023	-0.226	0.185
-538.193	-37.040	0.201	-0.141
-537.179	-22.802	0.248	-0.197
-536.164	-29.401	0.115	-0.086
-535.150	-55.523	-0.427	0.251
-534.135	38.115	-0.147	-0.172
-533.121	-53.578	-0.235	-0.141
-532.106	434.511	0.243	-0.699
-531.091	-22.226	0.129	-0.102
-530.077	-24.580	0.181	-0.142
-529.062	-24.088	0.530	-0.416
-528.048	15.001	0.204	-0.210
-527.033	-200.000	-0.040	0.327
-526.018	-108.148	-0.070	-0.020
-525.004	703.247	-0.172	-0.599
-523.989	54.298	-0.301	-0.382
-522.975	-50.494	0.255	0.158
-521.960	-109.464	0.356	0.098
-520.945	-58.498	-0.117	-0.066
-519.931	507.430	0.063	-0.193
-518.916	800.000	-0.088	0.427
-517.902	-200.000	-0.026	0.375
-516.887	-136.710	0.401	0.060
-515.872	-74.555	-0.374	0.176
-514.858	-134.700	0.633	-0.100
-513.843	79.209	0.093	0.131
-512.829	-42.704	-0.204	0.136
-511.814	-174.965	0.629	0.023
-510.799	80.047	-0.134	-0.189
-509.785	-43.603	-0.253	0.167
-508.770	-113.946	-0.074	-0.019
-507.756	-107.405	-0.436	0.125
-506.741	365.330	-0.097	0.257
-505.726	800.000	0.133	-0.612
-504.712	-200.000	0.030	0.844
-503.697	114.957	0.254	0.408
-502.683	-72.704	0.540	0.260
-501.668	-147.245	-0.025	-0.003
-500.653	-165.635	0.153	0.009
-499.639	54.417	0.306	-0.388
-498.624	11.259	-0.153	0.154
-497.610	800.000	0.031	-0.140
-496.595	-74.821	0.514	-0.242
-495.581	800.000	-0.083	-0.428
-494.566	-132.495	-0.484	-0.081
-493.551	723.889	-0.092	-0.325
-492.537	-145.407	-0.494	0.058
-491.522	-38.513	0.239	0.166
-490.508	96.807	0.165	-0.249
-489.493	-127.472	-0.466	0.088
-488.478	-30.913	0.070	-0.052
-487.464	518.446	0.065	-0.200
-486.449	48.355	-0.074	-0.092
-485.435	64.306	-0.349	-0.463
-484.420	22.560	0.181	-0.195
-483.405	-21.387	0.148	-0.118
-482.391	51.628	-0.346	-0.433
-481.376	-2.487	-0.177	0.163
-480.362	-73.118	0.309	0.148
-479.347	171.364	-0.266	-0.503
-478.332	-118.734	0.418	0.096
-477.318	-58.854	0.490	-0.278
-476.303	64.498	-0.179	-0.237
-475.289	75.967	-0.193	0.268
-474.274	348.050	0.063	0.163
-473.259	800.000	0.045	-0.261
-472.245	-82.712	-0.709	0.300
-471.230	18.216	-0.192	0.201
-470.216	4.098	-0.492	-0.472
-469.201	-200.000	-0.053	-0.414
-468.186	110.117	0.446	-0.705
-467.172	-140.764	0.221	-0.030
-466.157	-130.980	0.159	-0.028
-465.143	-123.963	-0.702	0.144
-464.128	-121.455	-0.196	0.043
-463.113	-149.065	-0.776	0.081
-462.099	800.000	0.128	0.582
-461.084	-91.313	0.261	0.098
-460.070	-72.252	0.835	-0.405
-459.055	-97.161	0.479	-0.163
-458.040	329.588	-0.048	0.122
-457.026	-17.675	0.056	0.046
-456.011	-60.074	-0.482	-0.269
-454.997	-83.217	-0.171	-0.072
-453.982	-163.503	0.403	0.025
-452.968	-200.000	0.025	0.636
-451.953	-16.556	0.290	0.241
-450.938	224.365	-0.277	0.589
-449.924	32.905	-0.355	-0.404
-448.909	296.838	0.070	0.168
-447.895	63.394	0.108	-0.142
-446.880	-200.000	-0.043	0.428
-445.865	-132.772	-0.605	-0.100
-444.851	-117.207	0.257	-0.061
-443.836	800.000	0.074	0.285
-442.822	-69.366	-0.096	0.048
-441.807	-95.373	-0.463	-0.162
-440.792	-14.770	0.147	0.124
-439.778	45.172	0.297	-0.360
-438.763	-180.882	-0.429	-0.011
-437.749	-115.721	-0.114	-0.028
-436.734	-100.333	0.093	-0.030
-435.719	-200.000	0.024	0.250
-434.705	52.153	0.061	0.076
-433.690	245.054	0.137	0.303
-432.676	133.515	-0.159	-0.271
-431.661	800.000	-0.042	0.241
-430.646	800.000	0.020	0.112
-429.632	178.740	-0.221	0.424
-428.617	-173.774	0.073	-0.003
-427.603	34.402	0.175	-0.200
-426.588	522.961	0.105	0.327
-425.573	-14.810	0.283	0.238
-424.559	4.016	0.327	0.313
-423.544	-96.845	-0.094	-0.032
-422.530	-200.000	-0.056	-0.493
-421.515	800.000	0.071	-0.313
-420.500	-50.663	-0.463	-0.285
-419.486	694.828	0.039	0.136
-418.471	-200.000	-0.039	0.369
-417.457	-135.326	0.270	0.042
-416.442	225.734	-0.328	0.700
-415.428	-10.858	-0.283	0.245
-414.413	-39.611	-0.367	0.251
-413.398	-200.000	-0.060	-0.370
-412.384	-37.727	-0.079	0.055
-411.369	-64.394	-0.087	0.046
-410.355	-83.490	0.541	-0.226
-409.340	107.592	0.039	0.060
-408.325	-200.000	-0.004	0.177
-407.311	-63.189	0.058	0.031
-406.296	775.334	-0.081	0.290
-405.282	628.325	-0.041	0.135
-404.267	-30.617	0.468	0.346
-403.252	180.716	-0.260	0.501
-402.238	-27.871	-0.312	0.236
-401.223	281.232	-0.057	-0.133
-400.209	-130.876	-0.295	0.051
-399.194	168.223	0.090	0.169
-398.179	727.643	-0.164	0.578
-397.165	-65.483	0.034	0.018
-396.150	62.084	-0.241	-0.314
-395.136	606.385	0.053	-0.174
-394.121	-33.345	-0.110	0.079
-393.106	296.526	0.199	0.479
-392.092	175.999	0.084	0.159
-391.077	-70.764	-0.317	0.156
-390.063	-55.879	-0.126	0.074
-389.048	-31.244	0.130	-0.096
-388.033	-120.177	-0.081	-0.018
-387.019	76.262	0.162	0.225
-386.004	157.208	-0.175	0.319
-384.990	-146.480	0.427	0.048
-383.975	-154.538	-0.353	0.030
-382.960	78.075	0.184	0.257
-381.946	25.272	-0.072	-0.079
-380.931	-136.445	0.620	-0.093
-379.917	-200.000	0.043	0.294
-378.902	-173.730	-0.623	-0.024
-377.888	-121.243	-0.448	0.097
-376.873	44.421	-0.156	-0.187
-375.858	234.849	0.179	-0.389
-374.844	-123.236	0.506	0.105
-373.829	-77.277	0.228	-0.103
-372.815	78.423	-0.310	-0.434
-371.800	-200.000	0.019	0.115
-370.785	771.491	0.160	-0.573
-369.771	-24.486	-0.271	-0.211
-368.756	-24.205	0.204	0.159
-367.742	-142.222	0.238	0.030
-366.727	-127.315	-0.142	0.027
-365.712	-95.301	0.116	0.041
-364.698	800.000	-0.045	0.165
-363.683	360.392	0.078	-0.206
-362.669	105.111	-0.083	0.128
-361.654	19.811	-0.150	-0.158
-360.639	-179.053	-0.251	-0.007
-359.625	15.866	0.285	0.293
-358.610	-200.000	0.014	0.224
-357.596	20.476	0.100	-0.105
-356.581	800.000	0.071	0.306
-355.566	800.000	-0.116	-0.481
-354.552	24.418	0.130	0.140
-353.537	-126.131	0.159	0.031
-352.523	-79.823	0.437	-0.191
-351.508	-21.148	0.312	-0.249
-350.493	177.640	0.064	0.122
-349.479	237.493	0.103	0.224
-348.464	102.666	-0.228	0.349
-347.450	800.000	0.141	0.533
-346.435	-38.493	0.152	-0.105
-345.420	-200.000	0.011	-0.306
-344.406	-62.541	-0.128	-0.069
-343.391	-200.000	-0.032	0.269
-342.377	678.068	-0.148	-0.505
-341.362	800.000	-0.090	-0.326
-340.348	-75.968	0.177	-0.081
-339.333	65.069	0.294	0.389
-338.318	-200.000	-0.006	-0.219
-337.304	-132.408	0.357	0.060
-336.289	-121.736	0.128	-0.027
-335.275	25.742	0.493	-0.536
-334.260	23.820	-0.005	-0.005
-333.245	-143.002	0.842	0.105
-332.231	184.629	0.171	0.332
-331.216	69.950	-0.375	0.506
-330.202	158.818	-0.169	0.307
-329.187	-128.022	-0.103	0.019
-328.172	-123.470	0.180	-0.037
-327.158	-200.000	0.043	-0.366
-326.143	338.033	0.015	0.038
-325.129	360.109	-0.080	-0.211
-324.114	-200.000	0.010	0.115
-323.099	-200.000	0.015	0.239
-322.085	165.213	0.018	-0.034
-321.070	27.215	-0.196	0.215
-320.056	-75.553	0.267	0.123
-319.041	-143.897	-0.245	-0.030
-318.026	-128.736	0.317	0.058
-317.012	-14.301	0.123	0.103
-315.997	4.993	0.359	0.345
-314.983	-175.855	0.405	0.014
-313.968	-108.902	0.059	-0.016
-312.953	-43.124	-0.621	-0.409
-311.939	-119.495	-0.312	-0.070
-310.924	-62.298	0.285	0.154
-309.910	-200.000	0.027	0.166
-308.895	428.895	0.056	-0.159
-307.880	800.000	-0.068	-0.335
-306.866	800.000	-0.038	0.173
-305.851	39.872	-0.306	-0.359
-304.837	-136.064	-0.257	0.039
-303.822	-200.000	0.017	-0.111
-302.807	81.364	-0.153	-0.216
-301.793	-102.560	0.330	-0.102
-300.778	-116.686	0.363	-0.086
-299.764	-118.547	0.199	-0.045
-298.749	-0.777	0.350	0.323
-297.735	-91.802	-0.413	0.152
-296.720	17.843	0.088	-0.091
-295.705	257.675	0.106	0.239
-294.691	-121.594	-0.296	0.063
-293.676	-141.799	0.386	0.050
-292.662	350.721	-0.049	0.126
-291.647	58.036	0.083	-0.106
-290.632	-200.000	-0.017	0.169
-289.618	193.913	-0.192	-0.380
-288.603	-135.645	0.188	-0.029
-287.589	-200.000	0.018	-0.142
-286.574	62.310	-0.223	0.291
-285.559	128.794	0.258	-0.430
-284.545	800.000	0.064	-0.324
-283.530	387.371	0.153	-0.415
-282.516	-124.394	-0.671	-0.135
-281.501	-106.416	-0.365	-0.106
-280.486	177.298	-0.048	-0.092
-279.472	-94.624	-0.240	0.085
-278.457	-54.520	0.050	0.030
-277.443	420.446	0.150	-0.420
-276.428	609.154	-0.154	0.505
-275.413	23.804	-0.126	-0.135
-274.399	12.150	0.368	0.369
-273.384	28.904	0.022	0.024
-272.370	800.000	-0.081	-0.385
-271.355	-75.942	0.196	-0.090
-270.340	532.391	-0.101	-0.312
-269.326	560.359	0.109	0.344
-268.311	-40.171	0.693	0.469
-267.297	800.000	-0.088	0.324
-266.282	-200.000	0.036	-0.229
-265.267	-97.686	-0.297	0.100
-264.253	56.433	-0.266	0.337
-263.238	-8.247	-0.071	0.062
-262.224	-162.912	0.528	0.033
-261.209	-55.291	-0.191	-0.111
-260.195	-9.717	-0.275	-0.238
-259.180	-93.585	-0.400	-0.143
-258.165	-117.380	-0.049	0.012
-257.151	800.000	0.117	-0.530
-256.136	800.000	-0.094	-0.498
-255.122	-41.032	-0.116	-0.078
-254.107	409.820	0.049	0.135
-253.092	-200.000	-0.050	0.496
-252.078	-108.601	-0.223	0.062
-251.063	-200.000	0.025	0.212
-250.049	-108.516	0.182	-0.051
-249.034	221.589	-0.051	0.107
-248.019	-71.296	-0.165	-0.080
-247.005	-200.000	0.013	-0.353
-245.990	50.743	0.306	0.378
-244.976	294.570	0.234	0.560
-243.961	-98.613	0.763	-0.252
-242.946	-94.835	-0.265	-0.093
-241.932	110.079	-0.087	0.136
-240.917	82.381	-0.230	-0.325
-239.903	125.474	0.075	-0.124
-238.888	-36.794	0.080	-0.055
-237.873	152.009	0.090	-0.161
-236.859	260.184	-0.014	0.031
-235.844	-200.000	0.007	-0.329
-234.830	83.947	0.141	0.201
-233.815	-17.288	0.132	-0.108
-232.800	-159.263	0.416	0.030
-231.786	-29.257	-0.168	-0.125
-230.771	78.875	0.181	-0.253
-229.757	-63.518	0.468	-0.249
-228.742	118.022	0.281	0.452
-227.727	-87.362	-0.194	0.076
-226.713	7.719	-0.376	0.366
-225.698	800.000	0.039	-0.158
-224.684	-200.000	0.041	-0.444
-223.669	-21.692	-0.170	0.134
-222.655	30.081	0.198	0.220
-221.640	800.000	0.051	-0.235
-220.625	412.593	-0.120	0.332
-219.611	25.647	-0.326	-0.353
-218.596	681.883	-0.080	0.272
-217.582	-200.000	-0.015	-0.363
-216.567	-200.000	-0.029	-0.275
-215.552	-3.314	0.068	0.062
-214.538	800.000	0.077	0.322
-213.523	800.000	0.054	0.197
-212.509	-145.278	0.408	-0.047
-211.494	3.588	0.227	0.215
-210.479	163.641	0.228	-0.418
-209.465	-166.437	0.464	0.025
-208.450	-51.408	-0.427	-0.259
-207.436	171.812	0.151	0.282
-206.421	-14.020	0.162	0.136
-205.406	-79.157	-0.330	-0.145
-204.392	-165.242	-0.262	-0.015
-203.377	165.427	0.230	-0.424
-202.363	247.608	-0.142	-0.313
-201.348	34.097	0.220	-0.250
-200.333	-114.651	-0.378	-0.093
-199.319	50.617	-0.133	-0.163
-198.304	800.000	0.090	-0.368
-197.290	271.574	-0.247	0.569
-196.275	229.305	0.247	0.525
-195.260	-47.687	-0.345	0.217
-194.246	-81.879	0.336	-0.142
-193.231	349.826	-0.117	0.301
-192.217	-172.910	0.183	-0.007
-191.202	-59.506	-0.055	-0.030
-190.187	-77.291	0.275	0.124
-189.173	121.211	0.063	0.102
-188.158	198.017	-0.138	0.274
-187.144	-172.891	-0.510	-0.020
-186.129	78.560	-0.088	0.122
-185.114	-165.631	-0.517	0.029
-184.100	800.000	-0.083	0.449
-183.085	78.710	-0.219	0.305
-182.071	141.342	0.092	0.158
-181.056	-145.038	-0.188	0.022
-180.042	-25.637	-0.199	-0.152
-179.027	156.862	0.243	0.437
-178.012	-30.309	-0.189	0.139
-176.998	201.330	-0.056	-0.113
-175.983	-78.326	-0.178	0.079
-174.969	-200.000	-0.040	-0.605
-173.954	53.630	0.177	-0.220
-172.939	800.000	0.139	-0.724
-171.925	-34.374	-0.227	-0.161
-170.910	63.215	0.221	-0.288
-169.896	-200.000	-0.007	-0.358
-168.881	-11.299	0.294	0.251
-167.866	-29.177	0.046	-0.034
-166.852	800.000	-0.121	-0.491
-165.837	-100.094	0.272	0.087
-164.823	-200.000	-0.030	0.196
-163.808	-97.202	-0.305	-0.103
-162.793	-97.522	-0.652	-0.219
-161.779	-50.449	0.405	0.247
-160.764	-200.000	0.055	0.581
-159.750	-200.000	0.010	-0.277
-158.735	-60.061	0.363	0.200
-157.720	-123.868	-0.474	-0.096
-156.706	-2.197	-0.503	-0.457
-155.691	-200.000	-0.020	0.298
-154.677	-200.000	0.314	-0.000
-153.662	-67.902	0.298	-0.150
-152.647	-133.173	0.891	-0.145
-151.633	-200.000	0.098	-0.598
-150.618	-80.310	0.174	0.075
-149.604	39.882	-0.204	-0.238
-148.589	-98.159	-0.343	0.114
-147.574	-68.406	-0.414	-0.208
-146.560	-147.125	0.231	-0.025
-145.545	-81.818	-0.118	-0.050
-144.531	15.877	-0.190	-0.194
-143.516	18.830	-0.119	0.123
-142.502	-111.915	-0.214	0.056
-141.487	-69.662	0.310	0.153
-140.472	-31.557	-0.369	-0.268
-139.458	-44.121	-0.313	-0.203
-138.443	458.870	0.123	0.358
-137.429	516.270	-0.040	-0.121
-136.414	-91.212	0.041	-0.015
-135.399	245.375	0.156	-0.342
-134.385	38.907	0.456	-0.528
-133.370	-200.000	0.007	0.059
-132.356	49.717	0.121	-0.148
-131.341	-104.236	-0.264	-0.079
-130.326	-12.812	-0.406	-0.342
-129.312	47.676	0.416	-0.503
-128.297	-14.648	-0.101	-0.084
-127.283	-150.191	-0.139	-0.014
-126.268	228.454	0.203	0.431
-125.253	249.585	0.063	-0.139
-124.239	-87.342	0.171	-0.067
-123.224	-5.538	-0.187	0.166
-122.210	-1.956	0.189	-0.172
-121.195	800.000	0.029	-0.106
