DTS Sentinel unit serial number:	SN409020Multiplexer serial number:	ORYXHardware model number:	OX4-SRSoftware version number:	ORYX F/W v3.00 Oryx Data Collector v3.7.2.0data status	okinstallation	HaddamTimeLapsedifferential loss correction	single-endedforward channel	channel 3reverse channel	N/Adate	2011/06/21time	17:51:17forward acquisition time	30.00reverse acquisition time	0.00gamma	498.7831k internal	0.1834k external	0.1834temperature offset calibration	1.0074default loss term (dB/km)	0.3790temperature slope calibration	1.3530multiplexer offset coefficient	1.0000multiplexer slope coefficient	1.0000fibre end	0.00T internal ref (°C)	35.69T ext. ref 1 (°C)	30.32T ext. ref 2 (°C)	0.27length (m)	temperature (°C)	Stokes	anti-Stokes-747.200	-88.366	-0.053	0.020
-746.185	-200.000	0.003	0.494
-745.171	-48.825	0.215	-0.130
-744.156	511.553	0.208	0.617
-743.142	-200.000	0.001	0.158
-742.127	-200.000	-0.011	0.459
-741.112	-55.951	-0.295	-0.166
-740.098	-200.000	-0.076	0.434
-739.083	346.445	0.158	-0.396
-738.069	-30.954	-0.231	-0.165
-737.054	-13.137	-0.329	0.270
-736.039	319.377	-0.136	0.328
-735.025	-4.159	-0.261	0.229
-734.010	442.383	-0.034	0.095
-732.996	-200.000	0.005	0.114
-731.981	-132.010	-0.621	-0.102
-730.966	-108.439	-0.454	-0.123
-729.952	103.790	0.230	0.344
-728.937	264.581	-0.236	-0.524
-727.923	95.252	0.076	0.110
-726.908	-53.148	-0.235	-0.136
-725.894	-82.982	-0.261	0.106
-724.879	-1.098	0.058	-0.052
-723.864	214.528	0.119	-0.240
-722.850	-51.333	-0.178	-0.105
-721.835	800.000	0.089	-0.320
-720.821	-129.916	0.212	0.036
-719.806	176.379	0.124	-0.229
-718.791	21.101	0.246	0.253
-717.777	-98.910	0.278	0.089
-716.762	-139.992	-0.215	0.028
-715.748	-36.013	-0.134	0.092
-714.733	114.160	0.213	0.329
-713.718	171.275	-0.262	0.477
-712.704	-200.000	-0.008	0.307
-711.689	-96.847	-0.184	0.061
-710.675	-91.673	-0.340	0.122
-709.660	-200.000	-0.037	-0.332
-708.645	-122.281	0.230	-0.047
-707.631	800.000	0.022	0.114
-706.616	136.161	0.256	-0.424
-705.602	23.888	0.266	-0.277
-704.587	-55.988	-0.414	-0.233
-703.572	-85.333	0.209	-0.082
-702.558	-18.134	0.065	-0.052
-701.543	-85.838	0.525	-0.205
-700.529	135.281	0.065	-0.107
-699.514	-129.162	0.168	0.029
-698.499	-59.385	-0.361	-0.196
-697.485	243.173	0.138	-0.293
-696.470	-47.832	-0.189	-0.116
-695.456	-200.000	0.091	0.632
-694.441	-42.314	-0.533	0.343
-693.426	-90.737	-0.253	0.092
-692.412	-133.588	-0.357	-0.056
-691.397	-200.000	0.012	0.358
-690.383	138.430	0.303	0.505
-689.368	-82.114	-0.161	-0.066
-688.354	-80.423	-0.806	-0.339
-687.339	-149.373	-0.294	0.029
-686.324	-39.380	0.184	0.122
-685.310	-48.948	0.369	-0.223
-684.295	-189.287	-0.166	-0.002
-683.281	-114.186	-0.553	0.134
-682.266	104.335	-0.232	0.347
-681.251	-48.956	-0.489	-0.296
-680.237	-24.787	-0.387	-0.290
-679.222	142.948	0.177	0.298
-678.208	-200.000	0.032	0.198
-677.193	-149.740	-0.236	-0.023
-676.178	-106.427	0.091	-0.025
-675.164	-86.693	-0.250	-0.096
-674.149	64.394	0.088	-0.112
-673.135	800.000	0.113	-0.409
-672.120	-200.000	-0.042	0.340
-671.105	800.000	0.052	0.280
-670.091	371.071	0.057	-0.148
-669.076	521.828	0.016	-0.049
-668.062	42.534	0.400	-0.461
-667.047	88.956	-0.277	-0.391
-666.032	172.050	0.254	-0.462
-665.018	-200.000	0.022	0.211
-664.003	-91.032	-0.122	0.044
-662.989	-98.385	-0.253	-0.081
-661.974	-158.874	-0.164	-0.012
-660.959	-200.000	0.042	0.406
-659.945	107.242	0.286	-0.431
-658.930	-66.735	-0.349	-0.174
-657.916	-49.995	0.460	-0.275
-656.901	179.825	0.190	-0.354
-655.886	-200.000	0.015	-0.393
-654.872	-43.913	-0.488	-0.309
-653.857	4.777	-0.308	0.286
-652.843	-8.265	-0.188	-0.160
-651.828	64.581	-0.216	-0.276
-650.814	-60.129	-0.301	-0.162
-649.799	6.623	0.109	0.102
-648.784	-2.338	-0.185	0.164
-647.770	44.468	-0.275	-0.319
-646.755	-200.000	-0.059	-0.555
-645.741	63.127	-0.139	0.176
-644.726	800.000	-0.049	-0.241
-643.711	-72.134	0.358	0.167
-642.697	265.604	0.132	0.292
-641.682	-200.000	0.003	-0.451
-640.668	-200.000	-0.047	-0.291
-639.653	382.485	0.297	0.774
-638.638	-164.348	-0.573	0.033
-637.624	800.000	0.055	-0.291
-636.609	-17.098	0.037	0.029
-635.595	519.667	-0.203	0.605
-634.580	25.221	0.114	-0.120
-633.565	-98.784	-0.049	-0.016
-632.551	-0.095	-0.325	0.292
-631.536	59.845	-0.230	-0.287
-630.522	-83.330	-0.506	0.204
-629.507	-98.345	-0.549	-0.177
-628.492	412.773	-0.046	0.124
-627.478	-100.396	0.366	-0.114
-626.463	385.236	-0.045	0.118
-625.449	-102.175	-0.102	0.031
-624.434	-200.000	0.058	0.506
-623.419	-94.669	-0.065	0.022
-622.405	-121.092	-0.463	-0.097
-621.390	-63.540	-0.619	-0.319
-620.376	198.439	0.076	-0.146
-619.361	783.867	0.114	0.398
-618.346	-64.114	-0.268	0.138
-617.332	-155.417	0.378	0.031
-616.317	-18.908	0.127	-0.099
-615.303	219.396	0.054	0.109
-614.288	141.215	-0.035	-0.058
-613.273	19.045	0.203	-0.206
-612.259	-61.920	-0.226	-0.119
-611.244	800.000	-0.046	0.209
-610.230	1.132	-0.147	0.133
-609.215	800.000	0.019	0.077
-608.201	800.000	-0.082	0.446
-607.186	-56.551	0.106	-0.059
-606.171	800.000	0.080	-0.334
-605.157	-80.647	0.257	-0.108
-604.142	800.000	-0.114	-0.433
-603.128	800.000	-0.096	-0.467
-602.113	-67.791	0.261	-0.128
-601.098	-123.921	0.303	0.060
-600.084	-35.338	-0.111	0.076
-599.069	-170.443	-0.371	-0.016
-598.055	-24.628	-0.146	-0.109
-597.040	-200.000	0.030	0.464
-596.025	531.630	0.193	0.578
-595.011	-150.973	0.041	0.004
-593.996	-52.886	0.127	-0.073
-592.982	-200.000	0.032	-0.265
-591.967	800.000	-0.015	-0.071
-590.952	54.773	-0.337	-0.410
-589.938	171.891	-0.188	-0.342
-588.923	-36.101	-0.267	-0.181
-587.909	800.000	-0.005	-0.021
-586.894	587.354	-0.078	-0.243
-585.879	40.799	-0.153	-0.174
-584.865	-44.598	-0.103	-0.065
-583.850	29.783	-0.307	0.330
-582.836	12.919	0.217	0.212
-581.821	-102.540	-0.103	-0.031
-580.806	-144.455	-0.184	-0.021
-579.792	312.708	0.086	0.203
-578.777	-92.482	0.244	-0.086
-577.763	294.996	0.096	0.223
-576.748	355.141	0.181	0.456
-575.733	-200.000	0.008	0.248
-574.719	-91.230	-0.511	0.184
-573.704	69.341	-0.018	0.024
-572.690	553.025	0.088	-0.267
-571.675	-34.839	-0.303	0.208
-570.661	39.673	0.307	0.347
-569.646	316.600	0.116	-0.277
-568.631	-50.793	-0.173	0.102
-567.617	56.489	-0.060	-0.074
-566.602	-55.476	0.249	-0.140
-565.588	-100.146	-0.231	0.072
-564.573	-200.000	0.479	0.002
-563.558	233.698	0.336	-0.700
-562.544	412.306	0.223	-0.600
-561.529	-94.286	0.065	0.022
-560.515	-72.942	0.170	0.078
-559.500	-114.413	-0.170	-0.041
-558.485	800.000	0.047	-0.252
-557.471	59.724	-0.231	-0.287
-556.456	800.000	-0.161	-0.619
-555.442	270.760	-0.337	-0.749
-554.427	80.017	0.067	-0.091
-553.412	-140.275	-0.136	-0.018
-552.398	33.380	-0.310	-0.339
-551.383	282.258	-0.165	-0.373
-550.369	-92.620	0.171	0.060
-549.354	800.000	0.035	-0.172
-548.339	-89.002	0.316	-0.117
-547.325	-166.279	0.335	0.018
-546.310	435.173	-0.029	0.081
-545.296	-8.011	0.278	-0.236
-544.281	235.345	0.106	-0.221
-543.266	-93.049	0.392	0.137
-542.252	-167.175	0.155	0.008
-541.237	-108.168	0.607	0.164
-540.223	-200.000	0.021	0.133
-539.208	28.117	-0.419	-0.444
-538.193	800.000	-0.103	-0.536
-537.179	239.346	0.137	0.288
-536.164	-21.384	0.140	-0.107
-535.150	-142.486	0.502	0.061
-534.135	304.238	-0.087	-0.204
-533.121	13.926	0.145	-0.142
-532.106	-102.533	0.459	0.137
-531.091	-116.524	0.494	-0.114
-530.077	329.940	0.156	-0.378
-529.062	-28.948	-0.059	-0.042
-528.048	-32.679	0.384	0.268
-527.033	-200.000	-0.058	0.418
-526.018	-39.700	0.508	-0.333
-525.004	234.689	-0.079	-0.165
-523.989	44.991	0.118	-0.136
-522.975	-81.298	-0.353	-0.146
-521.960	-118.358	0.259	-0.057
-520.945	220.235	0.205	-0.414
-519.931	23.139	-0.516	-0.532
-518.916	56.991	-0.060	0.074
-517.902	-6.826	-0.263	0.225
-516.887	-65.711	-0.611	-0.307
-515.872	800.000	0.038	0.172
-514.858	-46.647	0.079	0.048
-513.843	-127.215	0.258	0.047
-512.829	-96.261	-0.192	-0.064
-511.814	-124.300	0.147	-0.029
-510.799	25.514	0.108	0.112
-509.785	284.451	0.170	0.385
-508.770	800.000	0.041	0.172
-507.756	-136.756	-0.486	0.070
-506.741	62.847	0.238	0.300
-505.726	-140.081	0.384	0.050
-504.712	464.959	-0.075	0.211
-503.697	-63.264	-0.188	0.097
-502.683	57.437	0.274	0.337
-501.668	127.224	-0.279	0.446
-500.653	800.000	0.082	0.305
-499.639	-200.000	-0.072	-0.599
-498.624	-149.026	0.092	-0.009
-497.610	-25.886	0.115	-0.085
-496.595	-118.474	-0.280	-0.062
-495.581	800.000	0.068	-0.296
-494.566	-93.535	-0.302	-0.104
-493.551	-71.750	-0.429	-0.200
-492.537	186.345	-0.070	-0.130
-491.522	182.888	0.209	-0.389
-490.508	609.304	-0.113	-0.358
-489.493	713.210	-0.023	0.077
-488.478	212.524	0.229	-0.455
-487.464	-55.407	0.191	-0.108
-486.449	-49.615	-0.199	-0.119
-485.435	-90.998	-0.244	-0.088
-484.420	-24.613	0.397	-0.296
-483.405	-200.000	-0.028	-0.514
-482.391	95.548	0.174	-0.250
-481.376	5.143	-0.171	-0.158
-480.362	-200.000	-0.023	-0.163
-479.347	-150.353	-0.088	0.008
-478.332	-116.850	-0.240	0.055
-477.318	-179.351	-0.341	0.009
-476.303	800.000	-0.097	-0.446
-475.289	128.541	-0.210	-0.336
-474.274	74.877	-0.131	-0.173
-473.259	-200.000	-0.288	-0.001
-472.245	-200.000	0.032	-0.269
-471.230	315.747	0.146	-0.347
-470.216	-200.000	-0.035	-0.222
-469.201	-123.887	-0.297	0.058
-468.186	-107.487	-0.197	0.054
-467.172	-200.000	-0.028	-0.203
-466.157	297.651	0.120	-0.278
-465.143	-129.916	-0.248	-0.042
-464.128	95.364	-0.097	0.139
-463.113	-88.010	0.309	0.116
-462.099	800.000	0.054	-0.233
-461.084	-113.638	-0.343	-0.083
-460.070	335.802	-0.078	0.191
-459.055	-59.946	0.142	0.076
-458.040	29.752	-0.298	-0.319
-457.026	451.551	0.150	-0.417
-456.011	207.325	-0.035	-0.069
-454.997	372.297	-0.029	0.073
-453.982	-45.566	0.410	0.254
-452.968	43.804	-0.169	0.194
-451.953	-200.000	-0.012	0.121
-450.938	-200.000	-0.016	0.443
-449.924	800.000	-0.047	-0.171
-448.909	476.686	-0.051	-0.146
-447.895	800.000	-0.127	0.549
-446.880	656.459	-0.024	0.077
-445.865	-65.010	0.213	-0.108
-444.851	69.966	0.155	0.200
-443.836	-38.469	-0.315	0.208
-442.822	71.650	-0.132	0.172
-441.807	141.084	0.121	0.201
-440.792	-101.473	-0.155	-0.047
-439.778	251.949	-0.012	-0.025
-438.763	21.961	0.252	-0.257
-437.749	291.006	0.166	0.380
-436.734	222.052	0.228	0.462
-435.719	-200.000	-0.069	0.000
-434.705	113.328	-0.265	0.404
-433.690	-116.465	-0.053	0.012
-432.676	-110.523	-0.498	0.128
-431.661	-27.010	0.145	-0.106
-430.646	50.649	-0.223	0.265
-429.632	160.667	-0.120	-0.211
-428.617	-200.000	0.017	0.441
-427.603	-200.000	-0.011	0.111
-426.588	800.000	-0.111	-0.461
-425.573	-200.000	0.108	-0.677
-424.559	280.289	-0.231	0.519
-423.544	-200.000	-0.041	-0.569
-422.530	-71.177	0.232	-0.109
-421.515	800.000	-0.039	0.153
-420.500	800.000	-0.080	-0.355
-419.486	15.736	0.184	0.181
-418.471	-37.027	0.336	-0.225
-417.457	179.147	0.215	0.395
-416.442	32.814	-0.226	-0.245
-415.428	-200.000	0.009	-0.252
-414.413	-131.920	0.492	-0.080
-413.398	149.088	-0.176	-0.298
-412.384	708.859	-0.074	0.245
-411.369	3.187	-0.130	0.118
-410.355	-133.008	0.164	-0.026
-409.340	800.000	0.110	-0.399
-408.325	-200.000	0.001	-0.013
-407.311	322.531	-0.164	0.392
-406.296	-92.530	-0.082	0.029
-405.282	145.067	0.081	-0.136
-404.267	-132.620	-0.387	0.061
-403.252	-200.000	0.064	-0.373
-402.238	-200.000	-0.013	0.337
-401.223	16.784	0.085	-0.084
-400.209	-136.259	0.418	-0.060
-399.194	415.223	0.063	0.168
-398.179	430.249	0.032	0.087
-397.165	-124.574	0.302	0.058
-396.150	89.755	0.245	0.342
-395.136	31.949	0.177	0.190
-394.121	800.000	-0.052	0.214
-393.106	-83.203	-0.311	-0.124
-392.092	-186.916	0.182	-0.003
-391.077	800.000	-0.084	0.440
-390.063	499.497	-0.028	-0.081
-389.048	-133.913	0.247	-0.038
-388.033	-153.177	0.185	0.016
-387.019	-109.288	0.507	-0.134
-386.004	-121.290	0.320	-0.066
-384.990	-96.937	0.239	-0.078
-383.975	-9.949	-0.205	0.170
-382.960	-200.000	-0.005	0.061
-381.946	224.637	-0.191	-0.387
-380.931	552.072	0.148	-0.447
-379.917	178.297	-0.079	0.144
-378.902	86.548	0.090	-0.124
-377.888	179.426	-0.251	-0.460
-376.873	800.000	0.151	-0.597
-375.858	14.872	0.031	0.030
-374.844	-97.278	0.314	-0.102
-373.829	-45.843	-0.046	-0.028
-372.815	-136.504	0.178	-0.026
-371.800	-37.275	0.123	0.082
-370.785	-200.000	-0.015	-0.200
-369.771	-79.071	0.410	0.173
-368.756	-102.086	-0.081	-0.024
-367.742	31.677	-0.105	-0.113
-366.727	-12.890	0.142	-0.115
-365.712	-95.994	-0.317	-0.105
-364.698	-55.555	-0.562	-0.314
-363.683	68.015	-0.271	0.347
-362.669	-129.791	-0.270	-0.046
-361.654	29.675	-0.201	0.214
-360.639	27.132	-0.146	-0.153
-359.625	-169.572	0.218	0.010
-358.610	-53.313	-0.199	0.114
-357.596	108.453	0.245	-0.366
-356.581	-185.161	-0.280	0.005
-355.566	91.960	-0.141	-0.199
-354.552	-134.462	-0.195	-0.030
-353.537	32.514	-0.018	0.019
-352.523	177.050	-0.084	-0.153
-351.508	-200.000	-0.043	-0.289
-350.493	273.436	0.051	-0.113
-349.479	-115.015	-0.241	0.057
-348.464	800.000	-0.051	0.178
-347.450	800.000	0.015	-0.066
-346.435	-158.976	0.736	0.051
-345.420	603.535	0.088	0.274
-344.406	-62.411	-0.356	0.184
-343.391	-200.000	0.023	0.518
-342.377	800.000	-0.201	0.830
-341.362	-95.384	-0.270	0.090
-340.348	5.272	-0.377	-0.347
-339.333	-57.380	-0.135	-0.074
-338.318	35.934	-0.161	-0.177
-337.304	566.448	-0.047	-0.142
-336.289	800.000	0.032	-0.146
-335.275	366.919	0.134	0.338
-334.260	-71.870	0.218	-0.101
-333.245	800.000	0.047	0.201
-332.231	184.054	-0.225	-0.416
-331.216	-53.317	-0.237	-0.135
-330.202	321.021	-0.054	0.129
-329.187	8.648	-0.380	-0.357
-328.172	36.342	0.088	-0.097
-327.158	-29.814	-0.102	0.072
-326.143	800.000	-0.133	0.636
-325.129	-98.264	0.548	-0.175
-324.114	17.118	0.256	-0.253
-323.099	13.367	-0.151	0.146
-322.085	-200.000	-0.040	0.576
-321.070	244.955	-0.144	0.303
-320.056	-61.728	0.044	0.023
-319.041	-174.166	-0.315	0.011
-318.026	-200.000	-0.014	-0.237
-317.012	94.359	0.206	0.293
-315.997	-73.734	-0.186	0.084
-314.983	62.027	-0.114	0.141
-313.968	15.094	-0.168	-0.164
-312.953	-55.625	-0.076	-0.042
-311.939	-124.659	-0.403	-0.077
-310.924	-200.000	0.085	0.608
-309.910	191.634	0.248	0.467
-308.895	-200.000	0.068	0.452
-307.880	-200.000	-0.000	0.205
-306.866	-69.882	0.194	-0.092
-305.851	-15.869	0.155	0.123
-304.837	19.187	-0.345	0.345
-303.822	53.012	0.196	-0.234
-302.807	-5.507	0.300	-0.256
-301.793	-154.009	0.528	0.044
-300.778	18.144	-0.051	-0.051
-299.764	-42.870	-0.210	0.132
-298.749	-95.689	-0.438	-0.145
-297.735	13.396	0.181	-0.175
-296.720	185.340	0.109	0.202
-295.705	-95.826	-0.082	0.027
-294.691	62.747	0.100	0.124
-293.676	9.119	-0.181	0.170
-292.662	207.482	-0.053	0.104
-291.647	589.614	0.201	-0.620
-290.632	36.598	0.393	-0.432
-289.618	-79.621	0.325	-0.136
-288.603	-77.121	-0.144	0.062
-287.589	-87.921	-0.326	-0.121
-286.574	11.610	-0.296	0.282
-285.559	-110.079	0.199	0.051
-284.545	2.734	0.246	0.222
-283.530	415.565	-0.168	0.448
-282.516	50.256	-0.052	0.061
-281.501	-29.137	0.302	-0.216
-280.486	23.080	-0.196	-0.200
-279.472	66.295	0.030	-0.037
-278.457	199.629	-0.167	0.321
-277.443	627.170	0.069	0.219
-276.428	-24.271	0.421	-0.312
-275.413	27.953	-0.122	0.128
-274.399	-33.391	0.143	-0.098
-273.384	-200.000	0.020	-0.368
-272.370	59.566	0.372	-0.458
-271.355	-31.383	0.519	0.363
-270.340	246.559	0.097	0.205
-269.326	800.000	-0.060	0.276
-268.311	376.229	-0.084	-0.215
-267.297	-127.153	0.122	0.022
-266.282	-11.616	-0.194	0.158
-265.267	97.621	0.146	0.210
-264.253	10.167	0.179	-0.169
-263.238	-68.086	-0.456	0.220
-262.224	-70.950	-0.119	-0.056
-261.209	14.292	0.183	0.177
-260.195	-151.244	-0.459	0.042
-259.180	241.728	-0.145	0.302
-258.165	309.869	0.209	-0.488
-257.151	800.000	0.080	-0.327
-256.136	492.208	0.146	-0.417
-255.122	-142.185	0.403	0.049
-254.107	-160.258	-0.186	-0.012
-253.092	432.300	0.202	0.549
-252.078	-142.792	0.264	-0.032
-251.063	92.831	-0.261	0.367
-250.049	474.797	-0.019	0.054
-249.034	-188.433	-0.298	-0.005
-248.019	73.789	-0.070	0.092
-247.005	-85.504	0.198	-0.076
-245.990	31.876	-0.593	-0.635
-244.976	12.214	-0.103	-0.098
-243.961	-24.510	0.206	-0.153
-242.946	208.350	-0.017	0.034
-241.932	-48.761	-0.556	0.331
-240.917	-141.461	0.443	-0.055
-239.903	-122.605	0.261	-0.052
-238.888	94.301	0.339	0.479
-237.873	77.725	0.296	-0.393
-236.859	266.985	-0.129	-0.282
-235.844	36.202	0.069	-0.076
-234.830	-119.644	0.273	0.058
-233.815	-119.209	0.476	0.102
-232.800	-200.000	-0.001	0.009
-231.786	-41.519	-0.341	-0.217
-230.771	800.000	0.019	0.069
-229.757	-24.135	0.282	0.209
-228.742	-53.480	0.082	0.047
-227.727	43.868	-0.243	0.276
-226.713	-10.449	0.085	0.070
-225.698	800.000	-0.078	-0.337
-224.684	54.287	-0.433	0.519
-223.669	5.830	0.340	0.312
-222.655	-47.549	-0.211	0.127
-221.640	172.782	-0.276	0.496
-220.625	222.909	-0.108	-0.217
-219.611	-200.000	0.022	0.520
-218.596	479.332	-0.125	0.355
-217.582	800.000	-0.100	0.387
-216.567	800.000	-0.050	0.215
-215.552	185.687	0.143	-0.265
-214.538	-77.411	-0.297	0.128
-213.523	62.289	-0.189	0.235
-212.509	-49.872	-0.065	0.038
-211.494	453.021	-0.155	0.427
-210.479	-26.298	-0.284	0.206
-209.465	-95.217	0.417	0.139
-208.450	39.379	-0.296	-0.329
-207.436	392.756	0.177	0.459
-206.421	-26.091	-0.177	-0.129
-205.406	7.527	0.167	-0.155
-204.392	-121.348	-0.228	0.047
-203.377	800.000	-0.077	-0.366
-202.363	75.076	-0.200	-0.262
-201.348	-35.677	-0.262	-0.176
-200.333	447.047	0.070	0.191
-199.319	-200.000	0.052	0.487
-198.304	-174.276	0.226	0.008
-197.290	45.586	0.223	-0.256
-196.275	236.981	0.212	-0.438
-195.260	35.771	0.080	-0.087
-194.246	-200.000	0.034	0.219
-193.231	39.205	-0.167	0.186
-192.217	255.044	-0.137	0.292
-191.202	-112.311	-0.189	-0.047
-190.187	-93.415	0.169	0.058
-189.173	76.586	-0.341	0.449
-188.158	-127.552	0.393	-0.070
-187.144	364.354	0.180	0.452
-186.129	33.657	-0.154	0.167
-185.114	260.324	-0.095	0.204
-184.100	-37.394	0.232	-0.154
-183.085	-109.320	0.328	0.086
-182.071	-105.108	0.485	0.137
-181.056	-11.205	0.118	0.096
-180.042	-200.000	-0.043	0.324
-179.027	448.773	0.085	0.235
-178.012	800.000	0.047	0.170
-176.998	-71.741	-0.237	0.109
-175.983	800.000	0.100	0.358
-174.969	388.843	0.096	0.247
-173.954	800.000	0.097	0.451
-172.939	704.456	0.056	-0.186
-171.925	-200.000	0.047	0.294
-170.910	108.156	-0.266	-0.395
-169.896	89.323	0.117	0.162
-168.881	419.579	-0.122	0.326
-167.866	-200.000	-0.051	0.295
-166.852	-11.116	0.229	0.187
-165.837	29.779	0.546	-0.577
-164.823	-64.181	0.295	-0.149
-163.808	4.205	0.187	0.170
-162.793	192.879	0.113	-0.212
-161.779	308.630	-0.093	0.216
-160.764	-6.232	0.355	0.300
-159.750	-107.680	0.122	0.033
-158.735	-81.992	0.378	-0.152
-157.720	-104.457	-0.496	-0.141
-156.706	-149.659	-0.577	0.056
-155.691	-93.244	0.270	0.092
-154.677	-200.000	0.004	-0.280
-153.662	800.000	-0.063	0.278
-152.647	66.089	0.056	-0.070
-151.633	90.095	0.181	0.252
-150.618	77.474	-0.068	-0.090
-149.604	-197.058	0.199	0.002
-148.589	-200.000	-0.024	0.257
-147.574	-128.640	-0.164	-0.028
-146.560	-200.000	-0.099	0.759
-145.545	177.622	-0.402	0.728
-144.531	-63.759	0.161	0.081
-143.516	-66.466	0.258	0.126
-142.502	215.493	-0.129	-0.255
-141.487	800.000	-0.029	0.158
-140.472	383.996	0.227	0.581
-139.458	-200.000	-0.024	0.135
-138.443	-108.174	-0.168	0.045
-137.429	-117.373	-0.358	0.080
-136.414	-72.333	-0.213	0.097
-135.399	-138.930	-0.425	0.057
-134.385	800.000	0.086	-0.369
-133.370	-56.334	-0.250	-0.137
-132.356	-200.000	-0.270	0.001
-131.341	670.154	0.061	-0.197
-130.326	33.162	-0.138	-0.149
-129.312	-152.773	-0.238	-0.021
-128.297	-66.824	0.080	-0.039
-127.283	-22.374	0.236	0.177
-126.268	800.000	-0.034	0.178
-125.253	-84.113	-0.533	-0.208
-124.239	-200.000	-0.069	0.593
-123.224	-134.161	0.281	-0.042
-122.210	-200.000	0.026	0.421
-121.195	31.058	0.251	-0.267
-120.180	-200.000	0.005	0.400
