DTS Sentinel unit serial number:	SN409020Multiplexer serial number:	ORYXHardware model number:	OX4-SRSoftware version number:	ORYX F/W v3.00 Oryx Data Collector v3.7.2.0data status	okinstallation	HaddamTimeLapsedifferential loss correction	single-endedforward channel	channel 3reverse channel	N/Adate	2011/06/21time	18:36:17forward acquisition time	30.00reverse acquisition time	0.00gamma	498.7831k internal	0.1819k external	0.1819temperature offset calibration	1.0074default loss term (dB/km)	0.3790temperature slope calibration	1.3530multiplexer offset coefficient	1.0000multiplexer slope coefficient	1.0000fibre end	0.00T internal ref (°C)	36.00T ext. ref 1 (°C)	27.37T ext. ref 2 (°C)	0.25length (m)	temperature (°C)	Stokes	anti-Stokes-747.200	-154.475	0.406	0.034
-746.185	212.603	0.223	0.451
-745.171	-74.833	-0.250	-0.114
-744.156	598.645	-0.160	0.511
-743.142	1.837	0.135	-0.124
-742.127	-68.694	-0.234	0.115
-741.112	39.912	-0.501	-0.576
-740.098	-200.000	0.043	0.498
-739.083	58.437	-0.062	-0.078
-738.069	-46.715	0.123	-0.077
-737.054	112.879	0.185	-0.287
-736.039	41.208	-0.078	-0.090
-735.025	-81.646	-0.337	0.141
-734.010	-47.853	0.480	0.297
-732.996	171.453	-0.267	0.492
-731.981	109.195	-0.292	-0.447
-730.966	137.935	0.068	0.115
-729.952	-39.666	-0.169	0.113
-728.937	-170.325	-0.467	0.021
-727.923	-14.401	-0.171	-0.141
-726.908	3.638	0.122	-0.113
-725.894	800.000	0.047	-0.209
-724.879	-157.003	0.212	0.016
-723.864	-131.079	-0.284	0.048
-722.850	6.604	0.254	0.241
-721.835	-151.082	-0.526	-0.050
-720.821	-62.563	-0.321	0.170
-719.806	320.337	0.194	-0.474
-718.791	800.000	0.174	-0.729
-717.777	347.570	-0.070	-0.176
-716.762	139.726	0.121	-0.205
-715.748	347.411	-0.092	-0.234
-714.733	123.881	-0.107	0.172
-713.718	-84.305	-0.144	-0.058
-712.704	-35.139	0.111	-0.077
-711.689	-200.000	-0.056	-0.404
-710.675	-152.491	0.197	0.018
-709.660	586.800	-0.068	0.216
-708.645	87.432	0.092	-0.131
-707.631	800.000	0.173	-0.635
-706.616	-69.711	0.391	0.190
-705.602	-200.000	0.021	-0.148
-704.587	195.772	0.177	0.345
-703.572	483.934	-0.050	-0.146
-702.558	-136.593	0.409	0.060
-701.543	91.824	0.114	0.164
-700.529	313.036	-0.201	0.485
-699.514	177.190	0.272	0.508
-698.499	0.927	0.121	0.110
-697.485	-85.635	-0.318	-0.126
-696.470	30.131	-0.349	0.380
-695.456	61.706	0.226	0.288
-694.441	7.420	0.343	0.327
-693.426	-51.918	0.311	-0.184
-692.412	800.000	-0.085	-0.338
-691.397	-200.000	-0.027	-0.324
-690.383	371.055	-0.140	-0.364
-689.368	-31.465	-0.434	-0.311
-688.354	-8.749	-0.149	-0.127
-687.339	-148.279	0.435	-0.045
-686.324	-200.000	0.019	-0.111
-685.310	42.453	0.181	0.210
-684.295	-92.634	0.054	-0.019
-683.281	-120.113	-0.459	-0.099
-682.266	-25.155	-0.436	-0.329
-681.251	-200.000	0.028	-0.487
-680.237	-200.000	-0.001	0.255
-679.222	-48.329	-0.060	0.037
-678.208	-200.000	0.052	0.486
-677.193	-66.833	0.160	0.080
-676.178	-1.768	-0.331	0.297
-675.164	121.164	0.013	-0.021
-674.149	-200.000	-0.010	0.304
-673.135	543.447	-0.128	-0.392
-672.120	-200.000	-0.021	-0.157
-671.105	-59.087	-0.264	-0.145
-670.091	800.000	0.034	0.143
-669.076	0.479	-0.184	0.168
-668.062	-159.052	-0.253	0.018
-667.047	-200.000	-0.052	-0.383
-666.032	-200.000	-0.053	-0.325
-665.018	-54.082	-0.368	-0.213
-664.003	-111.065	0.281	0.073
-662.989	-46.373	0.263	-0.164
-661.974	142.111	0.309	-0.524
-660.959	70.344	0.084	-0.111
-659.945	33.119	-0.253	-0.280
-658.930	-200.000	-0.120	-0.889
-657.916	47.170	-0.463	0.550
-656.901	25.133	-0.530	0.560
-655.886	800.000	0.082	0.397
-654.872	-200.000	0.060	-0.451
-653.857	-132.544	0.588	0.095
-652.843	-200.000	-0.050	0.481
-651.828	-178.720	-0.312	0.009
-650.814	205.762	0.091	0.182
-649.799	-55.331	-0.252	0.144
-648.784	11.458	-0.187	0.183
-647.770	-144.712	0.608	-0.070
-646.755	-67.410	-0.298	0.149
-645.741	168.748	0.177	0.322
-644.726	-73.970	-0.166	0.077
-643.711	80.693	-0.303	-0.417
-642.697	-95.328	-0.654	-0.223
-641.682	-81.575	-0.500	0.208
-640.668	-67.343	0.146	0.073
-639.653	800.000	0.029	-0.121
-638.638	-182.663	0.159	0.004
-637.624	800.000	-0.144	-0.607
-636.609	-40.157	-0.172	0.114
-635.595	154.079	0.144	-0.252
-634.580	-5.769	-0.305	0.266
-633.565	-200.000	-0.027	-0.166
-632.551	800.000	-0.076	-0.286
-631.536	330.517	-0.185	-0.456
-630.522	800.000	0.079	-0.329
-629.507	14.136	0.160	-0.159
-628.492	-200.000	0.223	0.000
-627.478	46.542	-0.335	0.396
-626.463	298.657	0.078	-0.183
-625.449	165.287	0.063	-0.114
-624.434	-79.360	-0.167	-0.072
-623.419	171.901	0.243	-0.445
-622.405	-122.782	0.428	0.087
-621.390	-51.037	0.109	0.065
-620.376	67.887	0.163	-0.213
-619.361	-145.654	-0.394	0.044
-618.346	-200.000	-0.016	-0.349
-617.332	-24.639	-0.294	0.223
-616.317	256.399	0.061	0.133
-615.303	-200.000	-0.032	-0.204
-614.288	-171.731	-0.560	0.023
-613.273	59.477	0.344	-0.431
-612.259	-47.671	0.232	0.143
-611.244	800.000	-0.155	0.686
-610.230	18.036	0.271	0.275
-609.215	104.141	-0.097	-0.145
-608.201	-33.492	-0.070	-0.049
-607.186	-80.948	0.234	-0.098
-606.171	-18.308	0.451	0.358
-605.157	-36.699	0.186	0.127
-604.142	800.000	-0.038	-0.182
-603.128	-200.000	0.003	0.334
-602.113	1.620	0.265	-0.243
-601.098	76.701	-0.268	-0.362
-600.084	-200.000	0.063	0.451
-599.069	-92.445	-0.241	0.086
-598.055	219.098	0.197	0.402
-597.040	-186.182	0.678	-0.012
-596.025	-11.317	-0.393	-0.329
-595.011	800.000	0.068	-0.317
-593.996	16.451	0.085	0.085
-592.982	-200.000	0.005	-0.402
-591.967	3.055	-0.391	-0.361
-590.952	33.060	0.110	0.121
-589.938	163.739	0.168	0.302
-588.923	585.416	0.063	-0.198
-587.909	-125.674	0.362	0.069
-586.894	-108.793	0.116	-0.031
-585.879	-86.794	-0.148	0.057
-584.865	10.807	-0.415	-0.402
-583.850	-159.832	-0.235	-0.016
-582.836	171.096	0.202	-0.369
-581.821	15.801	-0.331	-0.331
-580.806	-79.989	-0.366	-0.156
-579.792	-26.881	-0.274	-0.203
-578.777	-75.861	0.360	0.161
-577.763	-200.000	0.002	0.276
-576.748	-140.750	-0.450	-0.058
-575.733	800.000	-0.048	0.234
-574.719	-200.000	0.037	-0.327
-573.704	800.000	0.069	-0.369
-572.690	-123.180	-0.303	0.061
-571.675	-82.261	-0.449	-0.185
-570.661	311.731	-0.115	-0.276
-569.646	-0.611	0.155	0.140
-568.631	95.573	0.039	-0.056
-567.617	-85.282	-0.452	0.178
-566.602	204.810	0.110	-0.218
-565.588	36.407	0.417	-0.467
-564.573	-32.959	-0.291	-0.205
-563.558	-200.000	0.002	0.383
-562.544	-86.483	0.539	-0.209
-561.529	-152.553	0.418	0.038
-560.515	215.336	-0.115	-0.232
-559.500	-24.459	-0.280	-0.211
-558.485	-104.768	0.318	0.092
-557.471	800.000	0.049	-0.237
-556.456	800.000	-0.010	-0.051
-555.442	98.399	0.154	-0.226
-554.427	-87.687	0.122	0.046
-553.412	800.000	0.089	-0.481
-552.398	800.000	0.058	-0.279
-551.383	33.460	0.286	-0.315
-550.369	-200.000	0.014	0.119
-549.354	-143.689	-0.152	-0.018
-548.339	-10.795	0.166	-0.139
-547.325	-82.025	0.581	0.240
-546.310	-150.972	-0.309	0.029
-545.296	-98.335	-0.289	0.094
-544.281	185.851	0.253	-0.480
-543.266	272.353	-0.040	0.091
-542.252	-46.579	-0.316	-0.196
-541.237	128.984	0.289	-0.469
-540.223	-8.825	-0.165	0.140
-539.208	43.744	-0.253	-0.294
-538.193	-3.119	-0.522	-0.461
-537.179	-81.854	-0.299	-0.124
-536.164	-140.193	-0.306	-0.040
-535.150	-112.277	0.366	0.092
-534.135	65.889	-0.240	0.309
-533.121	675.902	-0.044	0.147
-532.106	-108.781	0.491	0.132
-531.091	131.566	0.167	-0.273
-530.077	-200.000	0.013	-0.313
-529.062	-7.906	-0.291	0.249
-528.048	-134.285	-0.294	0.045
-527.033	-140.518	0.366	0.048
-526.018	-76.476	0.345	-0.153
-525.004	800.000	-0.063	-0.346
-523.989	-52.123	-0.067	-0.039
-522.975	77.843	-0.084	0.114
-521.960	-148.776	0.289	0.029
-520.945	334.779	-0.035	-0.087
-519.931	44.145	-0.222	-0.258
-518.916	-200.000	0.020	-0.234
-517.902	145.720	0.167	-0.285
-516.887	59.847	-0.137	-0.171
-515.872	182.411	-0.228	-0.428
-514.858	-153.538	-0.512	-0.044
-513.843	-200.000	-0.034	0.429
-512.829	68.855	-0.130	-0.169
-511.814	-27.158	0.216	0.159
-510.799	-200.000	-0.013	-0.371
-509.785	-49.186	-0.140	-0.084
-508.770	-45.564	-0.337	-0.211
-507.756	679.572	-0.092	0.305
-506.741	-173.411	-0.250	-0.009
-505.726	-35.756	0.233	0.159
-504.712	-103.608	0.296	0.087
-503.697	-200.000	0.366	0.001
-502.683	-35.872	0.554	0.379
-501.668	254.556	0.210	0.457
-500.653	-105.963	0.214	-0.061
-499.639	475.119	0.103	-0.296
-498.624	77.551	0.156	-0.211
-497.610	800.000	0.084	0.397
-496.595	713.165	-0.122	0.412
-495.581	22.364	-0.072	0.075
-494.566	32.516	0.298	-0.326
-493.551	-110.151	0.112	-0.029
-492.537	-131.671	0.684	0.113
-491.522	-2.041	0.245	-0.218
-490.508	-5.539	0.298	0.259
-489.493	-68.578	0.186	-0.091
-488.478	33.448	-0.292	-0.321
-487.464	-200.000	-0.051	0.365
-486.449	-15.350	-0.131	-0.106
-485.435	800.000	-0.028	-0.109
-484.420	-43.460	-0.097	-0.062
-483.405	-119.758	-0.328	-0.071
-482.391	-10.553	-0.169	-0.142
-481.376	-56.430	0.212	0.119
-480.362	130.150	0.158	-0.256
-479.347	-200.000	0.109	-0.771
-478.332	-200.000	-0.082	-0.459
-477.318	285.974	0.222	0.508
-476.303	-200.000	-0.044	0.470
-475.289	-4.557	0.210	0.184
-474.274	94.970	-0.046	-0.067
-473.259	-85.437	0.400	-0.157
-472.245	-200.000	0.004	-0.166
-471.230	-85.453	-0.242	0.095
-470.216	430.523	-0.089	0.246
-469.201	49.875	0.058	-0.070
-468.186	-200.000	-0.013	-0.145
-467.172	-76.714	0.081	-0.036
-466.157	-90.029	-0.228	-0.084
-465.143	86.871	-0.367	0.513
-464.128	126.670	0.134	0.215
-463.113	172.898	-0.291	0.532
-462.099	21.083	-0.093	0.096
-461.084	-25.300	-0.111	0.083
-460.070	798.738	0.070	0.247
-459.055	-116.568	0.254	-0.059
-458.040	-83.449	0.321	0.129
-457.026	800.000	0.043	0.203
-456.011	-87.648	0.288	0.109
-454.997	800.000	0.073	-0.283
-453.982	-200.000	0.080	-0.518
-452.968	145.218	-0.088	0.149
-451.953	4.905	0.322	0.299
-450.938	514.285	0.116	0.343
-449.924	-200.000	-0.013	-0.153
-448.909	-50.719	0.348	0.206
-447.895	-65.571	0.082	-0.041
-446.880	-200.000	-0.013	-0.165
-445.865	-32.159	0.102	-0.072
-444.851	14.733	0.127	-0.125
-443.836	365.211	-0.239	0.611
-442.822	170.158	-0.152	0.276
-441.807	6.536	-0.052	0.049
-440.792	539.726	0.120	-0.363
-439.778	800.000	-0.039	0.164
-438.763	-64.435	-0.511	0.261
-437.749	420.616	0.078	0.212
-436.734	750.135	-0.095	0.326
-435.719	-50.099	-0.551	0.329
-434.705	-151.799	-0.324	0.030
-433.690	6.397	0.225	0.211
-432.676	-200.000	0.053	-0.648
-431.661	-200.000	0.013	0.075
-430.646	-32.248	-0.335	0.236
-429.632	-83.174	0.364	-0.147
-428.617	-40.554	0.147	-0.096
-427.603	71.681	-0.154	0.202
-426.588	50.554	-0.148	0.176
-425.573	37.179	0.144	0.161
-424.559	674.518	0.066	0.219
-423.544	207.229	-0.266	0.525
-422.530	41.705	0.048	0.055
-421.515	-143.091	0.300	0.036
-420.500	800.000	0.055	0.219
-419.486	-14.808	-0.220	-0.178
-418.471	-110.020	0.267	-0.070
-417.457	288.416	-0.064	0.148
-416.442	-120.790	0.232	-0.049
-415.428	-125.628	0.452	-0.086
-414.413	800.000	-0.076	0.285
-413.398	136.325	-0.065	-0.107
-412.384	-200.000	0.042	-0.509
-411.369	800.000	-0.020	-0.092
-410.355	720.006	-0.106	-0.359
-409.340	800.000	0.032	-0.168
-408.325	-164.773	0.403	-0.023
-407.311	109.125	-0.158	-0.239
-406.296	-119.676	-0.849	-0.184
-405.282	142.756	-0.242	0.407
-404.267	81.985	-0.036	-0.049
-403.252	275.287	0.104	-0.233
-402.238	-200.000	-0.040	-0.252
-401.223	0.185	0.273	0.246
-400.209	-50.228	0.093	-0.055
-399.194	299.355	0.112	-0.261
-398.179	-90.088	-0.419	-0.153
-397.165	-200.000	0.007	-0.100
-396.150	96.030	0.235	-0.339
-395.136	160.942	-0.115	0.203
-394.121	-88.732	-0.160	-0.060
-393.106	119.559	0.320	0.500
-392.092	112.900	-0.185	-0.283
-391.077	435.215	-0.140	-0.385
-390.063	-200.000	0.013	0.306
-389.048	-200.000	0.065	0.385
-388.033	-92.334	-0.132	0.046
-387.019	14.602	0.138	-0.136
-386.004	-78.352	-0.130	-0.056
-384.990	-200.000	-0.020	0.160
-383.975	242.719	-0.202	0.429
-382.960	-121.998	-0.293	-0.060
-381.946	658.252	0.061	-0.198
-380.931	-83.146	0.135	-0.054
-379.917	51.354	-0.071	0.085
-378.902	-79.176	0.155	-0.066
-377.888	13.939	-0.149	0.146
-376.873	313.197	-0.099	0.236
-375.858	19.314	-0.314	0.318
-374.844	-72.913	-0.330	0.152
-373.829	340.695	0.105	0.261
-372.815	800.000	-0.035	-0.183
-371.800	-106.905	-0.163	-0.045
-370.785	-126.996	-0.668	-0.123
-369.771	-81.354	-0.161	-0.067
-368.756	122.389	0.169	0.267
-367.742	40.061	0.283	0.320
-366.727	258.317	-0.059	0.128
-365.712	36.273	-0.393	-0.437
-364.698	40.512	-0.050	0.056
-363.683	800.000	0.144	0.754
-362.669	800.000	-0.049	0.216
-361.654	800.000	-0.056	0.302
-360.639	-75.854	0.170	-0.075
-359.625	-12.263	0.209	-0.172
-358.610	-200.000	-0.014	0.086
-357.596	185.376	0.096	-0.180
-356.581	38.166	-0.244	-0.274
-355.566	33.043	0.225	0.245
-354.552	-200.000	0.034	0.268
-353.537	292.315	0.079	0.181
-352.523	-200.000	0.077	0.503
-351.508	-79.834	-0.438	0.185
-350.493	-200.000	0.025	-0.339
-349.479	-96.796	-0.318	0.105
-348.464	253.152	-0.135	0.291
-347.450	197.153	-0.106	-0.205
-346.435	259.526	-0.172	-0.376
-345.420	-15.604	-0.505	0.405
-344.406	800.000	0.113	-0.497
-343.391	-19.201	-0.173	-0.135
-342.377	-200.000	0.020	-0.359
-341.362	33.143	0.150	-0.164
-340.348	-30.989	-0.328	0.232
-339.333	-61.875	-0.532	-0.279
-338.318	-172.073	0.551	0.022
-337.304	-26.247	0.181	-0.133
-336.289	102.444	-0.155	0.228
-335.275	-200.000	-0.057	0.391
-334.260	-30.224	-0.292	-0.208
-333.245	-194.381	0.487	0.005
-332.231	145.306	-0.239	-0.403
-331.216	27.981	0.340	-0.361
-330.202	-200.000	-0.064	0.617
-329.187	-67.788	0.248	-0.122
-328.172	-40.499	-0.312	-0.203
-327.158	-115.739	-0.549	-0.128
-326.143	211.631	-0.157	-0.313
-325.129	30.821	0.529	0.570
-324.114	458.082	0.103	-0.290
-323.099	-43.965	0.325	0.205
-322.085	-79.986	-0.301	0.127
-321.070	-167.408	-0.463	-0.023
-320.056	212.765	0.092	-0.184
-319.041	100.576	-0.169	-0.248
-318.026	-173.305	-0.363	0.014
-317.012	-91.820	0.242	-0.086
-315.997	-200.000	-0.088	0.593
-314.983	117.017	0.066	-0.102
-313.968	-73.864	-0.151	-0.069
-312.953	-86.969	-0.289	-0.110
-311.939	-200.000	-0.016	0.299
-310.924	-104.158	-0.252	-0.073
-309.910	657.336	-0.078	0.253
-308.895	-151.117	0.799	0.074
-307.880	268.945	-0.055	-0.121
-306.866	-102.062	0.032	-0.010
-305.851	346.112	0.093	-0.231
-304.837	-6.534	-0.464	-0.397
-303.822	-45.753	-0.270	0.167
-302.807	185.486	0.355	0.665
-301.793	-158.228	-0.271	-0.020
-300.778	-200.000	0.038	-0.276
-299.764	403.438	-0.081	0.214
-298.749	19.225	0.155	0.156
-297.735	-5.500	0.310	-0.267
-296.720	575.764	-0.107	-0.330
-295.705	476.102	-0.143	0.408
-294.691	-94.171	-0.101	-0.035
-293.676	-200.000	-0.044	0.378
-292.662	-82.505	0.279	0.113
-291.647	41.109	-0.220	0.249
-290.632	33.888	0.456	0.499
-289.618	-200.000	0.110	0.642
-288.603	-200.000	-0.012	0.169
-287.589	800.000	-0.054	-0.257
-286.574	-200.000	0.008	-0.483
-285.559	12.936	0.319	0.309
-284.545	-164.206	0.116	0.007
-283.530	305.436	-0.106	0.248
-282.516	800.000	-0.076	-0.372
-281.501	-172.555	-0.393	-0.015
-280.486	-200.000	0.062	0.468
-279.472	-135.686	-0.332	0.049
-278.457	-200.000	0.022	-0.493
-277.443	25.858	0.201	0.210
-276.428	323.863	-0.183	0.440
-275.413	-91.862	0.500	0.177
-274.399	88.835	-0.185	-0.259
-273.384	28.972	0.388	-0.413
-272.370	347.700	0.222	0.551
-271.355	-33.059	0.161	0.112
-270.340	-117.488	-0.276	-0.062
-269.326	800.000	0.108	-0.473
-268.311	28.596	0.092	-0.097
-267.297	-91.129	-0.204	-0.073
-266.282	-171.702	0.058	0.002
-265.267	-150.296	0.065	0.006
-264.253	-57.727	0.098	0.053
-263.238	-163.973	-0.226	-0.013
-262.224	800.000	-0.068	0.291
-261.209	105.516	-0.053	-0.078
-260.195	-53.500	0.290	0.166
-259.180	-106.949	0.189	0.052
-258.165	6.833	0.403	0.376
-257.151	-200.000	0.698	-0.003
-256.136	-149.152	0.082	0.008
-255.122	373.402	0.095	-0.244
-254.107	-25.334	-0.162	0.120
-253.092	725.087	0.038	-0.128
-252.078	192.553	-0.137	0.261
-251.063	-200.000	0.002	0.216
-250.049	-61.362	-0.546	0.287
-249.034	-200.000	-0.003	0.276
-248.019	-176.453	-0.531	-0.017
-247.005	-152.335	0.199	-0.018
-245.990	-200.000	0.036	-0.447
-244.976	-44.015	0.141	0.089
-243.961	-159.046	0.326	-0.023
-242.946	18.254	0.423	0.423
-241.932	-64.891	0.146	-0.074
-240.917	800.000	-0.071	-0.328
-239.903	6.882	-0.524	0.489
-238.888	-33.146	0.314	0.218
-237.873	33.593	-0.065	0.071
-236.859	-88.273	-0.172	0.064
-235.844	-200.000	0.028	0.262
-234.830	-200.000	-0.005	-0.287
-233.815	-109.286	-0.447	0.118
-232.800	61.197	-0.226	0.281
-231.786	627.671	0.026	0.082
-230.771	10.907	0.276	0.264
-229.757	-30.144	0.345	0.245
-228.742	-66.285	-0.050	-0.025
-227.727	60.252	0.114	0.142
-226.713	-64.458	0.163	0.083
-225.698	206.157	-0.144	-0.282
-224.684	231.520	-0.145	-0.298
-223.669	-47.085	-0.225	0.137
-222.655	-180.147	-0.031	0.001
-221.640	-65.318	0.357	0.179
-220.625	-168.228	0.193	0.009
-219.611	-127.519	-0.464	0.084
-218.596	-200.000	0.078	-0.450
-217.582	-0.016	0.327	-0.292
-216.567	-75.341	0.544	-0.242
-215.552	747.619	0.128	-0.435
-214.538	800.000	-0.018	0.079
-213.523	-70.659	0.235	-0.111
-212.509	586.636	0.054	0.166
-211.494	-200.000	-0.037	0.233
-210.479	386.125	-0.039	-0.100
-209.465	-76.612	-0.302	-0.132
-208.450	36.062	-0.294	-0.325
-207.436	-200.000	-0.026	-0.302
-206.421	-166.618	0.189	0.010
-205.406	799.696	-0.133	0.462
-204.392	47.187	-0.285	0.332
-203.377	245.665	-0.164	0.347
-202.363	-33.692	0.169	-0.116
-201.348	-67.671	0.295	0.144
-200.333	-110.765	-0.182	0.047
-199.319	18.366	0.216	-0.216
-198.304	-200.000	-0.010	-0.298
-197.290	164.696	-0.129	-0.229
-196.275	-12.974	-0.108	0.088
-195.260	-45.598	0.123	0.076
-194.246	314.145	0.037	-0.088
-193.231	-3.241	0.290	0.252
-192.217	-7.391	0.082	-0.070
-191.202	-6.050	-0.112	0.096
-190.187	800.000	-0.096	0.465
-189.173	292.549	-0.046	-0.105
-188.158	800.000	-0.014	0.079
-187.144	-64.246	0.522	0.265
-186.129	800.000	0.126	0.606
-185.114	286.270	0.153	-0.347
-184.100	0.729	-0.364	-0.325
-183.085	-24.569	0.184	0.137
-182.071	-24.247	0.072	0.054
-181.056	-96.435	0.457	0.150
-180.042	31.369	-0.136	0.146
-179.027	-26.193	0.119	0.087
-178.012	19.854	-0.368	-0.371
-176.998	128.967	-0.185	0.296
-175.983	-61.592	0.151	-0.079
-174.969	-105.397	-0.207	0.059
-173.954	60.847	0.180	-0.224
-172.939	-200.000	0.008	-0.085
-171.925	-96.209	-0.322	-0.106
-170.910	521.312	-0.028	0.082
-169.896	27.971	-0.379	0.400
-168.881	-117.364	-0.575	0.129
-167.866	-62.617	-0.027	0.014
-166.852	24.650	0.216	0.224
-165.837	-99.900	0.311	0.096
-164.823	-200.000	0.069	-0.426
-163.808	-12.109	0.289	-0.236
-162.793	402.089	0.132	0.347
-161.779	432.639	-0.069	0.189
-160.764	-84.279	0.329	0.130
-159.750	-11.593	0.212	-0.174
-158.735	-95.345	0.400	-0.134
-157.720	-115.492	-0.271	0.063
-156.706	281.670	0.121	0.272
-155.691	-200.000	-0.027	-0.537
-154.677	-102.875	0.247	-0.073
-153.662	-150.556	0.673	-0.064
-152.647	-24.462	-0.393	-0.292
-151.633	-200.000	-0.093	-0.657
-150.618	-200.000	-0.038	-0.488
-149.604	-106.661	-0.520	-0.144
-148.589	93.956	-0.147	-0.208
-147.574	73.138	-0.266	0.348
-146.560	205.576	-0.150	0.293
-145.545	521.491	-0.044	-0.131
-144.531	-113.532	0.262	0.064
-143.516	800.000	0.088	0.484
-142.502	-119.988	-0.364	-0.077
-141.487	175.059	0.304	-0.551
-140.472	4.070	0.147	-0.134
-139.458	-114.359	0.422	0.101
-138.443	-56.841	0.390	-0.214
-137.429	24.873	-0.176	0.183
-136.414	10.475	0.087	0.082
-135.399	-14.902	0.157	0.126
-134.385	129.568	-0.336	0.538
-133.370	-94.997	-0.411	0.138
-132.356	-170.476	0.209	0.009
-131.341	-102.627	0.267	0.079
-130.326	-123.680	0.165	-0.032
-129.312	782.684	-0.073	0.252
-128.297	-146.926	-0.226	-0.024
-127.283	239.595	0.091	-0.190
-126.268	-135.698	0.235	-0.034
-125.253	523.628	-0.064	0.189
-124.239	573.556	-0.111	-0.340
-123.224	53.218	-0.233	0.278
-122.210	151.873	0.203	0.346
-121.195	463.601	0.102	-0.287
-120.180	227.344	0.107	-0.219
