DTS Sentinel unit serial number:	SN409020Multiplexer serial number:	ORYXHardware model number:	OX4-SRSoftware version number:	ORYX F/W v3.00 Oryx Data Collector v3.7.2.0data status	okinstallation	HaddamTimeLapsedifferential loss correction	single-endedforward channel	channel 3reverse channel	N/Adate	2011/06/22time	00:21:17forward acquisition time	30.00reverse acquisition time	0.00gamma	498.7831k internal	0.1752k external	0.1752temperature offset calibration	1.0074default loss term (dB/km)	0.3790temperature slope calibration	1.3530multiplexer offset coefficient	1.0000multiplexer slope coefficient	1.0000fibre end	0.00T internal ref (°C)	22.75T ext. ref 1 (°C)	18.03T ext. ref 2 (°C)	0.05length (m)	temperature (°C)	Stokes	anti-Stokes-747.200	202.917	0.073	0.149
-746.185	-98.389	-0.606	0.205
-745.171	-128.475	0.555	0.104
-744.156	233.614	-0.106	0.232
-743.142	-82.228	-0.240	-0.103
-742.127	800.000	0.104	0.526
-741.112	-36.589	-0.108	0.077
-740.098	535.424	0.065	-0.207
-739.083	532.733	-0.021	0.067
-738.069	-124.837	0.054	0.011
-737.054	-66.504	-0.064	0.033
-736.039	-170.297	-0.467	-0.021
-735.025	-200.000	-0.168	0.000
-734.010	83.623	0.173	-0.251
-732.996	-200.000	-0.014	0.141
-731.981	-151.648	-0.206	0.020
-730.966	-200.000	-0.054	-0.350
-729.952	800.000	0.090	-0.340
-728.937	122.077	-0.101	0.168
-727.923	-132.148	-0.374	-0.064
-726.908	310.044	-0.213	0.530
-725.894	800.000	-0.083	-0.334
-724.879	-200.000	-0.004	0.176
-723.864	162.768	-0.209	-0.390
-722.850	-163.860	0.184	-0.011
-721.835	-13.803	0.290	0.249
-720.821	-75.851	0.562	-0.263
-719.806	64.039	-0.095	-0.126
-718.791	-138.236	-0.437	0.064
-717.777	483.993	-0.123	-0.372
-716.762	-150.072	0.562	0.057
-715.748	-130.509	0.357	-0.063
-714.733	-119.954	0.350	0.079
-713.718	-67.967	0.295	-0.152
-712.704	800.000	0.087	-0.381
-711.689	-78.467	0.101	0.046
-710.675	-114.980	0.086	-0.021
-709.660	-200.000	0.032	-0.275
-708.645	-80.473	0.176	0.077
-707.631	244.928	-0.153	-0.343
-706.616	222.112	0.035	-0.074
-705.602	18.303	0.111	-0.117
-704.587	132.993	-0.174	-0.298
-703.572	164.173	-0.060	-0.112
-702.558	61.980	0.110	-0.145
-701.543	-88.297	-0.555	-0.219
-700.529	-200.000	0.025	0.410
-699.514	-58.649	0.241	-0.138
-698.499	9.994	-0.279	-0.281
-697.485	-200.000	-0.021	-0.366
-696.470	-0.393	0.296	-0.279
-695.456	244.552	-0.006	-0.014
-694.441	-84.255	-0.194	0.081
-693.426	-143.905	-0.156	0.019
-692.412	-200.000	-0.006	0.192
-691.397	-25.395	-0.137	-0.107
-690.383	129.496	-0.175	-0.296
-689.368	-117.027	-0.180	0.043
-688.354	22.193	-0.340	-0.368
-687.339	-25.617	-0.087	-0.068
-686.324	250.290	-0.050	-0.113
-685.310	507.547	0.197	-0.608
-684.295	103.410	0.231	-0.359
-683.281	61.655	0.070	-0.093
-682.266	121.050	0.076	0.126
-681.251	-77.896	0.506	-0.230
-680.237	-127.612	0.468	0.089
-679.222	-200.000	0.058	-0.431
-678.208	-111.666	-0.570	-0.152
-677.193	-62.924	0.177	0.097
-676.178	4.651	0.171	0.166
-675.164	-170.567	-0.463	-0.021
-674.149	-105.864	0.238	-0.071
-673.135	-118.873	0.149	-0.034
-672.120	356.250	-0.100	0.265
-671.105	-99.479	-0.288	-0.095
-670.091	-107.030	0.256	-0.075
-669.076	192.579	-0.102	0.205
-668.062	26.561	0.215	-0.238
-667.047	778.998	-0.044	-0.161
-666.032	165.195	0.074	-0.140
-665.018	-58.611	-0.243	0.139
-664.003	-71.883	0.263	0.129
-662.989	-0.838	0.204	0.191
-661.974	62.844	0.132	0.175
-660.959	-189.014	0.437	-0.007
-659.945	-200.000	0.015	0.441
-658.930	25.226	-0.292	0.321
-657.916	634.791	0.090	0.304
-656.901	-132.664	0.373	0.063
-655.886	8.466	-0.173	0.172
-654.872	126.439	-0.223	-0.374
-653.857	-29.257	-0.420	0.318
-652.843	180.219	0.093	0.181
-651.828	-112.159	-0.210	0.055
-650.814	-200.000	-0.046	0.289
-649.799	-171.718	-0.190	-0.008
-648.784	-31.897	0.231	0.171
-647.770	-14.865	0.245	-0.207
-646.755	-102.742	-0.428	0.134
-645.741	-163.774	-0.233	0.014
-644.726	-94.791	-0.805	-0.287
-643.711	11.954	0.045	-0.046
-642.697	-63.861	-0.504	0.272
-641.682	34.858	-0.188	0.218
-640.668	-129.219	-0.244	-0.045
-639.653	800.000	-0.084	0.313
-638.638	1.332	-0.428	0.406
-637.624	35.794	0.131	-0.152
-636.609	800.000	-0.036	0.153
-635.595	800.000	-0.012	-0.046
-634.580	-200.000	-0.017	0.191
-633.565	800.000	0.040	0.172
-632.551	800.000	0.043	0.160
-631.536	800.000	-0.089	-0.492
-630.522	370.437	-0.050	-0.134
-629.507	-151.824	-0.316	0.030
-628.492	419.769	0.057	0.161
-627.478	36.470	0.279	-0.326
-626.463	704.450	-0.093	0.326
-625.449	-200.000	0.015	-0.120
-624.434	-116.358	0.458	0.111
-623.419	-116.952	0.551	-0.132
-622.405	192.448	0.109	0.219
-621.390	-24.387	0.108	-0.085
-620.376	-70.321	-0.302	0.151
-619.361	11.010	0.171	0.172
-618.346	69.485	-0.231	0.314
-617.332	110.117	0.302	-0.479
-616.317	719.367	-0.053	-0.188
-615.303	-57.230	-0.241	-0.140
-614.288	-200.000	-0.036	-0.362
-613.273	80.129	0.440	0.626
-612.259	95.408	-0.128	0.192
-611.244	4.605	0.092	0.089
-610.230	115.097	0.219	-0.353
-609.215	334.806	0.063	-0.161
-608.201	9.701	0.042	-0.042
-607.186	-13.516	-0.121	-0.103
-606.171	-46.357	-0.168	0.108
-605.157	102.649	-0.043	0.067
-604.142	58.457	-0.138	-0.180
-603.128	-157.521	-0.206	0.016
-602.113	9.833	-0.356	0.357
-601.098	-71.742	0.535	0.262
-600.084	-191.707	0.559	-0.007
-599.069	202.811	0.164	0.336
-598.055	1.469	0.106	-0.100
-597.040	-144.010	-0.208	0.025
-596.025	-126.818	-0.322	-0.062
-595.011	-174.776	-0.047	-0.002
-593.996	-113.825	0.572	0.146
-592.982	14.529	-0.260	0.268
-591.967	147.625	0.283	0.505
-590.952	-40.440	0.347	-0.238
-589.938	762.937	0.085	-0.305
-588.923	-117.604	0.370	0.087
-587.909	-114.470	-0.073	0.018
-586.894	-13.766	0.111	-0.095
-585.879	-133.496	0.193	0.032
-584.865	-100.035	-0.334	-0.109
-583.850	3.064	0.066	-0.064
-582.836	5.535	-0.411	-0.401
-581.821	45.473	-0.256	0.312
-580.806	-135.680	-0.323	-0.050
-579.792	-188.913	-0.133	0.002
-578.777	-75.274	-0.267	-0.125
-577.763	-133.359	-0.209	-0.034
-576.748	-138.769	0.136	-0.019
-575.733	-47.606	-0.218	0.139
-574.719	-21.473	-0.286	-0.230
-573.704	109.027	0.023	-0.036
-572.690	149.979	0.347	0.621
-571.675	-14.342	-0.304	0.258
-570.661	53.181	-0.259	0.327
-569.646	-200.000	0.065	0.541
-568.631	-39.014	-0.169	0.117
-567.617	35.665	-0.143	0.166
-566.602	-127.107	-0.020	-0.004
-565.588	4.215	-0.255	-0.246
-564.573	105.570	-0.146	0.228
-563.558	35.844	0.359	-0.416
-562.544	-200.000	-0.038	-0.294
-561.529	248.178	0.156	0.349
-560.515	58.054	0.216	-0.279
-559.500	-45.941	0.210	-0.136
-558.485	800.000	-0.125	0.550
-557.471	-60.359	-0.210	-0.117
-556.456	115.918	-0.090	-0.146
-555.442	81.077	-0.231	0.329
-554.427	60.753	-0.186	-0.243
-553.412	-117.450	0.293	0.069
-552.398	-142.825	-0.299	-0.038
-551.383	81.254	0.022	0.032
-550.369	-116.700	0.271	-0.065
-549.354	800.000	-0.085	-0.469
-548.339	93.420	0.413	0.616
-547.325	-134.945	0.110	0.017
-546.310	-131.932	0.131	-0.022
-545.296	539.668	0.046	-0.146
-544.281	-72.668	0.377	0.183
-543.266	30.904	0.415	-0.468
-542.252	-126.129	-0.330	0.065
-541.237	114.774	-0.050	-0.080
-540.223	115.263	-0.109	0.176
-539.208	-91.960	-0.189	0.070
-538.193	-200.000	-0.038	0.310
-537.179	800.000	-0.080	-0.396
-536.164	-43.478	0.031	-0.020
-535.150	800.000	0.077	0.331
-534.135	-200.000	-0.039	-0.376
-533.121	-39.440	-0.038	0.026
-532.106	-89.372	-0.463	-0.179
-531.091	163.093	-0.193	-0.358
-530.077	-115.339	0.456	-0.113
-529.062	-55.980	0.256	-0.150
-528.048	98.510	-0.227	0.345
-527.033	60.387	-0.243	0.317
-526.018	-35.002	-0.294	-0.210
-525.004	428.946	-0.075	0.213
-523.989	728.731	0.079	0.279
-522.975	800.000	-0.062	-0.342
-521.960	-109.942	-0.420	-0.115
-520.945	-85.818	-0.417	0.169
-519.931	63.982	-0.369	-0.489
-518.916	-69.365	0.190	0.096
-517.902	-183.645	-0.415	0.009
-516.887	-169.193	0.276	-0.013
-515.872	-95.494	-0.105	0.037
-514.858	-121.280	0.693	0.151
-513.843	-148.892	-0.209	-0.022
-512.829	619.104	-0.086	-0.285
-511.814	268.224	-0.152	-0.351
-510.799	53.117	0.302	-0.381
-509.785	-113.698	-0.631	-0.161
-508.770	-1.189	-0.209	0.194
-507.756	-146.160	0.701	-0.080
-506.741	210.561	0.181	-0.374
-505.726	-63.208	-0.428	0.231
-504.712	-144.565	0.170	0.020
-503.697	102.018	0.113	0.174
-502.683	800.000	0.105	0.475
-501.668	-43.156	0.046	-0.031
-500.653	-200.000	-0.044	-0.324
-499.639	-34.755	0.190	-0.136
-498.624	-126.703	-0.386	-0.074
-497.610	113.730	-0.098	-0.156
-496.595	-130.496	-0.600	-0.106
-495.581	-74.663	0.054	-0.026
-494.566	-173.967	-0.202	0.008
-493.551	-92.094	0.157	0.058
-492.537	22.842	-0.144	-0.155
-491.522	30.757	-0.161	0.181
-490.508	43.112	0.127	0.153
-489.493	-90.469	0.056	0.021
-488.478	83.860	0.252	-0.362
-487.464	-142.408	-0.342	0.044
-486.449	-200.000	0.008	0.051
-485.435	100.063	-0.082	0.125
-484.420	-155.527	-0.639	-0.053
-483.405	43.107	0.122	-0.147
-482.391	77.313	0.168	-0.234
-481.376	10.193	0.048	0.048
-480.362	-200.000	-0.018	-0.218
-479.347	-200.000	0.031	0.429
-478.332	28.564	-0.143	0.159
-477.318	59.823	0.209	-0.272
-476.303	-200.000	0.024	0.289
-475.289	-200.000	0.009	-0.420
-474.274	-200.000	-0.066	-0.395
-473.259	-30.745	0.092	-0.068
-472.245	-162.638	-0.677	0.043
-471.230	-141.933	-0.214	0.028
-470.216	2.947	-0.086	-0.082
-469.201	241.742	-0.242	-0.532
-468.186	31.143	-0.129	-0.145
-467.172	124.319	0.255	0.423
-466.157	-200.000	-0.051	0.332
-465.143	-26.824	-0.225	-0.173
-464.128	-133.668	-0.219	-0.036
-463.113	17.664	-0.348	0.364
-462.099	774.598	0.068	0.244
-461.084	-76.572	0.301	-0.138
-460.070	57.523	-0.241	0.309
-459.055	706.210	-0.131	0.457
-458.040	-21.244	-0.300	0.240
-457.026	-33.359	-0.480	0.348
-456.011	6.015	0.155	0.151
-454.997	800.000	0.066	0.330
-453.982	-83.181	0.219	0.092
-452.968	27.178	-0.018	-0.020
-451.953	800.000	-0.062	0.333
-450.938	-44.724	0.397	0.259
-449.924	64.420	0.309	0.409
-448.909	-112.573	0.436	0.113
-447.895	800.000	0.067	-0.287
-446.880	125.468	-0.125	0.207
-445.865	294.928	-0.120	-0.289
-444.851	-3.423	0.122	-0.111
-443.836	92.244	-0.143	0.212
-442.822	-30.182	-0.531	-0.395
-441.807	28.827	0.167	0.186
-440.792	330.374	0.119	-0.301
-439.778	349.329	-0.210	0.547
-438.763	-2.392	-0.187	0.172
-437.749	-200.000	0.004	0.338
-436.734	166.071	0.145	0.270
-435.719	-16.626	-0.227	0.188
-434.705	64.427	0.068	0.090
-433.690	413.396	0.032	0.089
-432.676	-134.768	-0.343	0.054
-431.661	-74.569	-0.250	-0.117
-430.646	386.299	-0.128	0.349
-429.632	36.016	0.126	0.146
-428.617	444.153	0.098	0.282
-427.603	-87.047	0.239	-0.095
-426.588	-146.755	0.171	-0.019
-425.573	-57.115	0.151	-0.087
-424.559	175.507	-0.282	0.538
-423.544	740.776	-0.178	-0.630
-422.530	-181.140	-0.176	-0.005
-421.515	-200.000	0.013	0.124
-420.500	211.238	-0.092	0.191
-419.486	-109.670	-0.199	-0.055
-418.471	-68.608	-0.307	0.155
-417.457	-49.212	-0.399	0.249
-416.442	123.993	0.154	0.253
-415.428	18.220	0.382	-0.400
-414.413	134.979	-0.141	-0.240
-413.398	-200.000	0.004	-0.176
-412.384	266.919	-0.153	-0.353
-411.369	-111.970	0.442	0.116
-410.355	-136.411	0.318	0.048
-409.340	-200.000	-0.021	0.258
-408.325	-57.936	-0.066	0.037
-407.311	-114.895	-0.327	0.081
-406.296	-134.018	-0.614	0.099
-405.282	-129.347	-0.026	0.005
-404.267	-189.926	0.574	-0.008
-403.252	20.791	0.057	-0.061
-402.238	800.000	0.103	0.381
-401.223	-35.584	-0.373	0.264
-400.209	370.375	0.030	0.081
-399.194	225.008	0.248	0.528
-398.179	-200.000	-0.006	0.100
-397.165	-89.216	0.387	-0.149
-396.150	800.000	0.159	-0.705
-395.136	-14.701	0.205	-0.172
-394.121	-50.093	-0.294	-0.182
-393.106	-123.820	0.140	-0.029
-392.092	376.550	-0.054	0.144
-391.077	-153.935	0.520	-0.046
-390.063	-51.950	0.469	-0.285
-389.048	-116.629	-0.190	-0.045
-388.033	-185.645	0.337	0.007
-387.019	-98.864	0.449	-0.149
-386.004	-80.598	-0.160	0.070
-384.990	125.801	0.191	0.317
-383.975	-68.136	-0.081	-0.041
-382.960	-82.061	-0.444	-0.189
-381.946	-54.216	0.087	-0.051
-380.931	-200.000	-0.008	-0.109
-379.917	-200.000	-0.016	-0.234
-378.902	-71.517	-0.397	0.194
-377.888	91.517	0.237	0.350
-376.873	-50.131	0.309	0.191
-375.858	-88.907	0.295	-0.114
-374.844	-200.000	-0.070	-0.500
-373.829	-71.521	-0.246	0.120
-372.815	-31.105	0.282	-0.208
-371.800	81.321	0.249	-0.352
-370.785	-85.441	0.206	0.083
-369.771	-12.828	0.068	0.058
-368.756	-165.012	0.119	-0.007
-367.742	-28.298	0.119	0.090
-366.727	279.386	-0.182	-0.426
-365.712	153.987	0.164	-0.295
-364.698	44.053	-0.066	-0.079
-363.683	-8.474	-0.202	0.177
-362.669	-96.644	0.208	0.071
-361.654	-44.488	-0.234	0.153
-360.639	-200.000	0.031	0.384
-359.625	-36.479	0.305	0.214
-358.610	133.780	-0.135	0.229
-357.596	526.639	0.050	0.155
-356.581	-55.737	-0.158	0.092
-355.566	-87.129	-0.298	0.118
-354.552	-182.800	-0.268	0.006
-353.537	141.037	-0.107	-0.185
-352.523	-66.387	0.623	-0.323
-351.508	-200.000	-0.049	-0.666
-350.493	-68.094	0.434	0.220
-349.479	-193.952	-0.211	0.002
-348.464	258.093	0.159	-0.359
-347.450	10.495	0.131	-0.130
-346.435	-138.413	-0.116	-0.017
-345.420	-67.093	-0.316	0.162
-344.406	96.369	-0.305	0.457
-343.391	-140.479	-0.175	0.023
-342.377	171.680	-0.108	0.203
-341.362	38.755	0.087	-0.102
-340.348	-5.366	0.526	-0.472
-339.333	157.727	-0.241	0.438
-338.318	-154.228	-0.317	0.028
-337.304	183.530	0.099	-0.191
-336.289	-40.127	-0.165	0.112
-335.275	32.487	0.051	0.057
-334.260	-143.190	-0.050	0.006
-333.245	602.631	-0.008	-0.025
-332.231	-27.116	-0.342	0.260
-331.216	-28.997	0.294	0.220
-330.202	207.641	0.097	-0.199
-329.187	-74.324	0.261	0.123
-328.172	-200.000	-0.001	0.485
-327.158	-101.634	0.385	0.121
-326.143	41.932	-0.032	-0.038
-325.129	-32.199	0.202	0.147
-324.114	-54.372	0.394	0.233
-323.099	305.664	0.064	-0.156
-322.085	-200.000	-0.014	-0.133
-321.070	-60.758	-0.367	-0.202
-320.056	6.850	0.222	-0.215
-319.041	-130.082	0.348	0.062
-318.026	-12.004	0.272	0.233
-317.012	28.352	-0.345	-0.380
-315.997	800.000	0.101	-0.466
-314.983	-100.262	0.264	0.085
-313.968	-58.988	-0.562	-0.316
-312.953	-200.000	0.010	-0.504
-311.939	5.425	0.188	0.181
-310.924	-116.967	0.147	0.035
-309.910	165.344	0.139	-0.257
-308.895	145.700	0.188	-0.330
-307.880	800.000	0.043	-0.232
-306.866	-38.761	-0.736	-0.505
-305.851	75.680	-0.152	-0.210
-304.837	-50.915	0.117	0.072
-303.822	-94.720	-0.229	-0.081
-302.807	800.000	-0.034	-0.172
-301.793	508.817	0.121	-0.369
-300.778	800.000	-0.096	0.424
-299.764	-25.361	-0.212	0.164
-298.749	498.359	0.101	0.304
-297.735	800.000	0.060	0.347
-296.720	-108.692	0.437	-0.121
-295.705	-40.187	0.249	-0.169
-294.691	800.000	0.097	-0.463
-293.676	-165.350	-0.247	0.014
-292.662	105.991	-0.210	-0.325
-291.647	-78.397	0.247	-0.110
-290.632	11.260	-0.134	-0.133
-289.618	14.556	0.518	-0.528
-288.603	147.824	-0.154	-0.272
-287.589	-162.506	0.366	-0.023
-286.574	-119.531	0.417	-0.093
-285.559	-98.050	0.089	0.030
-284.545	-99.485	0.159	0.052
-283.530	242.875	-0.290	0.635
-282.516	-200.000	-0.058	0.397
-281.501	-200.000	0.007	0.402
-280.486	156.481	-0.318	-0.575
-279.472	167.874	-0.024	-0.044
-278.457	-132.832	0.067	-0.011
-277.443	37.452	0.405	-0.468
-276.428	-144.210	0.640	0.077
-275.413	-123.493	0.505	0.104
-274.399	800.000	0.066	0.292
-273.384	-69.043	-0.182	0.091
-272.370	-93.731	-0.198	0.071
-271.355	147.937	-0.312	0.550
-270.340	-108.158	0.396	-0.111
-269.326	-43.629	-0.063	0.041
-268.311	569.713	0.097	0.308
-267.297	-3.535	0.178	-0.161
-266.282	-37.752	-0.106	-0.074
-265.267	-200.000	-0.013	-0.531
-264.253	269.133	-0.076	0.174
-263.238	-200.000	0.007	-0.434
-262.224	-200.000	-0.046	0.393
-261.209	-200.000	0.013	0.116
-260.195	30.713	0.298	-0.332
-259.180	800.000	-0.020	-0.087
-258.165	-6.306	0.233	0.207
-257.151	42.195	0.169	-0.200
-256.136	186.999	-0.102	-0.199
-255.122	486.862	0.182	-0.542
-254.107	60.445	-0.354	-0.457
-253.092	-19.856	0.380	0.305
-252.078	-99.577	0.296	0.096
-251.063	136.193	0.085	0.144
-250.049	-115.576	-0.320	-0.078
-249.034	-10.618	-0.255	-0.220
-248.019	-94.758	-0.360	-0.126
-247.005	-135.950	-0.202	-0.031
-245.990	-51.397	0.409	0.248
-244.976	-100.379	-0.292	0.094
-243.961	247.739	-0.184	-0.407
-242.946	800.000	0.053	0.226
-241.932	-95.147	0.477	-0.166
-240.917	-200.000	-0.025	0.192
-239.903	71.807	0.371	-0.503
-238.888	-200.000	-0.030	-0.181
-237.873	-200.000	-0.434	0.001
-236.859	-124.674	-0.082	-0.016
-235.844	-176.608	0.254	0.008
-234.830	-200.000	-0.003	-0.332
-233.815	289.573	-0.053	-0.126
-232.800	23.085	-0.181	0.194
-231.786	800.000	0.097	0.413
-230.771	-59.138	-0.478	0.267
-229.757	140.785	0.092	-0.159
-228.742	-92.631	0.500	0.181
-227.727	-200.000	-0.004	-0.262
-226.713	-105.495	-0.411	0.121
-225.698	88.889	0.247	-0.357
-224.684	224.132	-0.195	-0.411
-223.669	-200.000	0.004	-0.383
-222.655	70.235	-0.166	-0.223
-221.640	-51.203	-0.566	-0.344
-220.625	304.984	-0.122	0.296
-219.611	-6.857	-0.499	0.440
-218.596	56.754	0.165	-0.209
-217.582	40.015	-0.209	0.245
-216.567	-72.346	-0.221	-0.106
-215.552	-147.070	0.464	0.051
-214.538	21.968	-0.192	-0.204
-213.523	173.364	-0.064	0.121
-212.509	4.010	0.241	-0.229
-211.494	-82.715	0.481	0.201
-210.479	-25.684	0.542	0.415
-209.465	800.000	-0.105	0.413
-208.450	-69.349	-0.492	-0.244
-207.436	60.885	0.246	-0.318
-206.421	800.000	0.055	-0.287
-205.406	-152.929	-0.250	-0.023
-204.392	-200.000	-0.048	0.352
-203.377	-93.353	0.122	0.044
-202.363	54.353	-0.189	-0.236
-201.348	47.937	0.220	0.267
-200.333	800.000	0.052	-0.226
-199.319	-68.365	0.314	-0.158
-198.304	373.585	-0.128	-0.341
-197.290	-200.000	0.001	0.098
-196.275	-159.290	0.271	-0.019
-195.260	-121.682	0.194	0.041
-194.246	-95.419	0.265	0.092
-193.231	436.606	0.070	-0.200
-192.217	149.070	0.127	-0.223
-191.202	329.115	-0.100	0.250
-190.187	79.695	0.141	0.196
-189.173	-141.745	-0.315	0.041
-188.158	3.668	0.448	0.425
-187.144	68.836	0.307	0.410
-186.129	428.510	-0.098	0.276
-185.114	-200.000	0.002	0.133
-184.100	271.194	-0.059	0.135
-183.085	155.807	0.140	0.252
-182.071	-200.000	0.013	0.604
-181.056	-200.000	-0.024	-0.155
-180.042	800.000	0.051	-0.221
-179.027	552.264	0.147	-0.460
-178.012	-188.825	0.145	0.002
-176.998	-200.000	0.083	-0.786
-175.983	198.239	-0.231	-0.461
-174.969	-116.899	-0.285	-0.067
-173.954	-60.103	0.199	0.110
-172.939	467.427	0.068	-0.199
-171.925	-77.050	-0.180	-0.081
-170.910	-200.000	0.011	0.338
-169.896	-36.518	-0.082	-0.057
-168.881	-200.000	0.092	0.538
-167.866	-200.000	0.065	-0.371
-166.852	-185.411	-0.157	0.003
-165.837	-89.908	0.691	-0.260
-164.823	53.702	0.239	0.298
-163.808	40.970	0.324	-0.379
-162.793	30.416	-0.265	-0.293
-161.779	-59.190	0.326	0.182
-160.764	-129.795	-0.242	-0.043
-159.750	39.146	-0.040	0.046
-158.735	45.497	-0.400	0.480
-157.720	437.986	0.099	0.281
-156.706	36.212	0.347	0.397
-155.691	-65.197	-0.570	-0.297
-154.677	315.995	0.070	0.171
-153.662	-89.293	0.562	-0.214
-152.647	800.000	0.066	-0.290
-151.633	-125.671	-0.172	-0.033
-150.618	44.127	-0.111	0.133
-149.604	46.935	-0.370	0.446
-148.589	-200.000	0.047	0.329
-147.574	-154.865	-0.439	-0.037
-146.560	95.871	-0.089	0.132
-145.545	800.000	-0.092	-0.466
-144.531	14.861	-0.108	-0.109
-143.516	80.437	-0.166	-0.232
-142.502	157.759	-0.140	-0.252
-141.487	-61.026	0.211	-0.115
-140.472	-114.712	-0.130	-0.032
-139.458	-128.994	-0.344	0.062
-138.443	158.238	-0.091	-0.164
-137.429	-200.000	0.052	-0.361
-136.414	-200.000	-0.017	-0.175
-135.399	-200.000	0.018	0.367
-134.385	-106.594	-0.591	0.169
-133.370	66.925	-0.161	0.213
-132.356	-90.137	-0.056	0.021
-131.341	-200.000	0.008	0.060
-130.326	62.833	0.093	-0.121
-129.312	127.011	-0.377	-0.620
-128.297	-50.160	0.360	0.220
-127.283	-200.000	-0.009	0.057
-126.268	-32.351	-0.163	-0.117
-125.253	52.803	-0.223	-0.276
-124.239	-114.718	-0.144	0.035
-123.224	261.839	-0.046	-0.103
-122.210	-50.524	0.183	-0.111
-121.195	800.000	-0.042	-0.155
