DTS Sentinel unit serial number:	SN409020Multiplexer serial number:	ORYXHardware model number:	OX4-SRSoftware version number:	ORYX F/W v3.00 Oryx Data Collector v3.7.2.0data status	okinstallation	HaddamTimeLapsedifferential loss correction	single-endedforward channel	channel 3reverse channel	N/Adate	2011/06/21time	23:16:16forward acquisition time	30.00reverse acquisition time	0.00gamma	498.7831k internal	0.1753k external	0.1753temperature offset calibration	1.0074default loss term (dB/km)	0.3790temperature slope calibration	1.3530multiplexer offset coefficient	1.0000multiplexer slope coefficient	1.0000fibre end	0.00T internal ref (°C)	23.34T ext. ref 1 (°C)	18.95T ext. ref 2 (°C)	0.05length (m)	temperature (°C)	Stokes	anti-Stokes-747.200	40.557	0.066	-0.078
-746.185	74.590	0.303	-0.423
-745.171	698.766	-0.191	-0.671
-744.156	-107.323	-0.463	-0.134
-743.142	800.000	0.159	0.600
-742.127	-200.000	0.056	0.463
-741.112	-171.126	0.166	0.007
-740.098	-12.930	-0.411	0.355
-739.083	-15.470	0.113	0.096
-738.069	54.119	-0.018	0.023
-737.054	-59.319	-0.214	-0.122
-736.039	-102.469	-0.800	-0.252
-735.025	20.788	-0.045	0.048
-734.010	83.878	-0.262	-0.380
-732.996	-200.000	0.032	0.276
-731.981	800.000	-0.057	0.302
-730.966	-88.648	0.156	0.061
-729.952	118.865	-0.073	-0.119
-728.937	0.959	-0.438	-0.416
-727.923	75.865	-0.074	-0.104
-726.908	-144.177	0.202	-0.025
-725.894	-42.146	0.045	0.031
-724.879	800.000	-0.066	-0.265
-723.864	-154.233	-0.532	-0.047
-722.850	-67.893	0.444	-0.229
-721.835	-38.874	0.332	0.231
-720.821	-94.077	-0.270	0.097
-719.806	-95.640	0.179	0.063
-718.791	-154.432	0.260	-0.023
-717.777	-157.717	-0.492	-0.038
-716.762	25.168	-0.204	-0.224
-715.748	284.557	0.129	-0.308
-714.733	800.000	0.090	0.403
-713.718	-200.000	0.014	-0.134
-712.704	-29.410	-0.350	0.265
-711.689	-26.097	-0.256	-0.199
-710.675	-38.804	-0.226	0.158
-709.660	60.932	-0.256	0.336
-708.645	-149.190	0.301	0.032
-707.631	9.959	-0.178	-0.179
-706.616	24.079	0.246	0.269
-705.602	310.266	-0.077	-0.193
-704.587	51.402	0.272	-0.342
-703.572	-48.946	0.179	-0.113
-702.558	800.000	0.031	0.182
-701.543	154.049	-0.064	-0.117
-700.529	-19.414	-0.362	-0.296
-699.514	-144.573	-0.302	0.036
-698.499	-139.191	0.298	0.042
-697.485	-139.532	0.331	0.046
-696.470	800.000	-0.056	0.301
-695.456	-200.000	0.049	-0.402
-694.441	481.799	0.044	-0.134
-693.426	-87.281	0.337	-0.135
-692.412	-27.351	0.296	-0.228
-691.397	112.052	0.140	0.224
-690.383	-108.030	0.265	0.076
-689.368	-32.733	-0.270	-0.199
-688.354	-55.208	-0.203	-0.120
-687.339	800.000	0.027	-0.134
-686.324	-101.177	-0.095	0.031
-685.310	-62.223	-0.556	-0.306
-684.295	-126.681	-0.485	0.094
-683.281	-200.000	0.029	-0.410
-682.266	73.532	-0.193	0.268
-681.251	-116.483	0.190	0.046
-680.237	161.604	-0.386	0.716
-679.222	589.762	0.075	0.246
-678.208	160.690	0.408	0.756
-677.193	-103.251	0.395	0.123
-676.178	-200.000	0.007	0.310
-675.164	-200.000	-0.009	-0.335
-674.149	-200.000	0.041	-0.255
-673.135	28.309	-0.187	0.209
-672.120	-45.528	0.476	0.311
-671.105	22.475	0.208	-0.225
-670.091	-35.404	0.279	0.200
-669.076	-57.181	-0.215	0.125
-668.062	-117.505	-0.120	-0.028
-667.047	-64.486	-0.291	0.156
-666.032	9.686	-0.248	-0.248
-665.018	-21.842	-0.137	0.110
-664.003	-191.755	-0.420	0.005
-662.989	-96.743	0.266	0.092
-661.974	-110.060	0.149	-0.041
-660.959	-200.000	-0.000	-0.291
-659.945	-135.809	-0.273	-0.042
-658.930	-144.788	0.060	-0.007
-657.916	-78.452	0.180	0.081
-656.901	208.751	0.022	0.045
-655.886	-110.003	-0.541	0.149
-654.872	-152.880	-0.143	0.013
-653.857	-86.131	-0.430	0.175
-652.843	-18.830	0.359	0.295
-651.828	-103.629	0.372	0.115
-650.814	-99.006	-0.381	0.127
-649.799	139.858	0.165	0.288
-648.784	-100.247	-0.395	0.129
-647.770	-23.527	-0.322	-0.255
-646.755	800.000	-0.112	0.577
-645.741	-98.907	-0.236	-0.079
-644.726	-105.664	-0.362	-0.107
-643.711	-160.154	-0.588	-0.042
-642.697	-76.081	0.177	-0.082
-641.682	-56.982	-0.159	0.092
-640.668	-116.384	-0.504	0.122
-639.653	-200.000	0.026	0.317
-638.638	800.000	-0.083	-0.331
-637.624	58.475	0.258	-0.334
-636.609	-73.590	-0.296	-0.142
-635.595	800.000	-0.038	-0.143
-634.580	155.103	0.157	-0.285
-633.565	94.001	-0.128	-0.192
-632.551	800.000	-0.112	-0.413
-631.536	-155.580	-0.054	0.005
-630.522	-107.893	-0.342	-0.098
-629.507	-86.959	0.140	-0.056
-628.492	-92.068	0.260	-0.097
-627.478	-200.000	-0.034	-0.220
-626.463	-21.817	0.513	0.412
-625.449	-134.116	-0.240	0.039
-624.434	800.000	0.055	-0.204
-623.419	800.000	-0.063	0.241
-622.405	-67.098	-0.259	0.134
-621.390	-150.462	0.575	0.058
-620.376	0.445	-0.178	-0.168
-619.361	-200.000	0.015	0.289
-618.346	93.391	-0.351	0.525
-617.332	-154.718	0.117	-0.010
-616.317	800.000	-0.065	0.241
-615.303	8.296	-0.133	-0.131
-614.288	-27.854	-0.234	0.178
-613.273	267.156	0.123	0.285
-612.259	42.886	-0.012	-0.014
-611.244	53.043	0.136	0.172
-610.230	-200.000	-0.010	0.292
-609.215	-20.585	0.425	0.344
-608.201	-126.186	0.175	-0.034
-607.186	-3.750	-0.232	-0.212
-606.171	-45.831	0.141	0.092
-605.157	-76.681	-0.157	0.072
-604.142	-79.837	-0.439	0.194
-603.128	-111.863	-0.128	0.034
-602.113	-133.075	-0.337	-0.056
-601.098	-41.240	-0.234	-0.159
-600.084	92.532	0.106	-0.158
-599.069	-200.000	-0.021	-0.594
-598.055	-157.397	0.566	0.044
-597.040	338.789	0.111	0.285
-596.025	40.214	0.246	0.292
-595.011	38.759	-0.123	-0.145
-593.996	-79.935	0.509	-0.225
-592.982	-200.000	-0.013	-0.087
-591.967	-37.111	0.360	0.253
-590.952	722.991	-0.094	0.332
-589.938	-118.691	-0.294	0.068
-588.923	-193.530	-0.067	-0.001
-587.909	-13.844	0.388	-0.330
-586.894	-90.784	0.321	0.121
-585.879	-158.417	-0.335	0.025
-584.865	-44.011	-0.299	-0.198
-583.850	29.008	-0.159	0.177
-582.836	-57.266	-0.114	-0.066
-581.821	-64.141	-0.211	-0.113
-580.806	-58.341	-0.141	0.081
-579.792	-28.344	-0.271	0.205
-578.777	-126.745	-0.180	-0.035
-577.763	800.000	-0.067	0.381
-576.748	312.655	-0.089	-0.220
-575.733	116.104	0.163	0.263
-574.719	-66.192	-0.205	0.107
-573.704	-7.244	-0.666	-0.594
-572.690	-88.657	-0.360	0.141
-571.675	-200.000	0.006	-0.091
-570.661	-145.064	-0.138	-0.016
-569.646	-89.437	-0.096	0.037
-568.631	-82.332	0.223	-0.095
-567.617	250.983	-0.068	0.152
-566.602	-86.964	-0.269	-0.108
-565.588	800.000	0.129	0.562
-564.573	-83.769	0.331	0.138
-563.558	-60.560	0.188	0.105
-562.544	800.000	-0.050	-0.247
-561.529	51.509	0.159	0.200
-560.515	-28.632	-0.377	-0.286
-559.500	-58.378	-0.327	0.186
-558.485	-55.138	-0.190	0.112
-557.471	712.483	-0.112	-0.392
-556.456	99.593	0.131	-0.200
-555.442	-147.218	-0.142	0.016
-554.427	14.174	0.239	-0.245
-553.412	-159.036	-0.350	0.026
-552.398	-200.000	0.032	-0.364
-551.383	256.430	0.087	-0.196
-550.369	800.000	0.097	0.440
-549.354	-0.533	-0.095	-0.089
-548.339	-98.305	-0.099	-0.033
-547.325	-171.575	-0.424	0.018
-546.310	-140.728	-0.045	-0.006
-545.296	-139.461	-0.239	-0.033
-544.281	75.416	0.253	0.352
-543.266	-200.000	0.078	0.471
-542.252	800.000	0.180	0.822
-541.237	-18.372	0.184	-0.151
-540.223	-55.242	-0.089	0.052
-539.208	-124.126	-0.149	-0.031
-538.193	-86.046	0.138	-0.056
-537.179	-200.000	-0.089	-0.689
-536.164	-59.358	0.313	0.176
-535.150	-200.000	-0.022	0.235
-534.135	-71.262	0.880	-0.433
-533.121	-75.557	0.477	-0.222
-532.106	39.719	-0.390	-0.461
-531.091	-200.000	0.010	-0.243
-530.077	-19.820	-0.513	0.417
-529.062	59.489	0.235	0.304
-528.048	-143.301	0.171	0.021
-527.033	-46.371	0.219	-0.141
-526.018	-93.740	-0.454	-0.164
-525.004	23.174	0.358	-0.386
-523.989	-138.988	0.324	0.046
-522.975	254.921	0.230	-0.520
-521.960	29.742	-0.049	0.055
-520.945	126.138	-0.130	0.217
-519.931	183.125	-0.244	0.475
-518.916	197.807	-0.358	0.720
-517.902	79.645	0.291	0.412
-516.887	215.956	0.155	-0.325
-515.872	745.003	0.049	-0.173
-514.858	501.092	0.080	0.245
-513.843	-97.055	-0.051	-0.018
-512.829	26.083	-0.296	0.325
-511.814	-73.289	0.550	-0.263
-510.799	9.517	-0.303	0.301
-509.785	-105.849	0.203	0.060
-508.770	254.801	-0.115	-0.261
-507.756	90.817	0.314	0.463
-506.741	-163.142	0.229	-0.014
-505.726	-34.225	0.404	-0.291
-504.712	-108.977	-0.174	-0.048
-503.697	-200.000	-0.015	0.297
-502.683	-161.012	0.520	-0.035
-501.668	765.490	0.084	-0.302
-500.653	-47.260	-0.506	-0.323
-499.639	-147.197	0.270	0.030
-498.624	-200.000	0.030	0.473
-497.610	-26.574	0.177	-0.136
-496.595	-66.997	-0.085	0.044
-495.581	-200.000	0.001	-0.248
-494.566	-72.599	-0.156	-0.075
-493.551	-130.223	0.219	0.039
-492.537	442.332	0.130	-0.376
-491.522	-81.877	-0.345	-0.148
-490.508	388.334	0.198	0.540
-489.493	36.175	0.347	0.402
-488.478	110.686	0.133	-0.210
-487.464	-200.000	-0.042	0.345
-486.449	-28.684	-0.223	-0.168
-485.435	48.019	-0.147	0.181
-484.420	-54.603	0.173	-0.103
-483.405	7.934	0.073	0.072
-482.391	800.000	0.021	0.081
-481.376	-90.815	-0.377	-0.142
-480.362	19.154	-0.287	-0.302
-479.347	-30.020	-0.249	-0.186
-478.332	800.000	-0.038	-0.214
-477.318	-150.473	-0.122	0.012
-476.303	67.905	0.257	-0.345
-475.289	17.157	-0.008	-0.009
-474.274	-172.739	0.210	-0.008
-473.259	-138.192	-0.160	0.023
-472.245	-165.322	0.463	-0.026
-471.230	65.756	0.286	-0.381
-470.216	166.760	0.142	-0.264
-469.201	-200.000	-0.181	-0.000
-468.186	418.331	-0.177	-0.498
-467.172	48.673	0.271	-0.333
-466.157	38.847	-0.366	-0.429
-465.143	-51.245	-0.330	-0.202
-464.128	-75.782	0.287	-0.133
-463.113	-200.000	-0.009	0.133
-462.099	-93.519	0.348	-0.125
-461.084	2.531	-0.509	0.484
-460.070	-134.607	0.360	0.057
-459.055	17.680	0.240	-0.250
-458.040	-95.612	0.413	-0.144
-457.026	-87.780	0.293	-0.115
-456.011	-55.103	0.134	-0.079
-454.997	-100.897	0.702	0.225
-453.982	-69.909	0.354	-0.176
-452.968	11.224	0.051	-0.051
-451.953	-43.563	0.286	0.189
-450.938	-33.516	0.237	-0.172
-449.924	15.338	0.209	0.215
-448.909	383.437	0.100	-0.272
-447.895	800.000	0.065	-0.248
-446.880	-200.000	-0.002	-0.051
-445.865	-41.361	-0.509	-0.343
-444.851	686.034	0.068	-0.235
-443.836	235.900	0.240	-0.522
-442.822	314.514	-0.190	0.471
-441.807	-47.884	0.191	-0.121
-440.792	106.359	0.193	0.300
-439.778	-143.818	-0.247	0.030
-438.763	-76.189	0.246	0.113
-437.749	-66.626	0.285	-0.148
-436.734	-200.000	-0.028	0.311
-435.719	-109.714	-0.171	0.047
-434.705	-200.000	-0.076	0.459
-433.690	-72.675	0.159	0.076
-432.676	-200.000	-0.033	-0.701
-431.661	121.805	0.158	-0.259
-430.646	94.959	0.207	-0.309
-429.632	-27.764	-0.082	-0.062
-428.617	800.000	0.017	-0.072
-427.603	314.653	0.024	0.060
-426.588	-19.146	0.385	0.313
-425.573	-23.648	0.143	-0.112
-424.559	800.000	-0.032	-0.172
-423.544	199.082	0.135	0.272
-422.530	-116.108	0.147	0.035
-421.515	-44.767	0.418	0.272
-420.500	164.911	0.151	0.279
-419.486	38.103	0.094	0.109
-418.471	-200.000	-0.018	-0.161
-417.457	276.734	-0.096	0.224
-416.442	-200.000	-0.033	-0.342
-415.428	362.543	0.067	0.177
-414.413	-11.822	-0.448	0.385
-413.398	-44.099	0.255	-0.167
-412.384	19.922	0.176	0.186
-411.369	603.784	0.111	-0.363
-410.355	-27.516	0.218	-0.166
-409.340	800.000	-0.057	0.233
-408.325	49.707	-0.256	-0.316
-407.311	-126.539	-0.102	0.020
-406.296	42.478	-0.337	0.401
-405.282	178.921	0.090	-0.172
-404.267	-182.740	0.344	-0.008
-403.252	-141.250	-0.211	-0.028
-402.238	-54.161	0.547	0.325
-401.223	447.910	-0.059	0.170
-400.209	800.000	0.129	0.539
-399.194	162.803	0.084	0.154
-398.179	800.000	0.092	-0.455
-397.165	15.087	-0.190	0.195
-396.150	26.460	-0.173	-0.189
-395.136	-22.996	-0.058	0.045
-394.121	-95.804	0.189	-0.066
-393.106	-200.000	-0.033	-0.472
-392.092	38.156	-0.218	0.254
-391.077	-81.263	0.490	0.211
-390.063	-34.417	-0.360	0.258
-389.048	-116.610	-0.313	0.075
-388.033	-58.072	-0.468	0.266
-387.019	-58.227	-0.095	-0.054
-386.004	800.000	-0.109	-0.518
-384.990	-72.049	-0.287	0.139
-383.975	-64.516	-0.268	0.142
-382.960	-2.744	-0.148	-0.135
-381.946	6.760	0.382	-0.372
-380.931	94.998	-0.218	0.325
-379.917	-104.310	-0.123	0.037
-378.902	7.928	-0.166	-0.163
-377.888	-96.895	0.538	0.183
-376.873	-200.000	-0.056	0.532
-375.858	-22.399	-0.389	-0.308
-374.844	-200.000	-0.105	0.747
-373.829	800.000	0.032	-0.130
-372.815	-62.027	-0.239	-0.130
-371.800	-174.821	-0.375	-0.014
-370.785	-200.000	-0.047	0.397
-369.771	-44.117	0.165	-0.108
-368.756	-26.074	-0.021	-0.016
-367.742	800.000	-0.054	0.232
-366.727	-125.104	-0.414	0.082
-365.712	800.000	0.146	-0.599
-364.698	-200.000	-0.020	-0.150
-363.683	221.438	-0.170	-0.359
-362.669	-185.925	0.151	0.003
-361.654	359.431	0.103	0.270
-360.639	79.909	-0.321	0.452
-359.625	-59.024	0.273	0.154
-358.610	-151.294	0.427	-0.041
-357.596	-118.200	0.380	0.088
-356.581	298.139	0.029	0.070
-355.566	-70.003	-0.086	0.042
-354.552	-200.000	-0.107	-0.623
-353.537	800.000	-0.093	0.514
-352.523	-93.400	-0.308	0.111
-351.508	-9.092	-0.121	-0.105
-350.493	-200.000	0.037	-0.415
-349.479	287.552	0.087	0.206
-348.464	-104.216	0.634	0.191
-347.450	800.000	0.071	-0.284
-346.435	-113.703	0.311	-0.078
-345.420	26.465	0.546	0.597
-344.406	-122.610	0.317	0.067
-343.391	-200.000	0.011	0.088
-342.377	-29.376	0.149	0.111
-341.362	-200.000	-0.040	0.300
-340.348	-85.530	-0.452	0.183
-339.333	-77.487	0.379	0.171
-338.318	1.055	-0.095	-0.089
-337.304	-200.000	0.044	-0.305
-336.289	-116.097	-0.510	-0.123
-335.275	-93.236	0.062	-0.022
-334.260	245.126	-0.153	-0.337
-333.245	800.000	-0.079	0.414
-332.231	-94.345	0.040	-0.014
-331.216	60.700	-0.366	0.474
-330.202	-126.692	-0.748	0.143
-329.187	-93.947	-0.186	0.066
-328.172	-36.203	0.117	0.082
-327.158	97.855	-0.198	-0.298
-326.143	-48.884	-0.220	-0.137
-325.129	142.695	0.071	-0.123
-324.114	-152.689	0.245	-0.022
-323.099	145.939	-0.139	-0.244
-322.085	-68.604	-0.570	-0.287
-321.070	99.966	-0.071	-0.107
-320.056	110.221	-0.123	0.194
-319.041	128.399	-0.063	0.104
-318.026	161.462	-0.144	-0.264
-317.012	-200.000	-0.020	-0.122
-315.997	-162.817	0.245	0.015
-314.983	218.790	0.102	0.212
-313.968	-54.991	0.140	-0.082
-312.953	-27.546	-0.195	0.147
-311.939	733.713	0.157	-0.551
-310.924	86.946	0.218	-0.314
-309.910	-60.460	0.249	0.138
-308.895	24.856	0.391	-0.422
-307.880	-126.564	0.492	0.094
-306.866	800.000	0.101	0.560
-305.851	800.000	-0.080	0.457
-304.837	-87.538	-0.462	0.181
-303.822	800.000	-0.051	0.256
-302.807	-22.453	-0.147	0.116
-301.793	172.913	0.054	0.101
-300.778	-12.874	0.333	-0.283
-299.764	-73.729	-0.100	-0.047
-298.749	800.000	0.044	0.230
-297.735	-165.024	-0.540	0.031
-296.720	-129.666	0.257	0.046
-295.705	379.432	-0.127	-0.342
-294.691	-24.962	-0.343	0.264
-293.676	-41.154	0.519	0.348
-292.662	13.115	0.229	0.231
-291.647	-60.357	-0.255	0.141
-290.632	439.193	-0.013	-0.036
-289.618	267.402	0.158	-0.362
-288.603	-200.000	-0.001	0.146
-287.589	21.199	-0.159	0.168
-286.574	166.908	0.163	-0.302
-285.559	-54.468	-0.327	-0.192
-284.545	-134.190	-0.440	0.070
-283.530	103.597	-0.197	-0.302
-282.516	125.255	-0.300	-0.493
-281.501	-200.000	0.033	-0.229
-280.486	-30.300	-0.714	-0.527
-279.472	-200.000	-0.055	0.515
-278.457	-49.206	0.512	0.318
-277.443	-200.000	0.012	0.189
-276.428	-126.497	-0.411	0.079
-275.413	569.829	0.170	0.540
-274.399	-41.138	-0.287	0.192
-273.384	92.129	-0.339	-0.499
-272.370	-183.787	-0.285	0.006
-271.355	-85.274	0.706	-0.286
-270.340	-85.157	0.508	-0.206
-269.326	-200.000	-0.064	-0.493
-268.311	-122.730	-0.137	0.029
-267.297	-58.882	-0.166	0.093
-266.282	117.108	-0.170	-0.273
-265.267	0.159	-0.349	0.324
-264.253	-33.383	-0.273	0.196
-263.238	800.000	0.044	0.203
-262.224	-72.681	-0.121	-0.058
-261.209	-137.969	0.220	-0.032
-260.195	-28.101	0.074	-0.055
-259.180	-200.000	0.126	0.755
-258.165	59.893	-0.063	0.081
-257.151	63.690	-0.204	0.267
-256.136	61.487	-0.358	-0.464
-255.122	-59.530	-0.126	0.070
-254.107	57.994	0.245	0.312
-253.092	-24.574	0.058	-0.045
-252.078	12.155	0.151	-0.151
-251.063	13.224	0.138	-0.139
-250.049	-35.945	-0.240	0.169
-249.034	579.747	0.199	-0.639
-248.019	-93.917	0.260	-0.093
-247.005	31.870	-0.453	-0.508
-245.990	68.742	-0.221	0.295
-244.976	-194.199	0.501	-0.005
-243.961	-102.846	0.046	-0.014
-242.946	182.204	0.125	0.241
-241.932	3.447	-0.112	-0.106
-240.917	-200.000	-0.018	-0.259
-239.903	-41.652	0.199	0.133
-238.888	161.093	-0.056	-0.101
-237.873	345.246	-0.090	0.231
-236.859	800.000	0.085	0.316
-235.844	-122.212	-0.219	-0.046
-234.830	-55.113	0.255	0.148
-233.815	226.442	-0.065	-0.138
-232.800	800.000	-0.080	0.313
-231.786	308.212	-0.096	-0.235
-230.771	-200.000	0.010	0.365
-229.757	244.131	0.139	-0.304
-228.742	-120.545	-0.205	-0.045
-227.727	177.804	-0.071	0.134
-226.713	110.669	0.035	-0.055
-225.698	-200.000	0.003	-0.050
-224.684	-200.000	-0.010	-0.255
-223.669	-125.442	-0.244	0.048
-222.655	-113.425	0.700	-0.177
-221.640	-5.879	0.145	0.129
-220.625	39.643	-0.247	-0.288
-219.611	-69.236	0.221	-0.110
-218.596	-151.706	0.271	-0.026
-217.582	-176.848	-0.313	-0.010
-216.567	599.901	0.152	0.493
-215.552	-132.287	0.310	-0.052
-214.538	168.804	0.058	-0.107
-213.523	141.478	-0.196	-0.338
-212.509	117.208	0.067	-0.107
-211.494	-200.000	0.003	-0.534
-210.479	-156.717	-0.168	-0.013
-209.465	157.464	-0.269	0.486
-208.450	117.193	0.103	-0.164
-207.436	-139.253	0.264	-0.036
-206.421	-200.000	0.020	0.202
-205.406	-74.309	0.142	-0.066
-204.392	-55.618	0.130	-0.076
-203.377	-38.668	-0.156	0.107
-202.363	103.833	-0.046	-0.070
-201.348	-56.131	-0.341	-0.197
-200.333	-93.039	0.391	0.141
-199.319	133.683	0.437	-0.736
-198.304	433.607	-0.085	-0.240
-197.290	-11.899	-0.207	-0.176
-196.275	-4.636	-0.119	0.106
-195.260	-69.296	-0.115	0.057
-194.246	-182.210	-0.093	0.002
-193.231	273.701	0.195	-0.450
-192.217	-154.131	0.179	-0.016
-191.202	173.750	0.209	0.394
-190.187	-200.000	0.099	0.605
-189.173	-200.000	-0.038	0.311
-188.158	-15.107	0.205	0.171
-187.144	109.282	0.162	0.252
-186.129	-165.878	0.143	-0.008
-185.114	-134.672	-0.168	0.026
-184.100	279.419	0.146	0.339
-183.085	-154.339	-0.804	-0.069
-182.071	-183.417	-0.525	0.012
-181.056	-30.311	-0.375	-0.275
-180.042	316.070	-0.132	-0.324
-179.027	553.954	-0.034	-0.106
-178.012	-47.789	0.137	0.086
-176.998	185.211	0.121	0.234
-175.983	156.129	0.098	0.176
-174.969	77.830	0.189	-0.262
-173.954	-200.000	-0.013	0.184
-172.939	303.459	0.239	0.576
-171.925	35.123	0.278	0.316
-170.910	-200.000	0.090	-0.570
-169.896	-180.453	0.210	-0.006
-168.881	412.429	-0.128	0.356
-167.866	-51.216	-0.386	-0.234
-166.852	176.680	0.129	-0.245
-165.837	-172.367	0.096	-0.004
-164.823	-200.000	0.087	0.722
-163.808	-200.000	-0.064	-0.438
-162.793	90.304	0.177	-0.257
-161.779	277.915	-0.106	-0.245
-160.764	-2.330	0.099	0.090
-159.750	-200.000	0.019	-0.380
-158.735	-200.000	0.003	-0.381
-157.720	-83.631	-0.274	0.113
-156.706	751.019	0.026	-0.090
-155.691	-107.615	0.209	-0.059
-154.677	-133.685	0.461	-0.074
-153.662	-128.222	0.258	0.047
-152.647	62.984	-0.218	-0.283
-151.633	156.635	-0.143	0.257
-150.618	-200.000	0.026	-0.358
-149.604	-200.000	-0.030	0.259
-148.589	-79.819	-0.118	-0.051
-147.574	-43.997	0.380	0.247
-146.560	-73.766	0.555	0.260
-145.545	76.286	-0.281	-0.386
-144.531	-200.000	-0.073	-0.681
-143.516	611.258	-0.264	-0.862
-142.502	34.630	0.097	-0.110
-141.487	800.000	0.101	-0.436
-140.472	-138.738	-0.526	0.074
-139.458	-116.039	0.379	-0.091
-138.443	26.974	0.099	0.107
-137.429	-26.399	0.142	0.108
-136.414	188.150	0.188	0.365
-135.399	-165.722	0.208	-0.011
-134.385	800.000	-0.059	-0.327
-133.370	-55.494	-0.483	0.280
-132.356	-51.826	-0.267	0.160
-131.341	-34.122	0.440	-0.312
-130.326	-91.711	-0.362	-0.133
-129.312	-160.008	-0.046	0.003
-128.297	-183.418	0.384	0.008
-127.283	-48.900	0.243	0.150
-126.268	-85.084	0.215	0.087
-125.253	-103.104	-0.205	0.062
-124.239	207.565	0.267	0.542
-123.224	-113.168	-0.343	0.087
-122.210	-69.540	0.478	-0.236
