DTS Sentinel unit serial number:	SN409020Multiplexer serial number:	ORYXHardware model number:	OX4-SRSoftware version number:	ORYX F/W v3.00 Oryx Data Collector v3.7.2.0data status	okinstallation	HaddamTimeLapsedifferential loss correction	single-endedforward channel	channel 3reverse channel	N/Adate	2011/06/22time	04:16:17forward acquisition time	30.00reverse acquisition time	0.00gamma	498.7831k internal	0.1752k external	0.1752temperature offset calibration	1.0074default loss term (dB/km)	0.3790temperature slope calibration	1.3530multiplexer offset coefficient	1.0000multiplexer slope coefficient	1.0000fibre end	0.00T internal ref (°C)	22.62T ext. ref 1 (°C)	18.25T ext. ref 2 (°C)	0.11length (m)	temperature (°C)	Stokes	anti-Stokes-747.200	-200.000	-0.025	-0.146
-746.185	-127.817	0.474	0.090
-745.171	-200.000	0.006	0.295
-744.156	125.337	0.170	-0.286
-743.142	-64.710	-0.187	0.100
-742.127	-30.398	-0.503	0.378
-741.112	-57.306	-0.184	0.107
-740.098	101.333	-0.172	-0.267
-739.083	-106.322	-0.161	-0.048
-738.069	800.000	0.128	0.667
-737.054	-84.457	-0.404	0.169
-736.039	161.577	0.008	-0.015
-735.025	94.692	0.175	-0.265
-734.010	-73.100	0.447	0.217
-732.996	616.863	-0.093	0.311
-731.981	-200.000	0.018	-0.272
-730.966	-121.772	-0.357	-0.078
-729.952	-112.083	0.173	0.046
-728.937	-72.069	0.482	0.237
-727.923	-111.649	-0.222	-0.059
-726.908	203.449	-0.283	-0.583
-725.894	-66.617	0.311	-0.163
-724.879	-29.577	-0.106	0.080
-723.864	800.000	0.076	0.335
-722.850	-23.016	-0.324	-0.259
-721.835	-94.634	-0.575	0.206
-720.821	-79.771	0.379	0.169
-719.806	-185.677	0.235	-0.005
-718.791	800.000	-0.051	-0.212
-717.777	-200.000	-0.076	0.635
-716.762	104.911	0.144	-0.225
-715.748	-83.924	-0.288	0.121
-714.733	305.759	-0.087	-0.215
-713.718	-186.940	0.404	0.007
-712.704	-103.921	-0.477	0.147
-711.689	-43.816	-0.686	-0.457
-710.675	-43.810	0.220	0.146
-709.660	-200.000	-0.010	-0.106
-708.645	-200.000	0.065	-0.492
-707.631	-200.000	-0.047	0.443
-706.616	-62.595	-0.373	-0.204
-705.602	-200.000	0.003	-0.409
-704.587	-19.182	0.240	0.197
-703.572	-177.589	0.531	0.017
-702.558	-91.209	0.381	-0.144
-701.543	46.828	-0.177	0.219
-700.529	295.610	-0.175	0.427
-699.514	-116.769	-0.463	0.112
-698.499	119.367	0.132	-0.216
-697.485	252.497	-0.097	0.220
-696.470	284.564	0.118	0.282
-695.456	-200.000	-0.045	0.321
-694.441	157.969	0.094	0.173
-693.426	-11.051	0.420	0.367
-692.412	-200.000	0.003	-0.128
-691.397	800.000	0.131	-0.495
-690.383	-67.105	0.501	0.261
-689.368	-20.972	-0.059	0.047
-688.354	731.651	-0.034	-0.121
-687.339	-164.024	0.468	0.028
-686.324	51.798	0.160	0.202
-685.310	-0.381	-0.181	0.170
-684.295	-69.353	-0.353	-0.179
-683.281	288.740	0.061	-0.147
-682.266	-56.286	-0.441	-0.259
-681.251	-9.176	-0.414	0.366
-680.237	30.205	0.331	-0.374
-679.222	-136.535	0.438	0.067
-678.208	-200.000	-0.001	-0.041
-677.193	247.220	-0.080	-0.180
-676.178	299.958	0.108	-0.264
-675.164	-22.198	-0.141	0.113
-674.149	-40.599	-0.246	0.169
-673.135	272.033	-0.130	0.304
-672.120	-148.888	-0.619	0.065
-671.105	72.250	-0.297	-0.411
-670.091	-72.533	-0.191	-0.093
-669.076	800.000	-0.067	-0.362
-668.062	65.658	0.205	0.275
-667.047	-200.000	0.062	-0.487
-666.032	162.488	-0.167	0.311
-665.018	-145.008	0.113	0.014
-664.003	739.388	-0.163	-0.582
-662.989	-151.783	-0.074	-0.007
-661.974	441.945	0.109	0.316
-660.959	35.505	0.403	0.469
-659.945	654.542	-0.046	0.159
-658.930	63.607	-0.096	0.127
-657.916	261.820	0.244	-0.561
-656.901	-200.000	0.029	-0.306
-655.886	14.308	0.306	-0.315
-654.872	15.905	0.126	-0.131
-653.857	-200.000	0.013	0.506
-652.843	-61.468	0.110	-0.061
-651.828	27.029	-0.298	-0.331
-650.814	-191.020	-0.035	-0.000
-649.799	-127.496	0.316	-0.060
-648.784	-200.000	0.025	-0.348
-647.770	-52.371	0.183	-0.112
-646.755	-110.266	0.228	0.062
-645.741	38.165	0.380	-0.447
-644.726	98.427	0.169	0.259
-643.711	-149.330	0.590	-0.061
-642.697	573.457	0.054	-0.174
-641.682	-181.792	-0.298	0.007
-640.668	-125.645	0.143	0.028
-639.653	259.871	-0.163	0.373
-638.638	-85.073	0.375	-0.154
-637.624	-105.023	-0.318	-0.096
-636.609	249.118	-0.162	-0.365
-635.595	-200.000	-0.009	0.198
-634.580	-60.956	-0.151	0.084
-633.565	99.917	-0.156	-0.240
-632.551	-88.537	0.282	-0.111
-631.536	-23.711	0.461	-0.365
-630.522	-76.097	-0.269	-0.125
-629.507	-18.342	-0.109	0.090
-628.492	-57.321	-0.479	-0.278
-627.478	-200.000	0.016	-0.244
-626.463	361.172	0.208	0.552
-625.449	78.734	0.140	-0.199
-624.434	-159.894	0.034	-0.002
-623.419	800.000	-0.028	-0.105
-622.405	-200.000	0.035	-0.485
-621.390	-134.572	0.449	0.072
-620.376	48.196	-0.021	-0.026
-619.361	-67.552	-0.469	-0.242
-618.346	800.000	0.094	-0.439
-617.332	31.109	-0.343	-0.389
-616.317	-200.000	-0.009	-0.114
-615.303	-129.940	-0.228	0.041
-614.288	767.114	0.116	-0.420
-613.273	363.317	-0.059	0.159
-612.259	38.389	0.127	0.150
-611.244	-15.935	-0.167	-0.140
-610.230	43.239	0.130	0.157
-609.215	-200.000	0.040	0.309
-608.201	800.000	-0.117	-0.608
-607.186	-41.162	0.124	0.084
-606.171	-113.630	0.222	0.057
-605.157	77.275	-0.185	0.260
-604.142	-107.643	-0.156	-0.045
-603.128	-12.589	-0.635	-0.546
-602.113	-200.000	-0.019	-0.400
-601.098	-200.000	0.154	-0.001
-600.084	-140.025	0.105	-0.014
-599.069	-68.416	-0.289	-0.148
-598.055	-134.506	-0.211	0.034
-597.040	84.463	-0.166	0.240
-596.025	-111.272	0.186	-0.050
-595.011	-200.000	0.029	0.268
-593.996	241.898	0.080	0.177
-592.982	15.585	-0.106	-0.110
-591.967	-82.437	-0.107	-0.045
-590.952	-54.712	-0.193	-0.115
-589.938	-200.000	-0.095	-0.648
-588.923	197.352	-0.150	-0.303
-587.909	-200.000	-0.003	-0.705
-586.894	-153.844	0.209	-0.019
-585.879	-89.081	0.404	0.157
-584.865	800.000	0.060	-0.263
-583.850	280.263	-0.077	-0.182
-582.836	-93.366	-0.589	-0.214
-581.821	-200.000	-0.048	-0.429
-580.806	-48.504	0.243	-0.154
-579.792	1.948	-0.188	-0.179
-578.777	800.000	-0.076	-0.307
-577.763	-145.100	0.129	-0.015
-576.748	91.857	0.202	0.300
-575.733	800.000	0.040	0.215
-574.719	-111.758	-0.347	0.092
-573.704	-123.603	-0.459	-0.095
-572.690	116.544	-0.067	-0.109
-571.675	-73.578	0.328	-0.157
-570.661	-152.612	-0.462	-0.043
-569.646	-200.000	0.029	0.177
-568.631	11.909	0.208	0.211
-567.617	-6.453	-0.132	0.118
-566.602	112.567	-0.194	-0.310
-565.588	-35.971	0.406	0.289
-564.573	373.995	-0.183	-0.494
-563.558	-19.507	-0.055	-0.045
-562.544	6.123	0.118	0.115
-561.529	434.866	0.155	0.447
-560.515	-51.299	-0.262	-0.161
-559.500	-102.363	-0.308	0.097
-558.485	-8.053	-0.188	0.167
-557.471	-28.003	0.217	0.165
-556.456	-200.000	0.011	0.189
-555.442	800.000	-0.069	0.359
-554.427	-37.619	0.208	-0.146
-553.412	561.862	-0.150	-0.482
-552.398	800.000	-0.083	-0.456
-551.383	-200.000	-0.006	0.033
-550.369	-173.828	-0.420	-0.016
-549.354	-65.750	-0.196	-0.103
-548.339	-148.950	0.281	-0.029
-547.325	39.749	0.231	-0.274
-546.310	-8.630	-0.341	-0.301
-545.296	-200.000	-0.032	-0.211
-544.281	800.000	-0.147	-0.545
-543.266	170.646	-0.096	0.183
-542.252	-85.968	0.156	-0.063
-541.237	-108.043	-0.425	0.121
-540.223	-5.615	0.473	0.427
-539.208	186.908	0.124	-0.245
-538.193	70.007	0.188	0.256
-537.179	800.000	0.030	0.170
-536.164	-150.802	0.491	0.048
-535.150	-200.000	-0.029	-0.454
-534.135	43.109	-0.285	-0.343
-533.121	-57.651	-0.198	0.114
-532.106	-84.491	-0.166	0.069
-531.091	242.375	0.125	0.277
-530.077	469.865	0.008	0.024
-529.062	-200.000	0.025	0.547
-528.048	-126.356	-0.259	-0.050
-527.033	-67.089	0.251	0.130
-526.018	-200.000	-0.025	0.255
-525.004	2.043	0.079	0.075
-523.989	-200.000	-0.044	-0.463
-522.975	221.278	-0.093	0.198
-521.960	-200.000	0.060	0.419
-520.945	-200.000	-0.008	0.143
-519.931	-90.932	-0.115	0.043
-518.916	105.226	-0.074	-0.115
-517.902	706.235	-0.075	-0.262
-516.887	-83.528	-0.083	-0.035
-515.872	16.705	0.095	0.099
-514.858	612.922	0.017	-0.057
-513.843	224.146	-0.039	-0.083
-512.829	538.174	0.105	-0.330
-511.814	259.021	0.155	-0.353
-510.799	8.109	0.294	0.290
-509.785	-200.000	0.050	0.352
-508.770	42.498	-0.149	0.178
-507.756	-100.050	-0.559	0.182
-506.741	83.483	0.201	-0.289
-505.726	-117.950	0.142	-0.033
-504.712	115.608	0.261	-0.420
-503.697	-103.266	0.186	-0.057
-502.683	374.356	0.081	-0.218
-501.668	-105.130	0.504	0.150
-500.653	-36.041	-0.401	0.284
-499.639	431.703	-0.110	0.314
-498.624	800.000	-0.083	-0.361
-497.610	-147.833	-0.335	0.036
-496.595	-181.536	0.262	-0.007
-495.581	-161.415	0.227	0.015
-494.566	-200.000	-0.033	0.439
-493.551	326.511	-0.065	0.165
-492.537	-80.503	0.270	-0.118
-491.522	113.050	-0.137	-0.219
-490.508	60.120	0.266	0.345
-489.493	-200.000	-0.071	0.503
-488.478	-200.000	0.027	0.208
-487.464	-200.000	0.001	0.402
-486.449	-200.000	0.000	-0.171
-485.435	-113.718	-0.368	-0.094
-484.420	97.706	-0.128	-0.194
-483.405	11.596	-0.211	-0.213
-482.391	345.867	0.115	0.297
-481.376	-55.984	0.314	0.183
-480.362	15.169	-0.114	0.117
-479.347	175.862	-0.089	0.170
-478.332	230.505	-0.190	0.409
-477.318	202.003	0.099	0.201
-476.303	-55.224	0.212	-0.125
-475.289	324.800	-0.185	-0.466
-474.274	50.337	-0.165	-0.205
-473.259	-67.186	-0.214	0.110
-472.245	-36.034	-0.550	0.390
-471.230	231.989	0.086	-0.187
-470.216	-200.000	-0.001	0.027
-469.201	40.309	0.506	-0.598
-468.186	28.428	-0.202	-0.224
-467.172	800.000	0.060	-0.345
-466.157	48.875	-0.157	0.194
-465.143	-111.383	-0.160	-0.042
-464.128	151.749	-0.284	0.509
-463.113	-200.000	0.050	0.537
-462.099	800.000	0.025	0.140
-461.084	2.492	-0.156	0.148
-460.070	-138.738	0.880	-0.125
-459.055	-200.000	0.004	0.194
-458.040	-62.613	-0.311	-0.169
-457.026	800.000	-0.083	-0.355
-456.011	-78.297	0.109	0.049
-454.997	-150.332	0.160	-0.016
-453.982	52.410	-0.335	0.420
-452.968	-200.000	-0.052	0.358
-451.953	311.830	-0.327	0.810
-450.938	286.775	0.074	-0.177
-449.924	184.609	0.251	-0.490
-448.909	701.070	0.136	0.471
-447.895	-150.569	-0.384	-0.038
-446.880	212.003	-0.092	-0.190
-445.865	800.000	-0.056	-0.284
-444.851	-49.822	0.352	-0.219
-443.836	-155.945	0.215	0.018
-442.822	-200.000	-0.024	0.278
-441.807	-112.414	-0.312	0.081
-440.792	95.556	-0.201	0.301
-439.778	58.738	0.250	0.322
-438.763	-126.641	0.132	0.025
-437.749	-200.000	0.053	-0.384
-436.734	257.365	-0.091	0.206
-435.719	-149.264	-0.266	0.028
-434.705	24.409	-0.206	0.224
-433.690	800.000	0.038	-0.196
-432.676	24.179	0.111	-0.121
-431.661	-200.000	-0.077	-0.636
-430.646	-49.412	-0.363	-0.227
-429.632	800.000	0.078	0.304
-428.617	-61.291	0.138	0.076
-427.603	69.994	0.220	-0.299
-426.588	312.100	-0.141	-0.349
-425.573	219.907	-0.138	0.291
-424.559	-120.008	0.058	-0.013
-423.544	-200.000	0.088	0.731
-422.530	800.000	0.134	0.519
-421.515	181.361	-0.033	-0.065
-420.500	-81.672	0.250	-0.107
-419.486	49.818	0.283	0.350
-418.471	11.714	-0.221	-0.222
-417.457	472.268	-0.298	0.884
-416.442	-158.597	-0.213	0.016
-415.428	55.341	-0.105	-0.133
-414.413	338.120	-0.083	0.213
-413.398	-200.000	0.373	0.000
-412.384	-20.097	0.174	0.140
-411.369	-28.345	-0.161	0.122
-410.355	-17.315	-0.235	0.194
-409.340	-200.000	-0.026	-0.194
-408.325	-200.000	-0.003	-0.332
-407.311	-69.177	0.259	-0.130
-406.296	-125.965	-0.169	-0.033
-405.282	508.485	-0.093	0.283
-404.267	-77.879	0.345	0.155
-403.252	-111.230	0.137	0.036
-402.238	-122.222	0.696	0.148
-401.223	800.000	-0.073	0.342
-400.209	27.538	-0.056	-0.062
-399.194	-6.496	-0.127	0.113
-398.179	183.760	-0.016	0.030
-397.165	-23.058	-0.063	-0.049
-396.150	188.932	-0.160	0.316
-395.136	-200.000	0.002	-0.046
-394.121	-154.930	0.480	-0.041
-393.106	-93.907	-0.510	0.183
-392.092	192.286	0.113	0.225
-391.077	-77.690	0.379	-0.171
-390.063	-200.000	-0.007	-0.122
-389.048	-16.227	0.239	-0.199
-388.033	-75.254	-0.445	0.207
-387.019	607.043	0.098	0.323
-386.004	-150.506	0.151	0.015
-384.990	244.352	-0.161	0.355
-383.975	758.297	0.078	0.278
-382.960	3.006	-0.274	0.261
-381.946	343.667	-0.104	0.267
-380.931	-152.326	-0.065	-0.006
-379.917	-154.078	-0.105	0.009
-378.902	37.897	-0.132	-0.154
-377.888	-33.319	0.121	-0.087
-376.873	800.000	0.099	0.514
-375.858	45.291	0.367	0.444
-374.844	-181.538	0.322	-0.008
-373.829	-144.836	0.279	0.033
-372.815	25.231	-0.175	0.191
-371.800	-13.346	-0.191	0.162
-370.785	65.485	0.077	-0.102
-369.771	800.000	0.039	0.155
-368.756	-86.788	-0.152	-0.061
-367.742	-200.000	-0.057	-0.723
-366.727	697.869	0.112	-0.387
-365.712	-69.547	-0.254	0.127
-364.698	104.621	-0.228	0.352
-363.683	93.968	-0.020	0.030
-362.669	800.000	-0.055	-0.248
-361.654	50.910	0.334	-0.414
-360.639	-154.832	0.543	0.046
-359.625	-34.027	0.110	-0.079
-358.610	-57.918	0.229	-0.131
-357.596	-93.768	-0.254	-0.091
-356.581	-45.561	0.080	0.051
-355.566	-100.729	0.076	-0.024
-354.552	-77.900	-0.265	-0.119
-353.537	-116.892	0.344	-0.082
-352.523	-67.221	-0.262	0.135
-351.508	800.000	0.051	-0.261
-350.493	507.626	0.036	0.111
-349.479	68.075	0.108	0.145
-348.464	141.313	-0.063	0.109
-347.450	-176.739	0.071	0.002
-346.435	-59.144	-0.124	-0.070
-345.420	800.000	-0.103	-0.396
-344.406	-155.226	0.296	-0.025
-343.391	-50.236	0.203	-0.125
-342.377	-200.000	0.012	-0.375
-341.362	-200.000	0.027	0.291
-340.348	-73.721	-0.151	0.072
-339.333	-200.000	0.032	-0.214
-338.318	-89.244	0.310	0.119
-337.304	-185.925	-0.190	-0.004
-336.289	38.419	0.344	0.401
-335.275	800.000	0.028	-0.117
-334.260	-127.362	0.170	0.032
-333.245	-65.911	-0.173	-0.090
-332.231	800.000	-0.086	0.364
-331.216	-98.131	0.278	0.093
-330.202	-122.937	-0.478	0.100
-329.187	-200.000	0.001	-0.356
-328.172	-200.000	-0.001	-0.052
-327.158	-116.049	-0.078	-0.019
-326.143	245.076	-0.308	-0.679
-325.129	-63.207	-0.376	-0.202
-324.114	-0.225	-0.155	-0.144
-323.099	-156.095	0.148	-0.012
-322.085	25.843	0.266	-0.289
-321.070	-200.000	-0.026	-0.680
-320.056	-200.000	-0.017	-0.367
-319.041	-33.276	0.124	0.089
-318.026	-138.491	0.160	-0.023
-317.012	800.000	0.075	-0.272
-315.997	-86.090	-0.590	0.237
-314.983	800.000	0.095	0.388
-313.968	84.150	0.077	-0.111
-312.953	103.964	0.290	0.446
-311.939	-86.895	0.129	-0.051
-310.924	-176.349	-0.459	-0.015
-309.910	126.532	0.205	0.340
-308.895	93.564	0.228	-0.338
-307.880	-200.000	-0.035	-0.256
-306.866	144.123	-0.204	-0.356
-305.851	-142.490	0.248	-0.031
-304.837	-79.694	-0.273	0.119
-303.822	-115.562	-0.490	-0.119
-302.807	-21.383	0.368	0.292
-301.793	-121.931	0.101	-0.022
-300.778	-200.000	0.042	0.532
-299.764	-64.151	-0.293	0.156
-298.749	-149.201	0.279	-0.029
-297.735	-78.786	0.090	0.040
-296.720	-128.945	-0.294	0.053
-295.705	-90.915	-0.229	-0.085
-294.691	-200.000	0.004	-0.079
-293.676	39.131	-0.088	-0.103
-292.662	-200.000	-0.057	0.697
-291.647	399.932	-0.193	-0.531
-290.632	800.000	-0.166	0.714
-289.618	-95.924	0.385	-0.133
-288.603	-15.923	0.305	0.253
-287.589	82.993	0.122	0.173
-286.574	-146.778	0.423	-0.047
-285.559	-149.744	-0.468	-0.047
-284.545	150.075	-0.127	-0.225
-283.530	61.833	0.251	-0.326
-282.516	800.000	-0.093	0.445
-281.501	-200.000	0.018	0.437
-280.486	-121.447	0.067	-0.014
-279.472	258.294	-0.190	-0.429
-278.457	-64.940	0.158	-0.083
-277.443	2.764	-0.125	-0.118
-276.428	97.352	-0.050	0.075
-275.413	23.411	-0.194	0.208
-274.399	175.350	0.201	0.380
-273.384	-200.000	-0.024	0.219
-272.370	-99.047	-0.261	0.086
-271.355	-114.201	-0.032	-0.008
-270.340	-132.806	-0.012	0.002
-269.326	227.993	-0.074	0.157
-268.311	-86.750	0.153	0.061
-267.297	-47.244	0.174	0.110
-266.282	800.000	0.001	0.006
-265.267	437.826	0.060	0.172
-264.253	0.500	0.232	0.215
-263.238	800.000	0.027	0.136
-262.224	-106.472	-0.378	0.109
-261.209	-57.976	-0.628	0.356
-260.195	83.962	-0.089	-0.127
-259.180	93.518	-0.225	-0.332
-258.165	193.151	-0.049	0.097
-257.151	62.777	0.062	0.081
-256.136	56.917	0.186	0.236
-255.122	-58.304	0.403	0.227
-254.107	-76.391	-0.288	0.131
-253.092	-200.000	-0.046	-0.356
-252.078	800.000	0.132	-0.643
-251.063	-117.768	0.387	0.090
-250.049	-200.000	0.018	0.198
-249.034	414.742	0.082	-0.229
-248.019	-48.835	0.217	-0.135
-247.005	81.606	-0.324	0.457
-245.990	-68.271	0.059	-0.030
-244.976	-2.003	-0.355	0.324
-243.961	-200.000	-0.029	-0.497
-242.946	-77.766	-0.022	-0.010
-241.932	-84.631	-0.355	-0.145
-240.917	-67.281	0.072	0.037
-239.903	-110.974	0.172	-0.046
-238.888	-200.000	0.006	-0.273
-237.873	-43.635	-0.244	0.160
-236.859	-98.699	0.434	-0.143
-235.844	-30.475	0.307	-0.226
-234.830	4.631	-0.305	0.292
-233.815	10.092	0.415	-0.410
-232.800	-50.633	-0.124	0.076
-231.786	-164.302	0.227	0.013
-230.771	790.930	-0.070	-0.252
-229.757	-73.466	0.066	0.031
-228.742	714.829	0.121	-0.419
-227.727	-80.436	-0.288	0.124
-226.713	-33.627	0.133	0.095
-225.698	295.414	0.161	0.386
-224.684	115.214	0.092	-0.147
-223.669	-111.006	0.232	-0.062
-222.655	-41.016	0.194	0.130
-221.640	-98.447	-0.067	0.022
-220.625	-60.759	-0.063	0.035
-219.611	-88.147	0.350	0.136
-218.596	-119.724	-0.615	0.137
-217.582	-181.477	-0.291	0.007
-216.567	-200.000	-0.026	0.213
-215.552	-77.105	0.601	-0.271
-214.538	-26.919	0.191	-0.145
-213.523	-200.000	-0.058	-0.409
-212.509	-32.748	0.217	-0.157
-211.494	-200.000	0.001	-0.046
-210.479	-90.905	0.228	-0.085
-209.465	124.224	-0.205	0.335
-208.450	141.845	-0.323	-0.559
-207.436	-200.000	0.011	0.379
-206.421	-200.000	0.193	0.001
-205.406	39.838	-0.444	-0.518
-204.392	-99.323	-0.521	0.170
-203.377	-67.431	0.450	0.229
-202.363	-200.000	-0.057	0.349
-201.348	-18.778	0.254	0.206
-200.333	-48.042	0.127	-0.080
-199.319	-19.522	0.366	-0.294
-198.304	8.870	-0.209	-0.205
-197.290	119.249	0.179	-0.288
-196.275	60.740	0.147	0.190
-195.260	-118.703	-0.577	-0.131
-194.246	-105.385	0.299	-0.088
-193.231	221.395	-0.116	0.243
-192.217	33.441	-0.109	-0.123
-191.202	-11.926	-0.224	-0.191
-190.187	161.987	-0.165	-0.301
-189.173	-157.318	0.151	0.012
-188.158	800.000	0.044	0.239
-187.144	-68.644	-0.263	0.132
-186.129	800.000	-0.052	-0.194
-185.114	164.846	0.078	0.143
-184.100	-95.530	0.273	-0.095
-183.085	261.227	-0.271	-0.611
-182.071	216.794	-0.166	-0.345
-181.056	-167.782	0.277	-0.014
-180.042	800.000	-0.042	-0.214
-179.027	-51.673	0.246	-0.149
-178.012	25.062	0.092	-0.100
-176.998	-119.045	0.473	0.107
-175.983	-155.844	-0.345	0.028
-174.969	-30.381	-0.031	-0.023
-173.954	118.773	-0.258	-0.415
-172.939	23.281	-0.180	-0.192
-171.925	-139.098	0.189	0.026
-170.910	195.455	-0.081	0.161
-169.896	800.000	0.167	0.664
-168.881	-200.000	0.008	-0.145
-167.866	23.449	-0.065	0.069
-166.852	609.698	0.118	0.385
-165.837	57.180	-0.377	0.478
-164.823	-98.384	-0.211	0.070
-163.808	90.727	-0.208	-0.303
-162.793	-200.000	-0.012	0.648
-161.779	-66.280	0.149	-0.077
-160.764	-200.000	-0.009	0.191
-159.750	191.017	0.203	0.397
-158.735	-32.606	-0.102	-0.074
-157.720	-62.865	0.378	0.202
-156.706	-200.000	-0.109	0.709
-155.691	-110.643	0.526	0.140
-154.677	73.968	-0.147	0.200
-153.662	-156.943	0.309	-0.024
-152.647	-15.503	-0.269	-0.223
-151.633	-182.207	0.622	-0.015
-150.618	-200.000	0.043	-0.349
-149.604	-166.304	0.138	0.007
-148.589	800.000	0.102	-0.479
-147.574	-200.000	0.003	0.608
-146.560	-200.000	0.002	0.204
-145.545	-155.294	-0.161	0.013
-144.531	800.000	-0.098	0.374
-143.516	-51.674	0.169	-0.102
-142.502	-148.325	-0.111	0.012
-141.487	-28.332	0.151	-0.113
-140.472	-163.480	-0.345	0.021
-139.458	176.585	0.096	-0.181
-138.443	-200.000	-0.037	-0.604
-137.429	-200.000	-0.066	0.601
-136.414	26.389	-0.171	0.185
-135.399	-122.346	-0.320	-0.067
-134.385	-14.282	-0.402	-0.335
-133.370	-25.100	0.202	0.155
-132.356	-179.428	-0.335	-0.009
-131.341	-11.647	-0.117	-0.099
-130.326	-200.000	0.022	0.257
-129.312	-24.684	0.115	-0.089
-128.297	152.783	0.097	0.172
-127.283	-93.328	-0.153	0.055
-126.268	-200.000	0.052	0.658
-125.253	59.323	0.110	-0.141
-124.239	-113.275	-0.359	-0.091
-123.224	-200.000	0.060	0.416
-122.210	237.622	-0.133	0.287
