DTS Sentinel unit serial number:	SN409020Multiplexer serial number:	ORYXHardware model number:	OX4-SRSoftware version number:	ORYX F/W v3.00 Oryx Data Collector v3.7.2.0data status	okinstallation	HaddamTimeLapsedifferential loss correction	single-endedforward channel	channel 3reverse channel	N/Adate	2011/06/21time	17:56:17forward acquisition time	30.00reverse acquisition time	0.00gamma	498.7831k internal	0.1836k external	0.1836temperature offset calibration	1.0074default loss term (dB/km)	0.3790temperature slope calibration	1.3530multiplexer offset coefficient	1.0000multiplexer slope coefficient	1.0000fibre end	0.00T internal ref (°C)	36.00T ext. ref 1 (°C)	29.99T ext. ref 2 (°C)	0.28length (m)	temperature (°C)	Stokes	anti-Stokes-747.200	323.313	-0.161	-0.391
-746.185	-44.711	0.068	0.043
-745.171	-160.981	0.591	0.039
-744.156	-101.855	0.591	0.180
-743.142	-194.256	0.121	0.001
-742.127	800.000	0.196	0.775
-741.112	-200.000	-0.025	0.161
-740.098	223.524	0.343	0.704
-739.083	88.683	-0.238	0.335
-738.069	-160.144	0.128	0.009
-737.054	-97.536	-0.543	-0.178
-736.039	-52.650	-0.189	0.110
-735.025	-35.393	-0.383	-0.263
-734.010	127.542	-0.091	-0.147
-732.996	219.739	0.242	0.492
-731.981	-200.000	-0.003	0.232
-730.966	10.456	-0.199	-0.192
-729.952	-4.192	0.292	-0.256
-728.937	-200.000	0.036	-0.224
-727.923	-94.479	-0.555	0.190
-726.908	-53.298	-0.481	-0.278
-725.894	-200.000	-0.037	-0.274
-724.879	-6.484	-0.326	-0.281
-723.864	800.000	-0.071	0.256
-722.850	250.700	0.185	0.399
-721.835	208.185	-0.117	-0.231
-720.821	-163.646	-0.326	0.019
-719.806	-118.551	-0.169	-0.037
-718.791	15.008	-0.295	0.292
-717.777	-119.943	-0.311	0.067
-716.762	-20.381	0.242	0.188
-715.748	-151.257	0.675	0.063
-714.733	-17.785	-0.255	0.202
-713.718	800.000	-0.158	-0.683
-712.704	-71.754	0.618	-0.290
-711.689	-200.000	0.085	-0.619
-710.675	57.829	0.088	-0.109
-709.660	354.183	0.111	0.279
-708.645	-152.161	-0.359	0.033
-707.631	-71.932	0.323	-0.151
-706.616	10.183	0.274	0.263
-705.602	-76.620	0.050	-0.022
-704.587	-68.069	-0.231	-0.113
-703.572	88.097	-0.025	-0.035
-702.558	-36.565	0.269	-0.183
-701.543	89.741	0.346	-0.490
-700.529	-51.471	-0.429	0.253
-699.514	292.392	0.200	-0.462
-698.499	800.000	0.076	0.380
-697.485	-200.000	0.013	0.419
-696.470	-200.000	-0.030	0.249
-695.456	-112.742	-0.184	0.046
-694.441	-130.472	-0.470	0.080
-693.426	-2.831	0.160	-0.141
-692.412	16.952	0.112	0.112
-691.397	81.555	0.141	-0.192
-690.383	-200.000	0.021	0.221
-689.368	-37.386	-0.199	0.134
-688.354	800.000	0.036	0.161
-687.339	-34.277	0.112	-0.078
-686.324	-103.957	0.564	-0.165
-685.310	-130.081	0.766	-0.131
-684.295	-200.000	-0.039	-0.329
-683.281	-53.357	-0.299	-0.173
-682.266	118.510	-0.105	-0.164
-681.251	492.679	-0.029	-0.085
-680.237	388.627	-0.133	0.349
-679.222	-114.916	-0.203	-0.048
-678.208	216.579	0.120	0.242
-677.193	436.704	0.054	0.150
-676.178	-119.972	-0.389	-0.084
-675.164	268.113	0.102	-0.227
-674.149	-138.075	-0.231	0.032
-673.135	-21.261	0.052	-0.040
-672.120	-20.452	-0.387	0.300
-671.105	-64.414	-0.252	-0.129
-670.091	178.099	-0.116	0.215
-669.076	-53.108	-0.259	0.150
-668.062	-82.379	-0.171	0.070
-667.047	-200.000	0.028	0.177
-666.032	-73.022	-0.147	0.068
-665.018	-21.082	-0.265	-0.204
-664.003	155.149	0.142	-0.247
-662.989	225.971	-0.091	-0.187
-661.974	315.532	-0.252	-0.604
-660.959	7.345	-0.037	0.035
-659.945	-38.479	-0.181	-0.121
-658.930	-134.850	0.560	-0.085
-657.916	-200.000	-0.007	0.319
-656.901	-69.837	0.086	0.041
-655.886	338.060	0.076	0.187
-654.872	-18.591	-0.190	-0.149
-653.857	-23.831	-0.225	0.170
-652.843	71.312	0.253	-0.331
-651.828	234.988	0.061	-0.127
-650.814	3.023	0.256	0.234
-649.799	-154.143	-0.103	-0.009
-648.784	-200.000	0.026	-0.254
-647.770	-35.599	0.434	-0.297
-646.755	-200.000	0.016	-0.283
-645.741	78.131	-0.180	-0.243
-644.726	219.623	-0.111	-0.226
-643.711	-74.638	0.409	-0.185
-642.697	-43.656	0.230	0.146
-641.682	-74.471	0.301	0.136
-640.668	-53.707	0.211	-0.121
-639.653	-28.799	-0.056	0.041
-638.638	-67.783	-0.464	0.228
-637.624	18.383	0.154	-0.155
-636.609	123.656	0.116	-0.183
-635.595	-86.939	-0.259	0.099
-634.580	800.000	0.070	0.287
-633.565	-103.030	0.246	0.073
-632.551	-71.104	0.439	-0.207
-631.536	-200.000	0.017	0.223
-630.522	-121.016	-0.299	-0.063
-629.507	-56.094	-0.152	0.085
-628.492	-200.000	0.039	0.271
-627.478	800.000	-0.113	-0.401
-626.463	-182.086	-0.160	0.004
-625.449	13.521	0.371	0.363
-624.434	92.164	-0.077	0.110
-623.419	-170.779	-0.520	-0.022
-622.405	21.637	-0.232	-0.238
-621.390	-69.602	0.413	-0.198
-620.376	537.715	0.181	0.544
-619.361	83.829	-0.254	0.350
-618.346	-108.598	-0.129	0.035
-617.332	267.966	0.162	0.358
-616.317	-16.201	-0.159	0.127
-615.303	-2.398	0.350	-0.309
-614.288	-136.497	-0.364	-0.053
-613.273	362.934	-0.075	-0.190
-612.259	5.843	0.160	-0.149
-611.244	-0.977	-0.171	0.152
-610.230	800.000	0.193	0.699
-609.215	-200.000	-0.092	0.559
-608.201	-200.000	-0.022	-0.478
-607.186	198.703	0.174	-0.336
-606.171	-12.137	-0.295	0.243
-605.157	-102.959	-0.503	0.149
-604.142	800.000	0.092	0.344
-603.128	-184.751	0.506	-0.010
-602.113	-60.678	0.347	0.185
-601.098	-94.271	0.055	-0.019
-600.084	80.121	-0.332	-0.451
-599.069	65.578	-0.233	-0.297
-598.055	54.749	0.329	-0.400
-597.040	291.867	0.175	-0.403
-596.025	160.851	0.263	-0.464
-595.011	800.000	0.071	-0.296
-593.996	800.000	-0.013	0.052
-592.982	184.644	0.216	0.404
-591.967	1.665	-0.348	-0.316
-590.952	-200.000	-0.045	0.344
-589.938	-30.204	0.244	-0.174
-588.923	198.380	-0.204	-0.393
-587.909	-159.264	0.328	0.023
-586.894	227.984	-0.175	-0.360
-585.879	800.000	0.035	-0.133
-584.865	-153.515	0.047	0.004
-583.850	201.933	0.107	-0.208
-582.836	222.646	0.194	-0.394
-581.821	102.649	-0.061	-0.090
-580.806	-94.119	-0.343	-0.118
-579.792	117.112	0.340	-0.528
-578.777	424.925	0.047	0.129
-577.763	244.225	0.147	0.312
-576.748	257.436	0.181	0.392
-575.733	800.000	0.069	-0.336
-574.719	-155.510	-0.430	0.034
-573.704	-134.874	0.405	-0.061
-572.690	-42.301	0.507	0.325
-571.675	33.196	-0.118	-0.129
-570.661	-51.456	-0.285	-0.167
-569.646	-99.471	-0.131	0.041
-568.631	416.126	0.048	0.128
-567.617	59.217	-0.303	-0.375
-566.602	-109.449	-0.254	-0.067
-565.588	52.742	0.122	-0.147
-564.573	-32.532	-0.176	-0.123
-563.558	-122.375	0.637	0.130
-562.544	135.463	-0.133	-0.218
-561.529	187.878	0.189	-0.357
-560.515	-78.245	0.368	-0.158
-559.500	-69.757	0.175	-0.084
-558.485	162.298	0.365	-0.645
-557.471	99.892	0.050	0.073
-556.456	-54.517	-0.158	0.090
-555.442	-79.305	0.276	-0.117
-554.427	800.000	0.036	0.187
-553.412	-102.790	-0.157	0.047
-552.398	169.062	0.142	0.256
-551.383	-51.166	0.231	-0.136
-550.369	-54.308	-0.187	0.107
-549.354	380.205	0.110	-0.284
-548.339	-90.766	-0.294	0.106
-547.325	16.001	-0.226	0.224
-546.310	10.854	0.247	-0.237
-545.296	219.686	-0.156	-0.315
-544.281	-32.624	-0.207	-0.144
-543.266	-108.398	-0.315	-0.085
-542.252	-89.118	-0.132	0.049
-541.237	-76.320	0.048	0.021
-540.223	-8.958	-0.215	0.181
-539.208	-200.000	-0.001	0.159
-538.193	-200.000	0.013	0.209
-537.179	-55.854	0.247	0.138
-536.164	800.000	0.083	-0.379
-535.150	-9.146	-0.196	-0.165
-534.135	-131.083	0.339	-0.056
-533.121	-103.681	-0.264	-0.077
-532.106	792.458	0.016	-0.056
-531.091	39.153	0.695	-0.782
-530.077	28.308	0.086	-0.091
-529.062	304.185	-0.145	-0.340
-528.048	-180.518	-0.294	0.007
-527.033	800.000	0.104	-0.485
-526.018	-132.813	0.219	-0.035
-525.004	800.000	-0.169	0.653
-523.989	106.578	-0.151	0.225
-522.975	134.990	0.225	0.368
-521.960	81.866	-0.291	-0.396
-520.945	-107.642	-0.126	0.034
-519.931	242.572	0.089	0.187
-518.916	67.853	0.100	0.128
-517.902	-74.809	0.518	0.232
-516.887	800.000	0.006	0.023
-515.872	75.660	-0.090	0.120
-514.858	-16.432	0.332	-0.264
-513.843	800.000	-0.051	0.253
-512.829	53.654	-0.138	0.167
-511.814	17.689	0.229	0.229
-510.799	-131.521	0.251	0.041
-509.785	-200.000	-0.012	0.240
-508.770	3.097	0.151	-0.138
-507.756	-72.888	0.504	-0.232
-506.741	-68.425	0.382	-0.185
-505.726	-81.269	0.486	0.201
-504.712	800.000	-0.046	0.173
-503.697	-60.470	0.506	0.269
-502.683	364.344	-0.069	0.174
-501.668	98.742	-0.153	0.221
-500.653	115.108	-0.245	-0.375
-499.639	109.330	-0.179	0.269
-498.624	-42.715	-0.228	0.145
-497.610	108.643	0.070	-0.106
-496.595	-156.774	-0.512	-0.039
-495.581	-32.592	-0.077	0.053
-494.566	-56.304	-0.205	0.114
-493.551	61.158	-0.184	0.230
-492.537	-91.585	-0.255	-0.090
-491.522	-64.228	0.192	-0.098
-490.508	165.189	0.293	-0.520
-489.493	-96.102	0.201	0.066
-488.478	800.000	-0.071	0.257
-487.464	410.575	-0.077	0.205
-486.449	-152.401	-0.310	0.028
-485.435	7.256	0.315	-0.295
-484.420	-149.332	0.252	0.025
-483.405	17.603	0.470	0.468
-482.391	-113.495	0.160	0.039
-481.376	-29.447	-0.349	-0.249
-480.362	-57.025	0.170	-0.093
-479.347	95.662	-0.308	-0.441
-478.332	208.907	0.184	0.361
-477.318	-24.955	0.142	-0.106
-476.303	-130.923	0.428	-0.071
-475.289	296.658	-0.107	-0.246
-474.274	200.961	-0.126	-0.243
-473.259	-200.000	-0.028	-0.472
-472.245	163.227	-0.296	0.523
-471.230	27.167	0.144	0.152
-470.216	-118.327	-0.201	0.044
-469.201	-135.457	-0.317	-0.047
-468.186	113.160	-0.285	-0.434
-467.172	180.921	-0.173	0.319
-466.157	-131.936	0.581	0.094
-465.143	151.855	-0.099	-0.169
-464.128	315.495	-0.064	-0.152
-463.113	-136.365	0.549	-0.079
-462.099	155.643	-0.110	0.190
-461.084	181.572	0.204	-0.378
-460.070	800.000	-0.119	-0.485
-459.055	-143.986	-0.511	-0.060
-458.040	800.000	-0.025	-0.127
-457.026	-200.000	0.010	-0.100
-456.011	-136.989	0.598	-0.085
-454.997	82.911	-0.056	0.076
-453.982	-103.711	-0.529	0.154
-452.968	6.316	0.163	0.151
-451.953	172.152	-0.201	0.364
-450.938	-146.792	-0.050	0.005
-449.924	-156.187	-0.767	-0.060
-448.909	-159.516	-0.509	0.035
-447.895	-200.000	-0.066	0.507
-446.880	-113.768	-0.386	0.093
-445.865	-200.000	-0.012	0.545
-444.851	-69.322	0.334	0.160
-443.836	208.753	-0.157	-0.308
-442.822	-72.831	0.506	-0.232
-441.807	-200.000	-0.011	0.332
-440.792	-200.000	-0.042	0.597
-439.778	-32.600	-0.261	0.182
-438.763	-19.768	0.081	0.063
-437.749	-200.000	0.019	-0.302
-436.734	329.461	-0.142	-0.343
-435.719	10.209	-0.294	0.280
-434.705	-133.770	-0.201	0.031
-433.690	715.399	0.063	-0.211
-432.676	442.967	-0.090	-0.248
-431.661	184.180	0.353	0.656
-430.646	-117.253	0.162	0.036
-429.632	37.343	-0.136	0.150
-428.617	-154.401	0.110	-0.009
-427.603	800.000	-0.115	-0.593
-426.588	-13.561	0.323	0.261
-425.573	800.000	-0.180	0.752
-424.559	-200.000	-0.035	0.629
-423.544	-200.000	-0.260	-0.001
-422.530	-200.000	0.134	-0.760
-421.515	211.347	-0.194	-0.383
-420.500	-72.079	0.321	0.149
-419.486	-200.000	-0.029	-0.229
-418.471	-64.629	0.047	0.024
-417.457	-190.499	-0.183	0.002
-416.442	8.566	0.248	-0.234
-415.428	-200.000	-0.002	0.414
-414.413	-61.070	0.550	0.289
-413.398	115.442	0.190	0.290
-412.384	-200.000	0.081	0.624
-411.369	-112.611	0.016	-0.004
-410.355	-194.268	-0.339	0.003
-409.340	-200.000	0.016	-0.416
-408.325	-200.000	-0.036	-0.405
-407.311	-30.887	-0.210	-0.148
-406.296	-200.000	0.019	-0.295
-405.282	-93.245	-0.134	-0.046
-404.267	-200.000	0.007	-0.204
-403.252	559.354	-0.035	-0.106
-402.238	-4.469	-0.358	0.309
-401.223	28.691	0.332	0.352
-400.209	-27.675	-0.654	-0.473
-399.194	232.951	-0.051	-0.105
-398.179	-95.333	-0.126	0.042
-397.165	114.223	0.274	0.417
-396.150	45.681	0.161	0.186
-395.136	-63.412	-0.244	0.125
-394.121	800.000	0.055	0.192
-393.106	429.279	-0.135	-0.366
-392.092	-33.984	-0.271	0.186
-391.077	-2.741	-0.208	-0.181
-390.063	76.372	-0.108	0.143
-389.048	-200.000	0.034	-0.191
-388.033	-200.000	-0.007	0.509
-387.019	142.290	0.195	-0.325
-386.004	-110.263	0.079	0.020
-384.990	-25.898	-0.291	0.213
-383.975	-29.845	-0.497	-0.353
-382.960	13.951	0.257	0.250
-381.946	-200.000	-0.035	0.315
-380.931	28.529	0.018	-0.018
-379.917	-118.363	-0.253	0.056
-378.902	-41.485	-0.482	-0.309
-377.888	-31.232	-0.297	0.208
-376.873	800.000	0.116	-0.404
-375.858	-3.500	0.378	-0.328
-374.844	-76.017	-0.127	0.056
-373.829	621.456	0.081	-0.256
-372.815	-41.257	0.131	-0.084
-371.800	-117.616	-0.245	0.055
-370.785	-28.562	-0.448	0.321
-369.771	-200.000	-0.027	0.164
-368.756	184.927	0.076	-0.142
-367.742	-193.325	-0.550	-0.006
-366.727	327.007	-0.129	-0.311
-365.712	-200.000	-0.007	-0.162
-364.698	-53.291	-0.340	0.194
-363.683	-166.435	0.545	0.028
-362.669	-98.062	-0.141	0.045
-361.654	-200.000	-0.004	-0.259
-360.639	62.246	-0.134	0.167
-359.625	-98.968	0.269	0.085
-358.610	800.000	0.126	0.503
-357.596	-26.349	0.147	-0.107
-356.581	-10.489	0.214	-0.177
-355.566	-50.805	0.313	0.183
-354.552	-200.000	-0.019	0.319
-353.537	-200.000	0.050	-0.556
-352.523	50.190	-0.111	0.131
-351.508	-124.454	-0.342	0.066
-350.493	413.118	-0.152	-0.406
-349.479	-133.041	-0.310	0.049
-348.464	-200.000	-0.001	0.241
-347.450	-97.620	-0.089	0.029
-346.435	-155.231	0.406	0.033
-345.420	-132.340	0.290	-0.046
-344.406	-200.000	-0.026	0.225
-343.391	169.566	0.168	-0.300
-342.377	800.000	0.032	0.149
-341.362	-20.369	0.261	0.200
-340.348	-15.540	-0.130	-0.103
-339.333	-42.806	-0.523	-0.331
-338.318	-117.852	-0.252	-0.056
-337.304	-75.314	-0.227	0.100
-336.289	-28.379	-0.344	0.247
-335.275	75.543	-0.204	-0.269
-334.260	-31.599	0.273	0.191
-333.245	800.000	-0.038	0.132
-332.231	-36.535	0.335	0.224
-331.216	94.492	-0.128	-0.182
-330.202	145.658	0.129	0.216
-329.187	-116.355	-0.518	0.118
-328.172	-7.604	-0.153	-0.129
-327.158	368.519	0.051	0.129
-326.143	-82.695	-0.599	-0.240
-325.129	194.872	-0.045	0.086
-324.114	-22.257	0.139	-0.105
-323.099	-200.000	-0.006	-0.034
-322.085	162.028	0.168	-0.295
-321.070	-156.964	0.485	0.036
-320.056	80.806	0.149	0.201
-319.041	800.000	-0.112	0.546
-318.026	289.934	-0.157	0.356
-317.012	-109.640	0.364	-0.095
-315.997	-147.665	-0.216	-0.022
-314.983	-61.672	0.181	0.094
-313.968	477.733	-0.120	0.339
-312.953	800.000	0.036	-0.186
-311.939	-200.000	-0.040	-0.409
-310.924	301.881	-0.113	0.261
-309.910	49.165	0.173	0.202
-308.895	-200.000	0.055	0.421
-307.880	7.875	-0.164	0.153
-306.866	26.508	0.133	0.139
-305.851	285.041	0.126	-0.284
-304.837	46.193	-0.181	-0.209
-303.822	8.376	0.333	-0.311
-302.807	477.995	0.123	0.350
-301.793	298.941	0.090	0.207
-300.778	-10.604	0.650	0.535
-299.764	272.196	-0.296	0.653
-298.749	800.000	0.183	0.705
-297.735	-15.308	0.148	-0.117
-296.720	-194.742	-0.132	-0.001
-295.705	469.794	-0.096	-0.271
-294.691	-200.000	0.040	0.413
-293.676	-109.614	-0.102	0.027
-292.662	48.015	0.332	-0.386
-291.647	272.957	0.118	-0.260
-290.632	71.466	0.176	-0.228
-289.618	-74.293	0.272	-0.122
-288.603	-200.000	0.025	-0.153
-287.589	-200.000	-0.083	-0.565
-286.574	-117.477	0.090	-0.020
-285.559	239.720	0.173	0.359
-284.545	-87.346	0.115	-0.043
-283.530	-123.415	0.134	0.026
-282.516	-61.044	-0.466	-0.244
-281.501	-66.517	0.139	-0.068
-280.486	126.859	-0.207	-0.328
-279.472	-76.247	-0.178	-0.078
-278.457	438.354	-0.100	0.272
-277.443	-104.131	0.379	0.109
-276.428	-8.226	-0.558	-0.466
-275.413	22.253	0.209	-0.213
-274.399	750.165	0.050	0.168
-273.384	-10.718	0.326	0.268
-272.370	-176.125	-0.172	-0.006
-271.355	23.625	-0.397	-0.406
-270.340	102.451	-0.078	0.113
-269.326	24.459	-0.021	-0.022
-268.311	-128.578	-0.308	0.054
-267.297	800.000	-0.160	0.604
-266.282	-133.825	0.067	-0.010
-265.267	-200.000	0.022	-0.219
-264.253	15.361	0.214	0.209
-263.238	-144.153	-0.356	-0.041
-262.224	-108.287	-0.471	0.126
-261.209	-138.628	-0.242	-0.033
-260.195	-105.437	-0.306	-0.086
-259.180	587.644	-0.038	0.116
-258.165	-76.423	0.428	-0.186
-257.151	-200.000	-0.052	0.318
-256.136	414.585	-0.081	-0.215
-255.122	800.000	-0.003	0.012
-254.107	-200.000	0.010	-0.092
-253.092	-38.507	-0.519	0.340
-252.078	-20.608	-0.064	0.049
-251.063	-200.000	0.042	-0.233
-250.049	52.804	0.158	-0.188
-249.034	77.836	-0.092	0.121
-248.019	-177.676	-0.092	-0.003
-247.005	800.000	-0.092	0.371
-245.990	534.423	0.094	0.278
-244.976	21.345	0.196	-0.198
-243.961	-85.107	-0.155	0.060
-242.946	800.000	0.112	-0.533
-241.932	89.022	-0.348	-0.482
-240.917	-200.000	-0.001	-0.397
-239.903	-121.254	-0.546	-0.112
-238.888	649.883	-0.017	0.055
-237.873	-150.125	0.233	-0.022
-236.859	-200.000	-0.020	-0.241
-235.844	71.766	-0.303	0.391
-234.830	800.000	-0.032	0.111
-233.815	-31.812	0.242	-0.168
-232.800	27.127	0.172	-0.179
-231.786	-158.805	0.387	0.027
-230.771	-200.000	0.037	0.227
-229.757	9.350	0.092	-0.086
-228.742	75.139	0.226	0.296
-227.727	12.941	-0.130	0.125
-226.713	-167.244	-0.301	-0.015
-225.698	-28.411	-0.013	0.009
-224.684	55.519	-0.204	0.245
-223.669	-0.489	0.127	-0.112
-222.655	61.853	-0.062	0.076
-221.640	146.739	0.286	-0.478
-220.625	-64.129	0.229	-0.116
-219.611	10.854	-0.214	-0.203
-218.596	-105.755	0.211	-0.059
-217.582	-100.233	-0.225	0.069
-216.567	421.982	0.087	0.233
-215.552	162.577	0.229	0.400
-214.538	-200.000	-0.001	0.293
-213.523	-71.839	0.105	0.048
-212.509	-87.217	0.567	0.213
-211.494	-200.000	-0.044	-0.243
-210.479	-99.097	0.188	0.059
-209.465	2.900	-0.057	-0.051
-208.450	-200.000	-0.016	0.315
-207.436	107.905	-0.064	0.095
-206.421	800.000	0.103	0.383
-205.406	-122.957	-0.218	-0.043
-204.392	800.000	0.026	0.142
-203.377	800.000	-0.104	0.521
-202.363	-34.015	0.465	-0.316
-201.348	-200.000	-0.009	-0.365
-200.333	-11.449	0.221	-0.180
-199.319	800.000	0.133	-0.549
-198.304	-100.797	0.164	-0.050
-197.290	800.000	-0.025	-0.096
-196.275	800.000	-0.078	-0.407
-195.260	-200.000	0.017	-0.111
-194.246	-120.802	0.254	0.053
-193.231	-200.000	-0.038	0.252
-192.217	-105.060	-0.853	0.240
-191.202	-117.281	-0.492	0.110
-190.187	800.000	0.020	0.089
-189.173	-66.559	0.194	0.095
-188.158	-200.000	0.008	-0.230
-187.144	372.174	-0.055	0.139
-186.129	-76.190	0.098	0.043
-185.114	-38.170	0.212	-0.139
-184.100	-57.645	0.111	-0.060
-183.085	-200.000	0.090	0.000
-182.071	-48.738	0.450	0.267
-181.056	-82.497	0.261	-0.105
-180.042	-80.002	-0.154	-0.064
-179.027	-76.498	-0.181	-0.078
-178.012	-200.000	-0.021	-0.171
-176.998	106.236	0.233	-0.343
-175.983	800.000	-0.052	-0.255
-174.969	185.889	-0.110	0.203
-173.954	-200.000	-0.002	0.061
-172.939	112.068	0.240	-0.360
-171.925	-157.052	-0.342	0.025
-170.910	-38.463	-0.270	0.176
-169.896	-7.693	0.272	0.227
-168.881	543.077	-0.059	-0.174
-167.866	-200.000	-0.007	0.176
-166.852	0.411	0.243	0.215
-165.837	-200.000	0.026	-0.302
-164.823	-83.397	-0.335	-0.132
-163.808	50.484	0.235	0.276
-162.793	800.000	-0.081	0.401
-161.779	-111.389	-0.237	-0.060
-160.764	-82.536	-0.266	-0.106
-159.750	-200.000	0.017	0.314
-158.735	-65.821	0.348	-0.172
-157.720	-106.108	0.578	0.160
-156.706	800.000	-0.078	0.340
-155.691	17.452	-0.284	0.279
-154.677	800.000	-0.070	0.273
-153.662	-53.150	0.176	-0.100
-152.647	162.400	-0.154	-0.267
-151.633	-135.974	-0.291	0.042
-150.618	-56.368	-0.168	-0.092
-149.604	-127.739	0.264	-0.047
-148.589	-127.313	0.336	0.060
-147.574	169.274	0.265	-0.470
-146.560	-21.774	-0.314	-0.236
-145.545	-200.000	0.014	0.239
-144.531	621.245	0.125	0.392
-143.516	318.793	0.145	-0.341
-142.502	-22.321	-0.177	0.132
-141.487	800.000	0.106	0.453
-140.472	-58.701	-0.381	-0.203
-139.458	17.625	-0.140	0.138
-138.443	-34.911	0.332	0.224
-137.429	39.068	0.224	-0.248
-136.414	113.501	0.065	0.098
-135.399	126.049	-0.255	-0.400
-134.385	245.877	0.024	-0.050
-133.370	-72.169	-0.220	-0.101
-132.356	-75.457	-0.472	0.207
-131.341	-38.510	-0.108	0.070
-130.326	-40.723	0.126	0.081
-129.312	-103.429	0.184	-0.053
-128.297	-173.174	0.042	0.002
-127.283	-7.136	-0.410	0.343
-126.268	11.598	0.197	-0.186
-125.253	33.208	-0.131	-0.140
-124.239	-16.235	0.520	0.408
-123.224	-22.815	-0.230	-0.172
-122.210	-83.283	-0.227	0.090
-121.195	11.848	0.116	0.110
