DTS Sentinel unit serial number:	SN409020Multiplexer serial number:	ORYXHardware model number:	OX4-SRSoftware version number:	ORYX F/W v3.00 Oryx Data Collector v3.7.2.0data status	okinstallation	HaddamTimeLapsedifferential loss correction	single-endedforward channel	channel 3reverse channel	N/Adate	2011/06/21time	22:56:17forward acquisition time	30.00reverse acquisition time	0.00gamma	498.7831k internal	0.1754k external	0.1754temperature offset calibration	1.0074default loss term (dB/km)	0.3790temperature slope calibration	1.3530multiplexer offset coefficient	1.0000multiplexer slope coefficient	1.0000fibre end	0.00T internal ref (°C)	23.56T ext. ref 1 (°C)	18.89T ext. ref 2 (°C)	0.05length (m)	temperature (°C)	Stokes	anti-Stokes-747.200	12.837	-0.179	-0.183
-746.185	114.712	0.230	0.373
-745.171	-37.018	-0.067	0.048
-744.156	214.046	-0.208	0.437
-743.142	-200.000	0.034	-0.329
-742.127	-43.816	-0.379	-0.253
-741.112	-53.791	0.392	-0.237
-740.098	5.132	-0.300	0.293
-739.083	-156.973	-0.255	0.020
-738.069	-200.000	0.008	0.320
-737.054	-85.717	-0.514	-0.210
-736.039	-200.000	-0.040	-0.278
-735.025	-48.759	-0.173	0.110
-734.010	140.797	-0.200	0.351
-732.996	255.497	-0.111	-0.254
-731.981	50.879	-0.161	0.203
-730.966	-116.343	-0.570	-0.139
-729.952	188.185	-0.050	0.100
-728.937	-200.000	0.065	-0.448
-727.923	-16.118	0.337	0.283
-726.908	-31.139	0.240	-0.179
-725.894	-185.916	0.078	-0.001
-724.879	-200.000	-0.470	-0.001
-723.864	-26.613	-0.250	0.194
-722.850	63.701	-0.150	0.199
-721.835	-200.000	-0.055	-0.679
-720.821	29.681	0.273	-0.308
-719.806	-114.606	0.219	0.055
-718.791	-200.000	-0.000	0.260
-717.777	113.557	0.034	-0.054
-716.762	44.599	0.101	0.123
-715.748	111.202	0.108	-0.172
-714.733	-86.906	0.169	-0.068
-713.718	-95.540	0.331	-0.117
-712.704	-136.957	0.354	0.053
-711.689	-113.798	-0.657	-0.168
-710.675	-71.194	0.292	-0.145
-709.660	-177.410	-0.114	-0.004
-708.645	-36.538	0.204	0.145
-707.631	-46.860	0.114	0.073
-706.616	36.232	-0.116	-0.135
-705.602	57.570	0.077	0.099
-704.587	99.366	-0.251	-0.386
-703.572	-76.088	-0.628	-0.293
-702.558	0.255	-0.462	0.436
-701.543	297.747	-0.066	-0.161
-700.529	117.514	0.048	-0.079
-699.514	618.627	0.085	-0.286
-698.499	54.420	0.314	-0.401
-697.485	-53.809	0.413	-0.249
-696.470	-200.000	0.014	0.193
-695.456	43.354	-0.153	-0.185
-694.441	448.968	0.125	-0.365
-693.426	800.000	-0.134	-0.557
-692.412	-2.042	-0.384	-0.357
-691.397	183.654	0.075	-0.147
-690.383	800.000	-0.048	-0.186
-689.368	-82.954	0.043	-0.018
-688.354	-200.000	0.015	-0.267
-687.339	-149.122	0.407	-0.043
-686.324	1.699	-0.167	0.159
-685.310	-105.200	0.270	0.081
-684.295	-146.683	0.058	0.007
-683.281	-200.000	0.006	-0.222
-682.266	-21.919	0.171	-0.138
-681.251	-62.890	0.372	-0.203
-680.237	259.298	-0.184	-0.421
-679.222	-158.225	0.592	-0.045
-678.208	-114.611	-0.182	-0.046
-677.193	-149.487	-0.477	0.049
-676.178	-44.772	0.061	0.040
-675.164	-200.000	-0.044	0.320
-674.149	-110.959	0.298	-0.080
-673.135	-172.095	0.428	-0.018
-672.120	-159.003	-0.078	-0.006
-671.105	344.660	-0.075	-0.195
-670.091	-200.000	-0.035	-0.550
-669.076	603.165	-0.116	-0.382
-668.062	231.140	-0.056	-0.121
-667.047	175.170	0.241	-0.463
-666.032	7.905	0.244	-0.242
-665.018	264.857	0.225	-0.520
-664.003	-200.000	0.002	-0.036
-662.989	-37.860	0.140	0.098
-661.974	110.673	-0.153	0.244
-660.959	-200.000	0.030	0.189
-659.945	-42.193	0.144	-0.097
-658.930	97.296	0.140	-0.213
-657.916	-17.356	-0.089	-0.074
-656.901	800.000	-0.073	-0.393
-655.886	-46.849	-0.319	-0.206
-654.872	-41.866	-0.283	-0.191
-653.857	-98.086	-0.156	-0.053
-652.843	-103.439	-0.340	-0.105
-651.828	16.493	0.125	-0.131
-650.814	225.338	-0.037	-0.080
-649.799	290.143	-0.174	0.419
-648.784	-36.757	-0.173	-0.123
-647.770	-65.030	0.141	-0.075
-646.755	381.488	0.089	-0.243
-645.741	129.394	-0.109	0.184
-644.726	800.000	0.037	-0.183
-643.711	-67.791	-0.440	-0.226
-642.697	114.127	0.377	0.606
-641.682	-162.428	-0.587	0.038
-640.668	150.946	-0.176	0.317
-639.653	-1.543	0.187	-0.174
-638.638	-111.178	-0.300	-0.080
-637.624	-24.715	0.305	0.239
-636.609	-200.000	0.008	0.121
-635.595	-34.129	0.384	-0.278
-634.580	-15.184	-0.330	0.279
-633.565	0.551	-0.056	-0.053
-632.551	-54.028	-0.252	-0.151
-631.536	257.066	-0.038	0.087
-630.522	-53.395	-0.332	-0.200
-629.507	266.321	-0.221	-0.511
-628.492	-171.635	0.185	-0.008
-627.478	203.000	0.051	0.104
-626.463	-12.598	-0.208	0.179
-625.449	17.787	0.170	-0.179
-624.434	-116.075	0.201	0.049
-623.419	-187.484	0.478	0.008
-622.405	-58.696	0.179	0.102
-621.390	800.000	0.105	0.550
-620.376	-126.518	-0.152	-0.029
-619.361	80.861	-0.127	0.182
-618.346	-104.971	-0.644	-0.193
-617.332	87.009	-0.075	0.109
-616.317	-200.000	-0.055	0.326
-615.303	-88.272	-0.221	-0.087
-614.288	149.856	-0.206	0.369
-613.273	122.580	0.236	-0.389
-612.259	800.000	-0.078	-0.309
-611.244	-200.000	-0.063	-0.522
-610.230	-34.879	-0.187	0.134
-609.215	310.780	0.019	-0.048
-608.201	-33.456	0.509	-0.370
-607.186	373.599	-0.090	0.243
-606.171	224.622	0.115	-0.247
-605.157	-97.344	-0.358	-0.122
-604.142	107.040	-0.118	-0.185
-603.128	-200.000	-0.018	0.315
-602.113	-164.270	0.309	0.018
-601.098	148.867	0.094	-0.169
-600.084	-46.531	-0.237	0.153
-599.069	800.000	0.061	0.231
-598.055	-47.537	-0.286	0.182
-597.040	137.790	-0.221	-0.383
-596.025	-107.347	0.300	-0.086
-595.011	41.672	-0.166	-0.199
-593.996	102.350	-0.182	0.281
-592.982	14.252	-0.373	-0.383
-591.967	24.428	0.277	-0.302
-590.952	54.640	-0.169	0.215
-589.938	35.664	0.118	-0.137
-588.923	94.218	-0.151	-0.226
-587.909	-173.803	0.262	-0.010
-586.894	-74.119	0.017	-0.008
-585.879	-55.060	0.481	0.285
-584.865	75.997	0.262	-0.366
-583.850	9.983	-0.203	0.203
-582.836	-71.308	-0.435	0.214
-581.821	525.566	-0.038	0.119
-580.806	-194.829	-0.529	0.005
-579.792	-146.983	0.395	0.044
-578.777	-200.000	-0.017	-0.142
-577.763	-52.828	0.138	0.083
-576.748	-136.562	-0.038	-0.006
-575.733	73.067	0.120	-0.166
-574.719	323.394	0.151	-0.381
-573.704	-200.000	0.035	-0.470
-572.690	166.396	-0.301	-0.563
-571.675	-127.445	-0.288	-0.055
-570.661	-36.646	-0.139	0.098
-569.646	52.834	-0.079	-0.100
-568.631	-200.000	0.041	0.531
-567.617	-200.000	0.026	0.293
-566.602	800.000	-0.021	0.117
-565.588	800.000	-0.038	-0.217
-564.573	631.663	-0.090	-0.302
-563.558	150.337	0.111	-0.199
-562.544	-184.087	0.336	-0.007
-561.529	-35.503	0.249	0.177
-560.515	800.000	-0.035	-0.142
-559.500	47.701	0.068	0.083
-558.485	61.363	0.273	-0.358
-557.471	336.153	-0.083	-0.214
-556.456	-101.895	-0.238	-0.075
-555.442	-42.982	-0.392	0.261
-554.427	151.601	-0.137	0.246
-553.412	-200.000	-0.086	0.510
-552.398	-136.251	0.211	0.032
-551.383	-26.626	0.355	-0.273
-550.369	15.338	-0.260	0.268
-549.354	104.910	0.041	-0.064
-548.339	-200.000	0.030	0.282
-547.325	-110.065	-0.218	0.059
-546.310	461.297	-0.060	-0.176
-545.296	223.421	-0.104	-0.222
-544.281	-200.000	0.040	-0.759
-543.266	275.556	-0.091	-0.213
-542.252	800.000	-0.166	-0.853
-541.237	591.971	0.116	-0.380
-540.223	328.147	0.116	-0.295
-539.208	30.678	-0.096	-0.108
-538.193	-20.775	0.205	0.165
-537.179	-96.378	0.259	-0.090
-536.164	661.211	-0.056	-0.192
-535.150	-94.326	0.231	-0.082
-534.135	13.586	-0.339	-0.346
-533.121	-63.943	-0.354	-0.190
-532.106	181.408	-0.149	-0.290
-531.091	-113.813	-0.352	0.089
-530.077	62.931	-0.118	-0.156
-529.062	-61.025	0.223	-0.123
-528.048	41.160	0.342	0.407
-527.033	22.369	-0.268	-0.288
-526.018	-2.021	0.268	0.247
-525.004	-108.463	-0.279	-0.078
-523.989	396.280	0.115	0.318
-522.975	71.801	0.171	0.235
-521.960	-7.380	-0.143	0.127
-520.945	-200.000	-0.044	-0.448
-519.931	-171.109	-0.308	-0.013
-518.916	-1.076	0.395	0.367
-517.902	-156.868	0.228	0.018
-516.887	-74.686	-0.214	-0.100
-515.872	-100.438	-0.379	0.123
-514.858	-90.783	-0.215	0.081
-513.843	-200.000	-0.021	-0.363
-512.829	26.211	-0.175	0.192
-511.814	-143.761	-0.467	-0.057
-510.799	-10.700	0.209	-0.182
-509.785	330.609	-0.249	0.633
-508.770	-200.000	0.013	-0.153
-507.756	594.784	-0.090	-0.293
-506.741	-92.992	0.281	-0.102
-505.726	-173.123	-0.196	0.008
-504.712	64.483	-0.284	-0.377
-503.697	-109.315	0.685	-0.189
-502.683	-70.298	-0.232	0.115
-501.668	190.522	-0.134	0.265
-500.653	-2.955	0.112	0.102
-499.639	-127.981	-0.178	0.033
-498.624	800.000	0.120	0.659
-497.610	137.146	-0.071	-0.121
-496.595	-114.241	-0.221	0.056
-495.581	37.107	-0.136	0.159
-494.566	-200.000	0.031	-0.763
-493.551	800.000	-0.094	-0.473
-492.537	800.000	0.049	-0.196
-491.522	-76.739	-0.059	-0.027
-490.508	145.264	0.245	-0.431
-489.493	800.000	0.086	-0.409
-488.478	42.729	-0.210	-0.252
-487.464	78.343	0.030	0.043
-486.449	660.068	0.084	0.285
-485.435	58.989	0.135	0.175
-484.420	-60.033	-0.251	0.140
-483.405	-200.000	-0.071	-0.475
-482.391	-200.000	0.004	-0.094
-481.376	800.000	-0.048	-0.244
-480.362	-116.081	0.149	0.036
-479.347	-200.000	-0.038	0.494
-478.332	413.379	0.042	0.118
-477.318	-128.583	0.212	0.039
-476.303	-185.084	-0.279	-0.006
-475.289	-71.485	0.228	0.112
-474.274	-107.541	-0.150	-0.043
-473.259	320.345	0.256	-0.641
-472.245	101.481	-0.046	-0.071
-471.230	-122.711	-0.483	0.102
-470.216	80.104	0.072	0.101
-469.201	125.871	0.204	-0.338
-468.186	-54.238	-0.305	-0.181
-467.172	-95.224	-0.465	0.164
-466.157	-48.359	-0.207	0.131
-465.143	-143.830	-0.304	-0.037
-464.128	-200.000	0.007	0.280
-463.113	118.192	0.176	0.285
-462.099	-114.038	-0.184	-0.046
-461.084	88.738	0.139	0.203
-460.070	-200.000	-0.010	0.362
-459.055	800.000	-0.003	0.015
-458.040	-5.703	-0.349	0.313
-457.026	-46.084	0.330	0.213
-456.011	-54.501	-0.413	0.244
-454.997	69.216	-0.112	-0.152
-453.982	-166.339	-0.103	0.006
-452.968	-77.278	0.208	-0.094
-451.953	-53.925	0.089	-0.053
-450.938	-50.026	0.171	0.106
-449.924	800.000	-0.034	0.171
-448.909	-28.940	-0.227	-0.170
-447.895	-144.274	-0.290	0.035
-446.880	-110.710	-0.604	0.162
-445.865	-149.669	0.643	-0.066
-444.851	-65.575	-0.178	-0.093
-443.836	-33.845	-0.215	0.155
-442.822	-24.383	0.323	-0.252
-441.807	-64.416	0.409	-0.217
-440.792	430.125	0.142	0.404
-439.778	-52.852	-0.039	0.024
-438.763	105.731	0.211	0.328
-437.749	251.325	0.140	0.313
-436.734	152.364	-0.083	-0.149
-435.719	-101.102	0.079	0.025
-434.705	-194.723	-0.166	0.002
-433.690	92.702	-0.250	-0.370
-432.676	134.058	0.164	-0.279
-431.661	-74.071	0.432	-0.204
-430.646	-200.000	0.022	-0.167
-429.632	-98.981	-0.139	0.046
-428.617	71.720	0.053	-0.072
-427.603	-119.888	0.448	0.100
-426.588	164.114	0.165	0.306
-425.573	28.032	-0.356	-0.393
-424.559	-9.925	-0.100	-0.087
-423.544	413.488	0.279	0.782
-422.530	588.059	0.139	-0.451
-421.515	81.240	-0.255	-0.361
-420.500	800.000	-0.104	-0.531
-419.486	4.999	-0.470	-0.453
-418.471	17.239	-0.272	-0.282
-417.457	800.000	0.063	-0.345
-416.442	-109.111	0.238	-0.066
-415.428	-88.077	-0.195	-0.076
-414.413	154.705	0.429	0.774
-413.398	-200.000	-0.002	-0.084
-412.384	-39.059	-0.094	0.065
-411.369	-82.840	-0.075	-0.032
-410.355	-124.635	0.279	0.056
-409.340	-125.480	0.355	0.070
-408.325	-101.738	-0.225	-0.071
-407.311	737.777	0.061	0.214
-406.296	800.000	0.025	-0.134
-405.282	-200.000	0.008	0.052
-404.267	358.602	0.097	-0.255
-403.252	-102.770	-0.262	-0.081
-402.238	-10.948	-0.208	0.180
-401.223	-113.844	0.646	0.163
-400.209	-85.526	-0.311	-0.126
-399.194	-136.843	0.354	0.053
-398.179	-200.000	0.033	0.390
-397.165	-41.513	-0.380	0.255
-396.150	-126.857	0.377	0.072
-395.136	51.765	0.212	-0.265
-394.121	800.000	0.097	-0.390
-393.106	151.815	-0.193	-0.345
-392.092	-44.540	0.086	0.056
-391.077	224.437	0.128	-0.271
-390.063	40.890	-0.211	-0.249
-389.048	724.911	-0.036	-0.125
-388.033	86.453	-0.118	-0.171
-387.019	-49.406	0.321	-0.200
-386.004	685.463	0.209	0.719
-384.990	-31.965	-0.160	-0.117
-383.975	-200.000	-0.006	-0.260
-382.960	-47.509	0.100	0.063
-381.946	161.360	-0.162	0.298
-380.931	-66.394	0.175	-0.091
-379.917	466.640	-0.090	-0.265
-378.902	-34.875	0.164	-0.117
-377.888	-120.719	0.172	-0.038
-376.873	-97.220	0.274	0.093
-375.858	642.323	0.069	-0.232
-374.844	236.629	0.101	0.219
-373.829	45.262	0.079	0.095
-372.815	3.118	0.149	-0.141
-371.800	-36.826	-0.417	0.292
-370.785	64.882	-0.224	-0.295
-369.771	404.704	-0.090	0.249
-368.756	104.051	-0.194	0.299
-367.742	-27.484	-0.201	-0.153
-366.727	343.879	-0.118	0.302
-365.712	800.000	0.065	0.324
-364.698	58.079	-0.240	0.307
-363.683	-200.000	0.238	0.001
-362.669	76.281	0.234	0.324
-361.654	190.859	0.228	0.449
-360.639	-200.000	0.026	0.653
-359.625	264.939	0.183	0.418
-358.610	306.753	-0.186	0.454
-357.596	-106.476	-0.271	0.078
-356.581	-97.403	-0.207	0.070
-355.566	-200.000	0.062	0.368
-354.552	42.397	0.246	-0.292
-353.537	-81.304	0.144	0.062
-352.523	86.914	0.107	-0.155
-351.508	58.918	0.292	0.375
-350.493	-161.656	-0.383	-0.025
-349.479	-115.656	-0.093	-0.023
-348.464	-200.000	0.018	0.329
-347.450	-161.399	-0.456	0.030
-346.435	-200.000	-0.020	-0.239
-345.420	507.512	-0.081	0.247
-344.406	-35.775	-0.186	0.131
-343.391	-83.678	-0.267	-0.111
-342.377	17.042	0.242	0.250
-341.362	174.100	-0.107	-0.202
-340.348	199.475	-0.044	-0.088
-339.333	177.915	0.293	0.559
-338.318	11.365	0.384	0.384
-337.304	63.963	0.006	0.008
-336.289	-10.980	-0.101	0.087
-335.275	-136.780	-0.466	-0.069
-334.260	128.881	-0.275	0.459
-333.245	-200.000	0.004	0.433
-332.231	7.598	-0.160	-0.156
-331.216	-200.000	0.003	0.018
-330.202	-156.424	0.068	-0.005
-329.187	800.000	-0.039	-0.219
-328.172	-200.000	-0.044	0.302
-327.158	-42.330	0.259	-0.172
-326.143	-200.000	0.003	0.321
-325.129	753.269	0.063	0.222
-324.114	469.465	0.083	-0.244
-323.099	278.812	-0.221	0.516
-322.085	-95.954	-0.357	0.123
-321.070	-200.000	-0.013	0.112
-320.056	257.882	0.060	0.136
-319.041	243.830	-0.079	0.173
-318.026	184.793	-0.098	0.190
-317.012	-28.976	-0.114	0.085
-315.997	-34.061	0.645	-0.462
-314.983	54.878	0.074	-0.093
-313.968	261.193	0.193	0.438
-312.953	-64.100	-0.468	-0.248
-311.939	-82.692	-0.085	0.036
-310.924	-105.603	0.104	0.031
-309.910	-29.032	-0.249	-0.186
-308.895	-114.463	0.632	0.157
-307.880	330.850	0.112	0.283
-306.866	-68.979	0.122	-0.061
-305.851	82.829	0.232	0.329
-304.837	-200.000	-0.027	0.323
-303.822	-81.934	-0.305	0.129
-302.807	-24.082	0.373	0.290
-301.793	-36.371	0.241	0.169
-300.778	-51.346	-0.243	0.148
-299.764	-95.848	0.074	-0.026
-298.749	175.994	-0.042	0.080
-297.735	37.004	0.142	-0.164
-296.720	-22.738	-0.021	-0.016
-295.705	155.540	0.204	0.367
-294.691	23.262	0.157	-0.168
-293.676	-101.866	0.240	0.075
-292.662	-89.673	-0.316	-0.120
-291.647	-28.423	0.266	-0.199
-290.632	-18.874	0.325	-0.264
-289.618	-200.000	-0.023	0.293
-288.603	48.729	-0.144	0.176
-287.589	48.944	0.174	-0.213
-286.574	-87.489	0.109	-0.043
-285.559	270.847	-0.142	-0.327
-284.545	800.000	0.039	-0.166
-283.530	-200.000	-0.052	0.314
-282.516	61.881	0.212	0.275
-281.501	86.707	0.205	-0.295
-280.486	-141.406	-0.175	0.023
-279.472	-76.374	0.279	-0.127
-278.457	314.603	-0.069	-0.170
-277.443	-20.285	-0.413	-0.331
-276.428	57.247	-0.361	-0.459
-275.413	-145.057	-0.353	-0.041
-274.399	12.927	0.161	0.162
-273.384	222.196	0.250	-0.526
-272.370	59.577	0.131	0.168
-271.355	-183.656	0.423	-0.009
-270.340	-107.422	-0.381	-0.108
-269.326	213.710	0.195	-0.402
-268.311	261.730	-0.238	-0.539
-267.297	-154.062	0.559	-0.049
-266.282	433.496	-0.058	-0.165
-265.267	800.000	-0.096	-0.385
-264.253	145.594	-0.179	-0.312
-263.238	101.330	-0.370	-0.561
-262.224	-101.925	-0.194	0.060
-261.209	-96.803	-0.360	0.123
-260.195	-154.110	0.405	0.035
-259.180	434.093	0.139	0.396
-258.165	-65.606	0.173	-0.090
-257.151	219.644	-0.055	-0.115
-256.136	-127.094	0.206	0.039
-255.122	132.086	-0.054	0.091
-254.107	34.680	0.184	0.209
-253.092	-4.238	0.218	0.196
-252.078	-200.000	0.004	0.217
-251.063	-103.535	0.267	-0.081
-250.049	327.449	0.090	0.225
-249.034	-173.817	-0.469	-0.018
-248.019	-74.306	0.048	0.022
-247.005	-136.289	0.109	-0.016
-245.990	118.707	0.176	0.283
-244.976	76.606	-0.111	-0.154
-243.961	488.945	-0.131	0.390
-242.946	-200.000	-0.011	0.069
-241.932	-88.021	0.148	-0.058
-240.917	-95.458	0.270	0.094
-239.903	800.000	-0.013	-0.053
-238.888	-59.348	0.156	-0.087
-237.873	24.873	-0.237	-0.255
-236.859	-107.303	0.179	0.051
-235.844	145.175	0.123	0.215
-234.830	-112.635	-0.019	0.005
-233.815	-38.373	-0.456	-0.313
-232.800	-66.984	-0.219	-0.112
-231.786	-72.062	0.420	0.202
-230.771	-29.339	0.119	-0.088
-229.757	386.902	0.051	-0.138
-228.742	-135.802	0.465	0.071
-227.727	-10.932	-0.257	0.221
-226.713	800.000	0.034	-0.142
-225.698	208.448	-0.135	0.275
-224.684	-88.818	-0.237	0.091
-223.669	186.386	0.270	-0.523
-222.655	-128.308	0.392	0.072
-221.640	101.159	-0.070	0.107
-220.625	-130.813	0.270	-0.047
-219.611	-6.150	0.277	-0.246
-218.596	58.981	-0.246	0.315
-217.582	-16.152	0.125	-0.103
-216.567	-107.758	0.354	-0.100
-215.552	-200.000	-0.023	0.145
-214.538	-200.000	-0.010	-0.328
-213.523	-197.509	0.250	-0.002
-212.509	-139.606	0.296	0.041
-211.494	209.987	0.072	0.147
-210.479	411.820	0.098	0.270
-209.465	390.357	-0.139	0.377
-208.450	72.381	-0.291	0.394
-207.436	-16.304	0.311	0.256
-206.421	152.524	-0.211	0.375
-205.406	-42.286	0.237	0.157
-204.392	-45.587	0.521	0.334
-203.377	267.834	0.166	0.379
-202.363	-27.056	-0.160	0.121
-201.348	-131.396	0.054	-0.009
-200.333	-81.185	-0.053	-0.023
-199.319	-17.666	0.254	0.207
-198.304	-44.293	-0.456	-0.296
-197.290	-87.339	0.244	-0.096
-196.275	263.575	-0.182	-0.413
-195.260	-64.445	0.427	-0.224
-194.246	-47.254	-0.232	0.147
-193.231	280.927	0.080	0.187
-192.217	-135.772	0.075	-0.011
-191.202	-200.000	-0.014	0.244
-190.187	-200.000	0.091	-0.594
-189.173	249.575	0.131	-0.290
-188.158	-23.258	-0.246	-0.192
-187.144	-94.021	-0.315	-0.112
-186.129	-200.000	0.005	-0.114
-185.114	-122.504	0.121	-0.025
-184.100	-151.416	0.252	0.024
-183.085	89.806	-0.071	0.103
-182.071	800.000	0.200	-0.906
-181.056	45.982	-0.238	-0.286
-180.042	-200.000	0.008	0.082
-179.027	-43.901	0.716	-0.466
-178.012	-200.000	0.002	-0.116
-176.998	-59.832	-0.153	0.085
-175.983	536.251	0.108	0.334
-174.969	59.867	0.167	0.214
-173.954	-168.389	-0.145	-0.007
-172.939	-139.448	0.474	-0.065
-171.925	-39.109	-0.230	0.156
-170.910	518.162	0.031	0.094
-169.896	35.815	-0.112	0.128
-168.881	-39.116	0.326	-0.222
-167.866	800.000	-0.025	-0.093
-166.852	675.404	-0.107	-0.363
-165.837	-25.423	-0.094	0.072
-164.823	-200.000	-0.062	-0.495
-163.808	-120.551	-0.598	-0.130
-162.793	-30.170	-0.189	-0.139
-161.779	-45.641	-0.649	-0.415
-160.764	-32.426	-0.211	0.152
-159.750	-1.008	0.109	0.100
-158.735	-200.000	-0.100	0.581
-157.720	-151.616	-0.209	0.020
-156.706	77.407	-0.115	0.158
-155.691	60.798	0.401	0.516
-154.677	376.153	0.144	0.383
-153.662	-21.091	0.435	0.345
-152.647	-54.807	0.539	0.314
-151.633	-74.262	-0.171	0.080
-150.618	-103.414	0.208	-0.063
-149.604	17.242	-0.401	-0.412
-148.589	273.333	-0.246	0.565
-147.574	-138.693	-0.177	0.025
-146.560	-26.303	-0.539	-0.409
-145.545	20.369	-0.108	0.113
-144.531	-114.546	0.147	-0.036
-143.516	800.000	0.117	-0.525
-142.502	-96.780	-0.583	-0.197
-141.487	-85.157	-0.425	-0.171
-140.472	64.934	-0.289	0.378
-139.458	-114.977	0.310	0.076
-138.443	424.027	-0.048	0.134
-137.429	45.136	-0.059	-0.071
-136.414	-176.430	0.125	0.004
-135.399	800.000	-0.130	0.586
-134.385	-200.000	0.008	0.177
-133.370	800.000	-0.100	-0.379
-132.356	-121.867	0.174	-0.037
-131.341	-158.615	-0.179	0.013
-130.326	-200.000	0.004	-0.167
-129.312	-200.000	-0.006	0.276
-128.297	23.169	0.289	0.307
-127.283	-200.000	-0.021	0.248
-126.268	149.107	-0.126	-0.222
-125.253	-43.649	0.206	-0.134
-124.239	800.000	0.127	0.542
-123.224	-109.466	0.121	-0.033
-122.210	17.477	0.141	-0.145
