DTS Sentinel unit serial number:	SN409020Multiplexer serial number:	ORYXHardware model number:	OX4-SRSoftware version number:	ORYX F/W v3.00 Oryx Data Collector v3.7.2.0data status	okinstallation	HaddamTimeLapsedifferential loss correction	single-endedforward channel	channel 3reverse channel	N/Adate	2011/06/22time	07:06:17forward acquisition time	30.00reverse acquisition time	0.00gamma	498.7831k internal	0.1752k external	0.1752temperature offset calibration	1.0074default loss term (dB/km)	0.3790temperature slope calibration	1.3530multiplexer offset coefficient	1.0000multiplexer slope coefficient	1.0000fibre end	0.00T internal ref (°C)	22.84T ext. ref 1 (°C)	19.46T ext. ref 2 (°C)	0.12length (m)	temperature (°C)	Stokes	anti-Stokes-747.200	211.160	0.132	-0.276
-746.185	-200.000	-0.019	-0.165
-745.171	-15.355	0.285	-0.242
-744.156	-20.257	-0.317	0.259
-743.142	-200.000	0.027	-0.177
-742.127	-200.000	0.034	0.356
-741.112	-123.294	-0.276	-0.058
-740.098	-200.000	-0.022	0.266
-739.083	-200.000	-0.020	0.501
-738.069	-200.000	0.032	0.470
-737.054	-106.593	0.074	-0.022
-736.039	800.000	-0.028	-0.109
-735.025	-80.175	-0.446	0.197
-734.010	-15.326	-0.332	0.281
-732.996	623.090	0.105	0.353
-731.981	-26.631	0.457	-0.354
-730.966	40.495	0.202	-0.242
-729.952	-129.858	-0.327	0.059
-728.937	800.000	-0.160	-0.619
-727.923	177.316	0.096	-0.187
-726.908	-89.890	0.235	-0.091
-725.894	-158.609	-0.609	0.046
-724.879	-121.922	-0.544	0.118
-723.864	-127.436	0.099	0.019
-722.850	-200.000	-0.034	0.293
-721.835	168.407	0.202	0.383
-720.821	-57.242	0.383	-0.223
-719.806	730.717	0.079	-0.282
-718.791	-200.000	-0.007	0.134
-717.777	708.562	0.085	0.299
-716.762	-100.204	-0.040	-0.013
-715.748	-124.384	0.278	0.057
-714.733	-165.770	0.505	0.028
-713.718	-200.000	0.052	0.364
-712.704	800.000	0.141	0.697
-711.689	800.000	-0.137	0.641
-710.675	42.453	-0.102	-0.123
-709.660	-200.000	-0.034	-0.223
-708.645	110.796	-0.125	0.200
-707.631	166.296	0.084	0.158
-706.616	169.877	-0.116	0.220
-705.602	-200.000	0.027	0.229
-704.587	-94.691	0.328	-0.117
-703.572	301.972	0.099	0.245
-702.558	-200.000	-0.052	-0.373
-701.543	-63.708	0.236	-0.128
-700.529	-46.493	0.411	0.266
-699.514	28.912	-0.252	-0.283
-698.499	185.081	0.165	-0.326
-697.485	53.304	0.350	-0.445
-696.470	186.475	-0.058	-0.114
-695.456	-62.407	-0.351	-0.193
-694.441	-73.745	0.089	-0.043
-693.426	-200.000	0.010	0.109
-692.412	21.542	0.279	0.301
-691.397	-16.658	-0.281	0.235
-690.383	404.272	-0.057	-0.159
-689.368	11.560	0.036	-0.036
-688.354	-112.387	-0.571	-0.150
-687.339	-82.389	0.056	0.024
-686.324	-71.899	-0.288	0.142
-685.310	-56.716	-0.286	-0.167
-684.295	800.000	-0.104	0.413
-683.281	292.196	-0.190	0.461
-682.266	-8.641	-0.241	-0.214
-681.251	-88.860	-0.498	0.195
-680.237	-105.709	-0.072	0.021
-679.222	-45.493	0.232	0.152
-678.208	-200.000	-0.004	0.769
-677.193	93.475	-0.037	-0.056
-676.178	-200.000	0.002	-0.043
-675.164	312.042	-0.135	-0.337
-674.149	-108.809	0.213	0.060
-673.135	7.340	0.622	-0.614
-672.120	-168.452	-0.510	0.025
-671.105	37.059	0.285	0.334
-670.091	54.472	0.103	0.132
-669.076	36.423	-0.255	-0.297
-668.062	-146.663	-0.148	-0.017
-667.047	-15.030	0.260	0.221
-666.032	-105.262	-0.554	-0.166
-665.018	-200.000	-0.014	0.103
-664.003	140.704	-0.256	-0.449
-662.989	230.901	-0.055	0.120
-661.974	-109.902	-0.163	-0.045
-660.959	65.615	0.252	0.338
-659.945	-85.793	0.240	0.098
-658.930	0.084	-0.249	-0.234
-657.916	-200.000	-0.029	0.278
-656.901	77.523	-0.398	0.561
-655.886	-36.439	-0.117	-0.083
-654.872	-159.683	0.383	0.028
-653.857	-60.697	-0.100	0.056
-652.843	-74.037	-0.477	0.228
-651.828	-106.557	-0.409	0.120
-650.814	409.252	0.222	0.623
-649.799	-71.852	0.128	-0.063
-648.784	-200.000	0.004	-0.211
-647.770	484.630	-0.112	0.338
-646.755	800.000	-0.015	0.060
-645.741	-200.000	0.007	-0.624
-644.726	69.664	0.138	0.188
-643.711	-93.303	0.406	0.148
-642.697	800.000	0.078	-0.324
-641.682	492.653	-0.231	-0.703
-640.668	-15.000	0.154	0.131
-639.653	289.745	0.108	0.259
-638.638	84.338	-0.056	-0.081
-637.624	172.414	-0.132	0.251
-636.609	-200.000	-0.008	-0.072
-635.595	49.485	-0.247	0.308
-634.580	237.995	0.073	-0.161
-633.565	-200.000	0.001	0.188
-632.551	143.051	0.275	-0.484
-631.536	34.780	0.135	0.157
-630.522	-48.090	-0.316	-0.201
-629.507	-26.004	-0.145	-0.112
-628.492	800.000	0.002	0.010
-627.478	141.908	-0.219	-0.385
-626.463	20.434	0.479	0.512
-625.449	-25.815	-0.247	0.192
-624.434	-94.515	-0.383	0.137
-623.419	800.000	-0.054	0.250
-622.405	-39.472	-0.159	-0.110
-621.390	52.217	0.083	-0.105
-620.376	0.667	0.088	-0.083
-619.361	-60.171	-0.120	0.067
-618.346	1.041	-0.125	0.118
-617.332	-6.322	0.270	0.243
-616.317	-8.945	0.136	0.120
-615.303	-96.875	-0.600	-0.207
-614.288	-44.072	-0.370	0.245
-613.273	-168.063	0.210	0.011
-612.259	-88.532	-0.448	0.176
-611.244	95.346	-0.082	0.124
-610.230	-5.830	0.093	0.084
-609.215	-151.537	-0.206	0.020
-608.201	-120.414	0.185	-0.041
-607.186	-200.000	-0.036	0.576
-606.171	-200.000	0.041	-0.467
-605.157	79.030	-0.294	0.417
-604.142	800.000	0.155	0.578
-603.128	-13.190	0.157	-0.135
-602.113	129.413	0.097	-0.164
-601.098	751.477	0.183	0.655
-600.084	676.960	-0.084	-0.289
-599.069	-62.086	0.239	-0.131
-598.055	230.638	-0.065	0.141
-597.040	61.095	0.182	-0.239
-596.025	-146.899	0.066	0.007
-595.011	18.960	0.292	-0.308
-593.996	-200.000	0.026	-0.339
-592.982	-171.893	-0.341	0.014
-591.967	-200.000	-0.036	0.262
-590.952	-139.637	0.396	0.055
-589.938	205.135	0.037	-0.077
-588.923	-5.898	0.247	-0.223
-587.909	91.886	0.174	-0.259
-586.894	-10.349	-0.293	0.256
-585.879	52.562	-0.156	0.196
-584.865	416.217	0.054	-0.152
-583.850	123.004	0.207	0.342
-582.836	184.973	-0.363	0.712
-581.821	-143.310	0.368	0.046
-580.806	-8.439	0.276	0.244
-579.792	4.748	0.330	0.320
-578.777	-175.170	0.088	-0.003
-577.763	-75.121	-0.544	-0.256
-576.748	78.731	-0.224	0.317
-575.733	-115.162	0.399	-0.099
-574.719	-25.636	0.221	0.172
-573.704	-147.409	0.307	-0.034
-572.690	119.426	0.341	-0.558
-571.675	10.953	-0.208	-0.210
-570.661	-94.519	-0.489	0.175
-569.646	37.964	0.274	0.321
-568.631	155.594	0.312	0.569
-567.617	-142.898	0.288	0.037
-566.602	127.344	0.183	0.307
-565.588	116.306	-0.127	0.205
-564.573	800.000	0.038	0.187
-563.558	105.919	0.156	-0.243
-562.544	113.035	0.240	-0.385
-561.529	157.601	-0.035	0.065
-560.515	800.000	0.093	-0.492
-559.500	-176.707	-0.298	0.010
-558.485	-87.419	0.407	-0.162
-557.471	-144.169	-0.295	-0.036
-556.456	800.000	0.091	0.359
-555.442	800.000	0.035	-0.143
-554.427	103.821	0.154	-0.239
-553.412	-90.939	-0.247	0.093
-552.398	193.969	-0.248	0.496
-551.383	-24.536	0.113	0.089
-550.369	22.494	0.349	0.376
-549.354	-20.945	0.319	0.257
-548.339	800.000	-0.011	-0.044
-547.325	10.195	0.251	0.252
-546.310	34.832	0.333	-0.384
-545.296	1.679	-0.299	-0.283
-544.281	216.786	-0.164	0.345
-543.266	-200.000	-0.059	-0.449
-542.252	-29.442	-0.115	-0.087
-541.237	17.862	-0.203	-0.213
-540.223	-20.473	-0.382	-0.309
-539.208	-106.539	-0.659	-0.192
-538.193	173.924	0.100	0.191
-537.179	55.026	0.151	-0.192
-536.164	-160.056	-0.217	-0.015
-535.150	-114.106	-0.148	-0.037
-534.135	152.716	0.082	0.148
-533.121	-61.237	0.249	0.138
-532.106	35.246	0.232	-0.268
-531.091	-52.629	-0.166	0.101
-530.077	-19.085	0.109	-0.089
-529.062	-179.895	0.219	0.006
-528.048	128.693	-0.123	-0.206
-527.033	453.592	-0.140	-0.410
-526.018	-140.588	0.291	0.039
-525.004	19.780	0.188	-0.199
-523.989	-50.931	-0.392	0.242
-522.975	-200.000	-0.008	0.205
-521.960	287.736	0.056	0.135
-520.945	-9.537	0.018	-0.016
-519.931	-166.231	-0.154	-0.008
-518.916	124.019	-0.227	-0.376
-517.902	-200.000	0.052	0.393
-516.887	800.000	-0.119	0.672
-515.872	56.007	-0.152	0.194
-514.858	-200.000	-0.071	0.609
-513.843	-95.679	-0.079	-0.028
-512.829	-80.412	-0.597	-0.261
-511.814	-178.579	-0.316	-0.009
-510.799	-62.207	0.187	-0.102
-509.785	-68.001	-0.366	-0.187
-508.770	48.551	0.251	-0.309
-507.756	-200.000	-0.038	-0.580
-506.741	-200.000	-0.053	-0.317
-505.726	-200.000	0.028	-0.455
-504.712	-15.284	0.389	-0.327
-503.697	-140.572	-0.445	-0.060
-502.683	-98.027	-0.368	0.124
-501.668	247.092	0.035	-0.079
-500.653	39.196	0.357	0.420
-499.639	196.164	0.159	0.319
-498.624	-30.246	-0.234	0.174
-497.610	60.383	-0.169	-0.220
-496.595	750.912	0.026	0.093
-495.581	-122.876	-0.140	-0.029
-494.566	-96.403	-0.277	-0.096
-493.551	-130.726	0.522	0.091
-492.537	-60.444	-0.433	0.241
-491.522	-133.797	0.207	0.034
-490.508	-109.111	-0.216	0.060
-489.493	-139.512	-0.340	-0.047
-488.478	-97.408	0.251	-0.085
-487.464	-105.949	-0.168	-0.049
-486.449	485.631	-0.007	-0.022
-485.435	800.000	0.081	-0.302
-484.420	16.368	0.071	0.074
-483.405	-180.367	0.179	-0.005
-482.391	-98.702	0.623	-0.207
-481.376	-13.835	-0.394	-0.334
-480.362	-83.282	-0.101	0.042
-479.347	34.439	-0.277	0.318
-478.332	-21.158	0.126	-0.101
-477.318	800.000	0.178	0.759
-476.303	113.283	-0.369	0.589
-475.289	-124.152	0.245	-0.050
-474.274	-14.771	-0.073	0.062
-473.259	-41.839	0.172	-0.115
-472.245	133.911	-0.140	0.239
-471.230	5.114	0.081	0.078
-470.216	-31.186	-0.111	-0.082
-469.201	-44.896	0.494	-0.323
-468.186	82.491	0.167	0.238
-467.172	-200.000	-0.000	-0.164
-466.157	-111.933	-0.766	-0.201
-465.143	-34.308	0.170	-0.123
-464.128	-103.309	0.273	0.084
-463.113	-200.000	-0.022	-0.151
-462.099	132.559	-0.090	-0.153
-461.084	8.319	0.234	0.230
-460.070	-186.939	-0.251	-0.004
-459.055	-126.525	-0.239	-0.046
-458.040	-105.088	-0.321	0.096
-457.026	-150.803	0.149	-0.015
-456.011	157.572	-0.039	-0.071
-454.997	612.555	0.061	-0.201
-453.982	-128.567	0.490	0.090
-452.968	-35.689	-0.200	0.142
-451.953	-111.281	0.519	-0.138
-450.938	-136.621	-0.248	0.037
-449.924	317.716	-0.057	0.142
-448.909	362.911	0.143	0.379
-447.895	800.000	0.040	-0.216
-446.880	136.564	-0.092	0.158
-445.865	387.433	-0.037	0.101
-444.851	246.914	-0.179	-0.399
-443.836	800.000	0.087	-0.433
-442.822	432.053	0.097	-0.276
-441.807	-49.963	0.232	-0.144
-440.792	55.603	0.033	0.042
-439.778	61.555	-0.021	-0.028
-438.763	770.242	0.085	0.306
-437.749	-200.000	0.023	-0.206
-436.734	77.914	0.294	-0.412
-435.719	14.882	-0.266	-0.272
-434.705	-11.996	-0.120	0.103
-433.690	91.782	-0.182	-0.269
-432.676	-200.000	0.034	0.335
-431.661	78.024	-0.297	0.416
-430.646	-95.601	0.204	0.071
-429.632	268.690	-0.233	0.539
-428.617	800.000	0.071	-0.299
-427.603	27.922	-0.371	-0.410
-426.588	180.466	0.083	0.160
-425.573	68.204	0.312	0.420
-424.559	38.676	0.093	0.109
-423.544	-101.381	0.176	-0.056
-422.530	151.287	0.099	0.178
-421.515	-147.397	-0.166	0.018
-420.500	-84.789	0.440	0.181
-419.486	800.000	0.056	-0.313
-418.471	800.000	0.080	-0.361
-417.457	-149.147	-0.195	0.020
-416.442	181.150	-0.179	-0.345
-415.428	-54.175	0.348	0.207
-414.413	-32.251	-0.078	0.057
-413.398	-24.295	0.141	-0.110
-412.384	800.000	0.050	-0.274
-411.369	-105.908	0.193	0.057
-410.355	-200.000	0.016	-0.318
-409.340	800.000	-0.117	-0.534
-408.325	9.719	0.348	-0.346
-407.311	-200.000	0.027	-0.438
-406.296	-119.699	0.494	-0.111
-405.282	502.945	0.091	-0.277
-404.267	-200.000	0.040	0.261
-403.252	104.804	-0.188	-0.291
-402.238	70.464	0.080	0.108
-401.223	104.686	-0.095	-0.147
-400.209	-1.336	-0.249	0.230
-399.194	-51.042	-0.559	0.342
-398.179	-70.822	-0.158	0.078
-397.165	-24.426	0.323	0.252
-396.150	-166.436	-0.162	-0.009
-395.136	-200.000	0.009	0.310
-394.121	-44.590	0.084	-0.055
-393.106	-62.465	-0.181	-0.098
-392.092	-200.000	-0.405	-0.001
-391.077	51.012	-0.067	0.083
-390.063	-84.515	0.109	-0.045
-389.048	85.553	0.233	0.336
-388.033	128.175	0.151	-0.253
-387.019	800.000	0.076	0.297
-386.004	-149.243	-0.273	-0.028
-384.990	6.027	0.021	0.020
-383.975	800.000	0.106	0.487
-382.960	186.889	-0.232	0.454
-381.946	234.048	-0.115	0.248
-380.931	500.563	-0.007	-0.020
-379.917	-200.000	0.037	0.233
-378.902	-138.455	-0.334	0.048
-377.888	-162.255	-0.574	0.037
-376.873	-200.000	-0.076	0.600
-375.858	-200.000	-0.066	-0.395
-374.844	-71.588	0.180	-0.087
-373.829	261.497	0.094	-0.214
-372.815	-13.839	-0.180	-0.152
-371.800	-7.866	-0.299	0.264
-370.785	-37.701	-0.262	-0.182
-369.771	-200.000	-0.003	0.456
-368.756	-9.640	0.269	0.234
-367.742	-103.775	-0.209	-0.064
-366.727	-45.266	-0.390	0.253
-365.712	210.005	-0.192	0.395
-364.698	341.280	0.043	-0.111
-363.683	266.295	-0.062	-0.142
-362.669	800.000	0.095	0.437
-361.654	-13.843	-0.092	-0.077
-360.639	800.000	0.034	-0.191
-359.625	800.000	0.097	-0.503
-358.610	-200.000	-0.018	-0.218
-357.596	355.384	-0.050	-0.131
-356.581	800.000	0.058	0.290
-355.566	35.143	0.062	0.071
-354.552	-1.618	0.524	-0.482
-353.537	83.672	-0.119	0.170
-352.523	-53.021	-0.289	-0.173
-351.508	316.404	0.252	0.624
-350.493	-9.142	0.142	0.124
-349.479	346.147	-0.053	0.137
-348.464	-30.092	-0.489	-0.363
-347.450	-135.150	0.198	0.031
-346.435	-74.290	-0.697	0.328
-345.420	646.298	-0.035	-0.118
-344.406	76.050	-0.194	-0.269
-343.391	-200.000	0.030	-0.476
-342.377	-200.000	-0.109	0.636
-341.362	-80.120	-0.497	-0.217
-340.348	-4.417	-0.409	-0.369
-339.333	-66.280	0.088	0.046
-338.318	-159.035	0.153	0.011
-337.304	800.000	-0.092	-0.359
-336.289	-36.051	-0.518	0.365
-335.275	-43.514	0.197	-0.130
-334.260	-106.106	-0.357	-0.104
-333.245	432.658	0.184	0.523
-332.231	-168.227	-0.271	0.013
-331.216	-128.232	-0.314	0.058
-330.202	-61.005	0.329	0.181
-329.187	17.836	-0.105	-0.109
-328.172	418.638	0.017	0.047
-327.158	-184.397	0.781	-0.016
-326.143	-2.788	0.196	-0.179
-325.129	-116.476	-0.217	0.052
-324.114	54.463	0.132	0.166
-323.099	104.877	-0.214	0.330
-322.085	-92.015	-0.358	0.131
-321.070	101.156	-0.098	0.150
-320.056	19.962	0.148	0.156
-319.041	146.277	0.369	0.649
-318.026	-77.420	0.265	0.120
-317.012	-200.000	0.011	0.431
-315.997	112.035	-0.274	-0.432
-314.983	117.799	0.108	0.175
-313.968	6.997	-0.462	-0.449
-312.953	533.990	0.131	0.407
-311.939	-176.224	0.153	-0.005
-310.924	0.065	-0.112	0.104
-309.910	800.000	0.075	0.391
-308.895	-136.764	0.093	-0.014
-307.880	129.743	0.316	0.529
-306.866	120.536	0.311	-0.505
-305.851	-107.669	-0.338	0.096
-304.837	-200.000	-0.018	-0.249
-303.822	-196.933	0.439	-0.004
-302.807	-133.951	-0.223	-0.036
-301.793	403.335	0.141	0.389
-300.778	-77.824	0.523	-0.235
-299.764	-200.000	0.006	0.591
-298.749	-98.073	0.109	0.036
-297.735	15.278	0.137	0.141
-296.720	-200.000	-0.023	-0.241
-295.705	470.621	0.179	-0.528
-294.691	-99.319	0.125	-0.041
-293.676	-61.224	-0.651	0.357
-292.662	-124.585	-0.204	0.041
-291.647	-57.868	0.438	-0.249
-290.632	97.768	0.233	-0.350
-289.618	-0.514	0.057	0.053
-288.603	119.580	-0.297	0.481
-287.589	-200.000	0.006	0.098
-286.574	-126.900	0.207	-0.039
-285.559	-25.949	0.302	0.231
-284.545	-51.259	0.327	0.199
-283.530	137.381	0.118	0.201
-282.516	-88.613	-0.174	0.067
-281.501	267.592	-0.214	-0.491
-280.486	-165.934	0.188	0.010
-279.472	-200.000	0.053	0.305
-278.457	-35.678	0.270	-0.190
-277.443	-59.517	0.200	-0.111
-276.428	-90.102	-0.551	0.208
-275.413	-146.664	-0.434	-0.048
-274.399	-200.000	0.013	-0.228
-273.384	114.603	0.110	-0.175
-272.370	587.423	0.088	0.283
-271.355	-200.000	-0.006	0.100
-270.340	-200.000	-0.042	0.358
-269.326	-148.315	-0.288	-0.030
-268.311	6.867	-0.176	0.171
-267.297	-125.960	-0.126	-0.025
-266.282	-8.119	-0.185	-0.163
-265.267	-8.176	0.202	-0.177
-264.253	89.996	-0.193	-0.281
-263.238	-177.080	-0.366	-0.012
-262.224	800.000	0.041	-0.168
-261.209	-68.686	-0.158	-0.079
-260.195	274.724	-0.072	0.167
-259.180	69.921	0.178	0.239
-258.165	-136.028	0.209	0.032
-257.151	-169.856	0.497	0.023
-256.136	409.298	0.137	-0.380
-255.122	-110.683	-0.149	0.040
-254.107	296.581	0.132	-0.316
-253.092	-56.582	0.399	0.230
-252.078	289.097	-0.124	0.295
-251.063	800.000	0.093	-0.361
-250.049	-141.113	-0.485	0.064
-249.034	-200.000	-0.009	-0.237
-248.019	-104.588	0.471	-0.141
-247.005	-18.356	0.475	0.386
-245.990	-95.192	-0.313	-0.109
-244.976	-145.171	0.369	-0.043
-243.961	-20.896	0.579	0.461
-242.946	777.683	0.105	0.377
-241.932	467.496	-0.051	-0.149
-240.917	-16.210	-0.244	0.201
-239.903	-96.017	0.158	-0.055
-238.888	800.000	0.088	0.318
-237.873	-51.850	-0.198	-0.119
-236.859	-6.530	-0.160	-0.142
-235.844	101.379	0.245	-0.372
-234.830	-138.278	0.343	-0.049
-233.815	35.005	0.142	0.162
-232.800	-115.877	0.521	-0.126
-231.786	-200.000	-0.022	-0.175
-230.771	251.630	0.065	-0.144
-229.757	286.941	0.145	-0.343
-228.742	-53.124	-0.291	0.174
-227.727	800.000	-0.017	0.095
-226.713	-200.000	-0.020	0.248
-225.698	79.890	0.176	-0.247
-224.684	102.905	-0.298	-0.455
-223.669	3.722	-0.123	0.117
-222.655	-95.043	-0.046	0.016
-221.640	-109.959	0.076	-0.021
-220.625	216.812	0.097	0.201
-219.611	55.017	0.060	-0.075
-218.596	549.502	-0.075	-0.235
-217.582	-10.143	-0.319	0.275
-216.567	-103.663	-0.189	0.057
-215.552	318.870	0.108	-0.268
-214.538	-0.570	-0.266	-0.245
-213.523	-71.829	0.195	0.094
-212.509	117.396	0.115	0.185
-211.494	-78.941	-0.611	0.269
-210.479	-28.310	0.329	0.247
-209.465	-110.721	-0.195	-0.052
-208.450	91.012	-0.121	0.176
-207.436	169.387	-0.036	0.066
-206.421	-90.431	0.398	-0.149
-205.406	47.485	-0.407	-0.493
-204.392	-101.276	0.310	0.098
-203.377	14.528	-0.100	0.102
-202.363	-172.084	0.104	-0.004
-201.348	600.902	-0.086	0.280
-200.333	-31.231	-0.131	-0.096
-199.319	457.545	0.148	-0.430
-198.304	-13.768	-0.145	-0.121
-197.290	-35.231	0.173	-0.122
-196.275	-29.503	0.090	-0.067
-195.260	292.184	0.084	-0.200
-194.246	-198.769	0.261	-0.002
-193.231	-103.584	-0.323	-0.098
-192.217	-56.735	-0.327	0.187
-191.202	-118.549	-0.046	-0.011
-190.187	798.452	-0.070	0.252
-189.173	-32.698	0.326	0.235
-188.158	-150.498	-0.141	-0.014
-187.144	800.000	0.032	0.145
-186.129	-51.581	0.342	-0.207
-185.114	-159.598	0.162	0.011
-184.100	-200.000	0.003	-0.449
-183.085	-200.000	-0.001	-0.410
-182.071	-95.386	-0.382	-0.133
-181.056	89.488	-0.335	-0.486
-180.042	214.021	0.205	-0.422
-179.027	70.004	-0.204	-0.273
-178.012	192.655	0.082	-0.161
-176.998	124.762	-0.287	-0.469
-175.983	800.000	0.139	-0.670
-174.969	223.943	0.208	-0.437
-173.954	63.978	0.241	0.315
-172.939	49.463	-0.312	-0.381
-171.925	-200.000	-0.070	-0.573
-170.910	354.911	0.092	0.239
-169.896	-179.320	-0.169	0.005
-168.881	-123.143	-0.184	-0.038
-167.866	63.483	0.116	0.151
-166.852	-34.822	-0.341	0.241
-165.837	800.000	0.128	-0.731
-164.823	-200.000	0.009	-0.112
-163.808	-48.021	0.546	-0.341
-162.793	-21.117	-0.185	-0.146
-161.779	-176.821	0.138	-0.004
-160.764	-96.834	0.412	0.140
-159.750	-30.931	0.588	0.430
-158.735	-50.649	0.056	-0.034
-157.720	-200.000	-0.015	-0.209
-156.706	-100.160	-0.342	-0.110
-155.691	-82.644	0.132	-0.055
-154.677	714.941	-0.088	0.305
-153.662	-40.680	0.107	0.072
-152.647	268.727	0.054	-0.123
-151.633	-83.069	-0.038	0.016
-150.618	106.182	0.191	-0.295
-149.604	146.812	0.059	0.104
-148.589	-188.222	-0.513	-0.008
-147.574	-175.758	0.246	-0.008
-146.560	35.477	-0.149	-0.169
-145.545	-160.846	0.287	0.019
-144.531	-51.651	-0.252	-0.152
-143.516	205.174	0.079	-0.159
-142.502	-112.930	0.307	0.078
-141.487	-200.000	0.009	0.223
-140.472	-77.928	0.491	-0.218
-139.458	-34.960	0.221	-0.156
-138.443	268.697	-0.127	-0.291
-137.429	71.597	0.163	0.220
-136.414	267.380	0.107	-0.244
-135.399	-200.000	-0.002	0.198
-134.385	243.872	-0.201	0.439
-133.370	-8.498	0.160	-0.140
-132.356	-57.145	0.168	-0.096
-131.341	-26.157	0.060	0.046
-130.326	58.709	-0.262	-0.334
-129.312	-101.308	-0.265	0.083
-128.297	-56.184	0.209	0.120
-127.283	-67.252	-0.210	0.107
-126.268	295.168	0.147	0.351
-125.253	-200.000	0.000	-0.029
-124.239	-59.202	0.162	-0.090
-123.224	473.425	-0.120	0.353
-122.210	-14.081	0.218	0.182
-121.195	98.920	0.113	-0.169
-120.180	216.169	-0.218	-0.450
