DTS Sentinel unit serial number:	SN409020Multiplexer serial number:	ORYXHardware model number:	OX4-SRSoftware version number:	ORYX F/W v3.00 Oryx Data Collector v3.7.2.0data status	okinstallation	HaddamTimeLapsedifferential loss correction	single-endedforward channel	channel 3reverse channel	N/Adate	2011/06/22time	06:06:17forward acquisition time	30.00reverse acquisition time	0.00gamma	498.7831k internal	0.1751k external	0.1751temperature offset calibration	1.0074default loss term (dB/km)	0.3790temperature slope calibration	1.3530multiplexer offset coefficient	1.0000multiplexer slope coefficient	1.0000fibre end	0.00T internal ref (°C)	22.56T ext. ref 1 (°C)	18.16T ext. ref 2 (°C)	0.17length (m)	temperature (°C)	Stokes	anti-Stokes-747.200	-143.566	0.319	-0.040
-746.185	-131.071	-0.255	-0.045
-745.171	-102.813	0.235	-0.074
-744.156	55.692	-0.321	0.413
-743.142	107.869	0.338	0.535
-742.127	-200.000	0.004	-0.070
-741.112	800.000	-0.031	-0.177
-740.098	54.426	0.084	0.107
-739.083	-5.058	0.218	-0.199
-738.069	-92.720	0.288	0.107
-737.054	800.000	-0.087	0.346
-736.039	89.169	-0.061	-0.091
-735.025	800.000	-0.060	-0.346
-734.010	-167.206	0.408	0.022
-732.996	86.548	0.151	-0.221
-731.981	-72.609	-0.402	-0.196
-730.966	323.580	-0.102	0.260
-729.952	-89.826	-0.176	-0.068
-728.937	-200.000	0.045	-0.802
-727.923	265.112	0.143	-0.333
-726.908	83.092	0.154	0.223
-725.894	63.676	0.045	-0.061
-724.879	406.257	0.141	0.396
-723.864	-22.734	-0.140	0.112
-722.850	-81.612	-0.406	0.176
-721.835	-11.374	-0.069	-0.060
-720.821	-95.228	-0.451	-0.160
-719.806	800.000	-0.052	0.272
-718.791	-63.576	-0.104	-0.057
-717.777	49.822	-0.449	-0.562
-716.762	253.189	0.062	0.140
-715.748	5.490	-0.173	0.170
-714.733	16.081	-0.276	0.288
-713.718	77.771	0.240	-0.339
-712.704	800.000	0.083	-0.430
-711.689	-157.192	0.157	-0.013
-710.675	257.692	-0.085	-0.194
-709.660	-44.622	-0.103	-0.068
-708.645	800.000	0.068	0.339
-707.631	53.051	-0.376	0.478
-706.616	-39.267	-0.299	-0.207
-705.602	-134.294	0.111	-0.018
-704.587	-84.995	0.351	0.145
-703.572	139.316	0.185	-0.324
-702.558	-18.056	0.187	0.155
-701.543	-88.118	0.164	0.065
-700.529	604.138	-0.076	-0.252
-699.514	-106.694	0.326	-0.096
-698.499	-57.495	-0.395	0.229
-697.485	-42.001	0.304	-0.206
-696.470	360.590	-0.259	0.690
-695.456	-200.000	0.577	-0.001
-694.441	-168.501	-0.144	-0.007
-693.426	-65.892	0.362	-0.191
-692.412	-34.330	-0.358	-0.260
-691.397	-200.000	-0.078	-0.479
-690.383	186.470	0.155	-0.307
-689.368	-9.910	0.402	-0.354
-688.354	-106.208	0.295	-0.087
-687.339	-56.747	-0.190	-0.111
-686.324	-122.754	0.130	-0.028
-685.310	800.000	-0.067	0.279
-684.295	-74.973	0.151	-0.072
-683.281	-122.626	-0.084	0.018
-682.266	19.273	-0.113	-0.120
-681.251	-94.596	0.159	0.057
-680.237	72.493	0.034	0.047
-679.222	-29.330	-0.269	-0.204
-678.208	-84.904	0.263	0.109
-677.193	201.789	0.179	0.366
-676.178	106.053	-0.129	-0.202
-675.164	-73.352	-0.229	-0.111
-674.149	38.237	-0.260	0.307
-673.135	8.837	0.467	-0.466
-672.120	-123.640	-0.055	0.011
-671.105	63.906	-0.236	0.314
-670.091	-117.337	0.336	-0.080
-669.076	72.642	0.278	-0.385
-668.062	-114.388	-0.614	-0.155
-667.047	8.032	0.181	0.180
-666.032	800.000	-0.038	0.152
-665.018	-18.492	0.095	0.078
-664.003	-200.000	0.021	-0.345
-662.989	-31.717	-0.299	0.222
-661.974	-200.000	-0.013	-0.097
-660.959	-39.420	-0.473	0.327
-659.945	800.000	0.080	0.341
-658.930	373.194	-0.241	0.652
-657.916	-200.000	0.034	-0.264
-656.901	475.598	-0.168	-0.503
-655.886	48.408	-0.237	-0.294
-654.872	800.000	-0.053	-0.213
-653.857	-200.000	0.029	-0.301
-652.843	31.441	-0.101	-0.115
-651.828	430.663	-0.018	0.051
-650.814	11.746	-0.262	0.266
-649.799	-200.000	0.008	0.304
-648.784	223.070	-0.077	0.165
-647.770	9.128	-0.256	-0.256
-646.755	4.151	-0.356	-0.344
-645.741	754.921	-0.110	-0.395
-644.726	-79.155	-0.377	-0.168
-643.711	-119.337	-0.222	-0.051
-642.697	118.677	0.281	-0.460
-641.682	215.427	-0.122	0.257
-640.668	-97.663	-0.536	0.183
-639.653	-137.730	-0.516	-0.076
-638.638	-130.367	0.235	-0.042
-637.624	28.897	0.132	-0.148
-636.609	-54.120	-0.158	-0.095
-635.595	-54.551	-0.336	-0.201
-634.580	-54.580	-0.455	0.271
-633.565	29.333	0.204	0.230
-632.551	-3.872	-0.092	-0.084
-631.536	-200.000	0.021	-0.149
-630.522	12.237	-0.145	-0.147
-629.507	9.778	-0.176	-0.176
-628.492	-200.000	-0.017	0.132
-627.478	-30.333	-0.507	-0.380
-626.463	800.000	0.024	-0.097
-625.449	8.849	-0.158	-0.158
-624.434	153.034	0.123	0.222
-623.419	-200.000	-0.275	0.001
-622.405	159.357	-0.111	0.205
-621.390	324.144	-0.111	-0.283
-620.376	787.004	0.123	-0.448
-619.361	108.144	-0.239	-0.377
-618.346	-147.865	0.307	0.033
-617.332	-200.000	0.002	-0.028
-616.317	435.016	0.280	0.808
-615.303	-200.000	0.051	0.416
-614.288	-65.882	0.162	-0.085
-613.273	531.017	0.111	-0.349
-612.259	-193.886	0.639	-0.007
-611.244	102.497	0.219	-0.339
-610.230	-200.000	-0.046	-0.300
-609.215	777.060	-0.080	-0.289
-608.201	149.446	-0.249	-0.446
-607.186	-161.581	-0.164	0.011
-606.171	-29.963	-0.480	-0.361
-605.157	-154.899	-0.160	-0.014
-604.142	-146.062	-0.381	-0.044
-603.128	179.948	-0.063	0.121
-602.113	-122.435	-0.916	-0.195
-601.098	-4.022	0.425	0.388
-600.084	800.000	0.063	-0.234
-599.069	-129.582	-0.433	-0.078
-598.055	-159.028	-0.118	0.009
-597.040	800.000	-0.019	0.086
-596.025	426.146	0.060	0.172
-595.011	-161.870	0.228	-0.015
-593.996	800.000	0.105	-0.469
-592.982	84.791	0.213	0.309
-591.967	205.115	-0.171	0.351
-590.952	-20.183	0.173	0.141
-589.938	-131.096	0.130	0.023
-588.923	-70.149	0.378	-0.189
-587.909	-104.525	0.273	-0.083
-586.894	-139.856	-0.369	0.051
-585.879	300.069	-0.100	0.244
-584.865	-69.336	0.427	0.216
-583.850	32.614	0.306	-0.350
-582.836	-62.810	0.114	-0.062
-581.821	1.178	-0.484	-0.458
-580.806	-122.795	0.168	-0.035
-579.792	-85.945	0.628	-0.255
-578.777	-23.796	0.028	-0.022
-577.763	92.564	0.134	-0.199
-576.748	-19.949	-0.314	0.255
-575.733	-19.636	-0.167	-0.136
-574.719	-110.321	0.533	0.145
-573.704	-49.206	0.136	-0.085
-572.690	331.780	-0.159	0.405
-571.675	-200.000	-0.063	0.371
-570.661	477.486	0.066	-0.197
-569.646	138.091	0.201	0.348
-568.631	43.556	0.126	0.152
-567.617	225.276	-0.267	0.571
-566.602	-47.624	-0.074	-0.048
-565.588	293.938	0.077	-0.187
-564.573	283.732	-0.159	0.378
-563.558	24.526	0.490	0.535
-562.544	701.497	0.082	0.287
-561.529	-41.519	-0.340	0.230
-560.515	-200.000	-0.035	-0.213
-559.500	-200.000	-0.102	0.617
-558.485	22.234	0.286	-0.308
-557.471	17.505	0.171	0.179
-556.456	-60.262	0.659	-0.369
-555.442	304.865	-0.241	-0.593
-554.427	-200.000	-0.001	-0.482
-553.412	622.744	0.050	-0.167
-552.398	800.000	-0.057	-0.211
-551.383	-42.111	-0.181	0.122
-550.369	-95.394	0.456	0.161
-549.354	-200.000	0.014	0.088
-548.339	800.000	-0.049	-0.200
-547.325	-200.000	0.039	0.648
-546.310	-200.000	-0.001	-0.107
-545.296	-75.097	-0.259	-0.122
-544.281	-200.000	0.045	-0.366
-543.266	-37.090	0.382	0.269
-542.252	-200.000	0.021	-0.307
-541.237	-82.238	-0.328	-0.140
-540.223	-56.656	0.755	-0.439
-539.208	-172.903	-0.311	-0.013
-538.193	-76.946	-0.309	0.142
-537.179	-16.805	-0.294	-0.245
-536.164	115.677	0.326	0.526
-535.150	-200.000	0.020	0.348
-534.135	-104.892	0.321	-0.096
-533.121	-83.709	0.300	0.126
-532.106	-200.000	-0.012	-0.083
-531.091	-94.288	-0.469	0.168
-530.077	-104.921	0.071	0.021
-529.062	-41.008	-0.119	0.081
-528.048	36.128	0.070	-0.081
-527.033	35.198	0.153	0.176
-526.018	214.347	-0.028	0.059
-525.004	-123.408	0.150	-0.031
-523.989	-77.463	-0.274	-0.125
-522.975	98.170	-0.094	0.142
-521.960	-175.804	0.383	0.013
-520.945	-115.028	0.144	-0.036
-519.931	-200.000	-0.043	-0.404
-518.916	690.643	-0.086	0.298
-517.902	800.000	-0.023	-0.093
-516.887	201.879	0.199	-0.404
-515.872	-54.197	0.492	0.293
-514.858	-109.607	0.290	-0.080
-513.843	51.644	0.134	0.168
-512.829	-109.958	0.265	-0.073
-511.814	197.647	-0.238	-0.480
-510.799	55.427	0.220	-0.280
-509.785	708.449	0.148	-0.518
-508.770	-30.383	-0.142	-0.106
-507.756	72.556	0.192	-0.264
-506.741	-159.625	0.195	-0.014
-505.726	23.266	0.310	0.335
-504.712	-120.409	0.540	-0.120
-503.697	3.985	0.110	0.105
-502.683	567.629	0.100	0.320
-501.668	216.874	0.065	0.137
-500.653	-148.571	0.051	0.005
-499.639	25.840	-0.196	0.215
-498.624	-200.000	0.002	0.477
-497.610	-105.025	-0.168	-0.050
-496.595	4.161	0.204	0.196
-495.581	135.281	-0.346	0.593
-494.566	800.000	0.073	0.307
-493.551	130.212	0.185	0.313
-492.537	-191.322	0.655	0.009
-491.522	49.045	-0.245	0.303
-490.508	-31.593	-0.177	-0.130
-489.493	800.000	0.049	-0.185
-488.478	-10.389	-0.202	-0.176
-487.464	-129.732	0.100	-0.018
-486.449	56.862	-0.367	0.471
-485.435	-134.356	-0.195	-0.031
-484.420	62.474	-0.151	-0.198
-483.405	40.328	-0.214	-0.253
-482.391	800.000	-0.017	-0.062
-481.376	363.879	0.136	0.360
-480.362	-200.000	0.054	0.469
-479.347	-52.007	0.242	-0.147
-478.332	-200.000	-0.028	-0.208
-477.318	800.000	-0.019	0.093
-476.303	380.712	0.151	0.408
-475.289	30.839	-0.176	0.198
-474.274	-144.489	0.089	0.011
-473.259	179.603	-0.182	-0.352
-472.245	-81.666	-0.283	0.122
-471.230	479.887	-0.186	0.558
-470.216	-4.696	-0.081	-0.073
-469.201	109.071	-0.138	-0.217
-468.186	26.258	0.390	-0.428
-467.172	-200.000	0.030	-0.343
-466.157	-135.200	0.386	-0.060
-465.143	-84.154	-0.158	-0.066
-464.128	424.366	0.059	0.167
-463.113	-47.750	0.280	-0.178
-462.099	-52.701	0.255	0.154
-461.084	-167.933	-0.242	-0.012
-460.070	800.000	0.045	0.215
-459.055	-200.000	0.001	-0.055
-458.040	-25.576	-0.133	-0.103
-457.026	-119.677	0.522	0.118
-456.011	788.273	0.085	0.310
-454.997	-27.084	-0.179	-0.137
-453.982	-167.914	-0.328	-0.017
-452.968	-200.000	0.027	0.467
-451.953	800.000	-0.050	0.222
-450.938	353.494	0.097	-0.254
-449.924	131.677	-0.109	-0.185
-448.909	31.593	-0.270	-0.304
-447.895	-106.216	0.172	0.050
-446.880	-60.246	-0.145	0.081
-445.865	-33.179	-0.447	0.325
-444.851	-74.689	-0.139	0.065
-443.836	800.000	-0.061	-0.311
-442.822	-81.754	-0.273	-0.117
-441.807	123.861	0.238	0.393
-440.792	-45.339	-0.274	-0.178
-439.778	-152.824	0.315	-0.029
-438.763	-39.071	0.180	0.124
-437.749	109.047	-0.049	-0.077
-436.734	-120.179	0.510	-0.113
-435.719	-160.433	-0.368	0.026
-434.705	74.920	-0.240	-0.332
-433.690	-25.248	0.143	-0.111
-432.676	472.755	0.120	0.357
-431.661	140.788	0.092	0.160
-430.646	211.292	-0.403	0.836
-429.632	-41.905	0.427	0.286
-428.617	800.000	-0.034	-0.184
-427.603	800.000	-0.063	0.234
-426.588	597.757	-0.093	-0.305
-425.573	-110.222	0.170	0.046
-424.559	-120.722	0.176	-0.039
-423.544	18.170	-0.309	-0.323
-422.530	-56.025	0.048	0.028
-421.515	-51.117	-0.213	-0.131
-420.500	796.026	0.039	0.141
-419.486	190.991	-0.066	0.130
-418.471	45.062	0.102	-0.123
-417.457	800.000	0.049	-0.219
-416.442	-126.973	0.099	-0.019
-415.428	-156.846	0.331	-0.026
-414.413	-64.569	-0.202	0.107
-413.398	29.264	0.181	-0.202
-412.384	-130.718	0.199	0.035
-411.369	-200.000	0.040	-0.288
-410.355	-128.288	0.080	-0.015
-409.340	-148.943	0.281	0.029
-408.325	184.212	-0.313	0.609
-407.311	800.000	0.036	0.147
-406.296	-181.431	-0.363	-0.009
-405.282	-200.000	-0.069	-0.599
-404.267	-135.404	0.189	-0.029
-403.252	-10.530	-0.186	-0.161
-402.238	-110.546	-0.438	0.118
-401.223	-112.306	-0.334	-0.087
-400.209	516.274	-0.088	0.270
-399.194	4.564	0.309	-0.297
-398.179	-4.775	0.281	0.254
-397.165	-200.000	-0.046	-0.617
-396.150	-69.527	0.155	0.078
-395.136	-98.762	0.308	-0.102
-394.121	86.854	-0.279	-0.404
-393.106	1.258	-0.357	-0.336
-392.092	79.940	-0.202	-0.285
-391.077	-100.297	-0.498	0.161
-390.063	215.349	0.205	0.427
-389.048	-167.309	0.086	0.004
-388.033	-52.845	0.079	-0.048
-387.019	-200.000	-0.010	0.073
-386.004	-119.678	-0.269	-0.060
-384.990	-200.000	0.013	-0.135
-383.975	360.219	0.128	-0.338
-382.960	41.257	0.130	-0.153
-381.946	800.000	-0.083	0.415
-380.931	-200.000	-0.010	0.113
-379.917	-200.000	0.030	-0.199
-378.902	210.986	-0.135	0.279
-377.888	19.763	-0.273	0.288
-376.873	800.000	0.096	0.437
-375.858	-121.532	0.100	-0.021
-374.844	-58.662	0.451	-0.255
-373.829	-200.000	0.002	-0.139
-372.815	-27.784	-0.550	-0.417
-371.800	-140.041	0.487	-0.066
-370.785	39.076	0.365	-0.428
-369.771	93.595	0.207	0.307
-368.756	-37.274	-0.125	-0.087
-367.742	-124.169	-0.273	0.055
-366.727	800.000	0.044	0.162
-365.712	-16.878	-0.197	0.163
-364.698	-22.777	0.206	-0.162
-363.683	-200.000	0.008	-0.481
-362.669	181.241	0.018	-0.034
-361.654	-159.072	-0.428	-0.031
-360.639	-200.000	0.006	0.255
-359.625	-101.466	-0.118	0.037
-358.610	-118.531	-0.182	0.042
-357.596	78.447	-0.173	-0.243
-356.581	243.388	0.143	0.314
-355.566	6.048	-0.149	-0.145
-354.552	42.449	0.115	-0.137
-353.537	-83.316	0.437	0.182
-352.523	-35.304	0.122	-0.087
-351.508	591.253	0.087	0.282
-350.493	18.114	0.116	0.121
-349.479	129.267	0.124	-0.208
-348.464	416.083	-0.024	-0.068
-347.450	-43.384	0.299	0.197
-346.435	-65.688	0.239	-0.125
-345.420	84.769	0.121	-0.174
-344.406	178.748	0.040	0.077
-343.391	19.191	0.185	0.194
-342.377	-200.000	0.004	-0.091
-341.362	-7.447	-0.229	0.203
-340.348	-140.814	-0.355	0.047
-339.333	-115.647	-0.490	0.119
-338.318	-150.183	0.227	-0.023
-337.304	-81.122	0.114	-0.049
-336.289	-127.212	0.283	-0.054
-335.275	-13.162	0.244	0.207
-334.260	76.578	0.150	0.208
-333.245	377.385	0.106	0.285
-332.231	-79.919	-0.266	0.116
-331.216	72.099	-0.061	-0.083
-330.202	-87.408	-0.519	0.204
-329.187	-8.865	0.056	-0.049
-328.172	520.584	-0.098	-0.303
-327.158	-45.807	0.592	-0.381
-326.143	-148.316	-0.186	0.020
-325.129	102.329	0.112	0.172
-324.114	-73.760	0.131	0.062
-323.099	759.375	-0.052	-0.185
-322.085	-51.358	-0.525	0.320
-321.070	-157.836	-0.187	0.014
-320.056	-116.484	0.410	0.098
-319.041	120.248	-0.157	0.255
-318.026	-121.931	0.337	0.072
-317.012	737.917	-0.027	0.095
-315.997	800.000	0.009	0.032
-314.983	-133.295	-0.391	0.064
-313.968	-46.944	-0.295	-0.188
-312.953	85.813	0.226	0.326
-311.939	-133.374	0.220	-0.036
-310.924	800.000	-0.066	0.245
-309.910	-173.714	0.603	0.023
-308.895	-200.000	0.050	0.467
-307.880	-85.619	-0.272	-0.110
-306.866	-134.008	0.152	-0.024
-305.851	673.302	-0.057	-0.195
-304.837	-97.383	-0.128	-0.043
-303.822	-184.543	0.064	0.001
-302.807	35.207	0.153	0.175
-301.793	-200.000	-0.050	0.298
-300.778	800.000	-0.066	-0.288
-299.764	-152.057	-0.866	0.081
-298.749	-10.499	-0.211	-0.182
-297.735	-200.000	-0.011	0.219
-296.720	40.517	0.061	0.072
-295.705	-187.233	0.217	-0.004
-294.691	-61.450	0.179	-0.098
-293.676	104.868	0.110	-0.170
-292.662	-144.082	-0.263	0.032
-291.647	800.000	0.115	0.432
-290.632	-86.524	0.171	0.068
-289.618	-122.531	-0.139	-0.029
-288.603	-87.543	0.336	0.132
-287.589	-103.727	0.255	-0.077
-286.574	-200.000	-0.054	0.389
-285.559	800.000	0.024	-0.116
-284.545	87.934	0.073	-0.105
-283.530	-47.240	-0.143	-0.091
-282.516	-122.595	-0.251	-0.053
-281.501	-162.064	-0.069	-0.004
-280.486	58.398	0.207	-0.266
-279.472	-158.604	-0.831	-0.062
-278.457	375.342	-0.071	0.190
-277.443	-72.314	-0.409	-0.197
-276.428	185.425	-0.069	-0.134
-275.413	-146.278	0.554	0.063
-274.399	73.696	0.098	0.134
-273.384	109.419	0.069	-0.109
-272.370	800.000	-0.031	0.164
-271.355	-65.596	0.329	0.171
-270.340	53.514	0.159	0.199
-269.326	-142.627	-0.393	0.050
-268.311	62.624	0.211	0.275
-267.297	115.309	0.469	-0.749
-266.282	800.000	-0.026	-0.112
-265.267	46.054	0.224	-0.270
-264.253	-38.479	-0.180	0.123
-263.238	800.000	0.103	-0.498
-262.224	49.591	0.088	0.108
-261.209	155.071	-0.226	-0.406
-260.195	82.270	-0.094	0.133
-259.180	-200.000	0.036	0.367
-258.165	800.000	0.108	0.481
-257.151	334.536	-0.032	-0.082
-256.136	19.168	0.229	-0.240
-255.122	-200.000	-0.038	0.226
-254.107	-137.164	-0.235	-0.035
-253.092	-97.817	-0.182	0.061
-252.078	-28.848	0.370	-0.276
-251.063	-200.000	-0.011	-0.200
-250.049	-182.099	0.141	0.003
-249.034	222.983	0.217	-0.456
-248.019	247.594	0.078	0.173
-247.005	95.554	-0.351	-0.522
-245.990	613.665	-0.219	-0.717
-244.976	121.347	-0.136	-0.222
-243.961	502.614	0.144	0.436
-242.946	348.105	-0.246	0.634
-241.932	55.714	-0.126	0.159
-240.917	-145.886	0.456	0.052
-239.903	-26.140	0.130	-0.100
-238.888	7.795	-0.200	-0.195
-237.873	21.959	0.193	0.205
-236.859	-70.293	-0.075	0.037
-235.844	30.157	-0.595	0.661
-234.830	-10.438	-0.264	0.227
-233.815	-131.990	-0.440	-0.074
-232.800	369.499	0.045	-0.118
-231.786	-200.000	0.014	-0.276
-230.771	-150.029	0.467	-0.047
-229.757	800.000	-0.165	-0.661
-228.742	539.033	-0.054	-0.169
-227.727	800.000	-0.034	-0.177
-226.713	15.870	-0.197	0.201
-225.698	-4.249	-0.192	0.173
-224.684	-79.982	0.549	0.239
-223.669	0.797	-0.159	0.148
-222.655	-61.001	-0.258	0.141
-221.640	-50.847	-0.240	0.147
-220.625	-20.802	-0.167	-0.133
-219.611	82.383	0.163	0.231
-218.596	-7.357	-0.355	-0.312
-217.582	-46.682	0.355	-0.226
-216.567	-200.000	0.012	-0.112
-215.552	-15.616	0.402	-0.333
-214.538	540.535	0.081	0.254
-213.523	-178.380	0.108	-0.003
-212.509	-64.615	0.163	-0.086
-211.494	-149.447	-0.367	-0.037
-210.479	231.724	0.141	0.302
-209.465	-35.217	0.220	-0.156
-208.450	-70.645	-0.494	-0.242
-207.436	-200.000	0.016	-0.158
-206.421	109.031	-0.267	0.415
-205.406	721.587	0.084	0.291
-204.392	-100.671	0.316	0.101
-203.377	800.000	-0.019	-0.100
-202.363	3.427	-0.149	0.141
-201.348	-105.199	0.191	0.056
-200.333	-169.716	-0.417	0.019
-199.319	-45.993	-0.174	-0.111
-198.304	-79.737	0.559	-0.244
-197.290	-63.811	0.604	-0.320
-196.275	-200.000	0.006	0.040
-195.260	-73.427	-0.018	0.008
-194.246	-200.000	-0.069	0.492
-193.231	-79.382	-0.225	0.099
-192.217	-106.200	-0.061	-0.018
-191.202	-200.000	-0.033	-0.215
-190.187	-156.763	0.160	-0.013
-189.173	147.978	0.034	0.059
-188.158	-1.649	-0.283	0.259
-187.144	-129.850	0.240	-0.042
-186.129	148.544	0.267	0.470
-185.114	17.118	-0.091	-0.094
-184.100	28.668	-0.153	-0.168
-183.085	247.293	-0.253	0.557
-182.071	15.919	-0.384	0.393
-181.056	-200.000	-0.009	0.445
-180.042	-9.912	0.160	-0.138
-179.027	-56.252	0.169	0.097
-178.012	-70.081	0.417	0.206
-176.998	185.604	0.135	0.261
-175.983	-58.883	0.320	0.179
-174.969	-105.920	-0.192	-0.056
-173.954	-99.019	0.374	-0.122
-172.939	711.169	0.054	0.185
-171.925	217.253	-0.069	0.142
-170.910	223.482	-0.167	-0.351
-169.896	-111.945	-0.132	-0.034
-168.881	-10.447	-0.214	-0.184
-167.866	13.738	0.210	-0.211
-166.852	5.096	-0.128	0.122
-165.837	-129.920	-0.202	-0.036
-164.823	104.530	-0.367	-0.562
-163.808	22.240	0.208	-0.220
-162.793	-154.116	0.353	-0.031
-161.779	-200.000	-0.043	-0.322
-160.764	1.211	-0.655	-0.610
-159.750	264.583	0.090	-0.203
-158.735	-170.421	0.352	0.016
-157.720	120.718	0.127	-0.206
-156.706	-115.395	-0.303	0.074
-155.691	172.269	-0.023	-0.042
-154.677	-200.000	-0.041	-0.543
-153.662	13.064	-0.316	0.317
-152.647	-200.000	0.045	0.392
-151.633	-200.000	0.019	0.201
-150.618	-165.728	0.362	-0.020
-149.604	-78.248	0.353	-0.156
-148.589	208.365	0.317	-0.645
-147.574	-58.186	0.810	0.456
-146.560	690.516	-0.046	0.156
-145.545	-51.249	-0.337	0.204
-144.531	24.608	0.322	-0.345
-143.516	-176.098	0.309	0.010
-142.502	19.905	0.063	-0.066
-141.487	-141.274	-0.231	0.030
-140.472	800.000	-0.045	0.254
-139.458	37.065	0.479	0.550
-138.443	-200.000	0.020	0.133
-137.429	-134.369	0.155	0.024
-136.414	-65.986	-0.093	-0.048
-135.399	-164.514	-0.136	0.008
-134.385	165.713	-0.199	-0.367
-133.370	-200.000	0.077	0.625
-132.356	-99.650	0.180	0.058
-131.341	-3.102	0.354	-0.320
-130.326	43.880	0.004	0.005
-129.312	15.025	-0.247	-0.251
-128.297	-112.408	-0.475	-0.122
-127.283	-200.000	0.049	-0.365
-126.268	152.510	0.222	-0.394
-125.253	207.612	-0.176	-0.358
-124.239	434.843	0.161	0.456
-123.224	-141.123	-0.288	0.038
-122.210	213.272	-0.102	-0.209
-121.195	588.644	0.047	-0.152
