DTS Sentinel unit serial number:	SN409020Multiplexer serial number:	ORYXHardware model number:	OX4-SRSoftware version number:	ORYX F/W v3.00 Oryx Data Collector v3.7.2.0data status	okinstallation	HaddamTimeLapsedifferential loss correction	single-endedforward channel	channel 3reverse channel	N/Adate	2011/06/21time	14:16:17forward acquisition time	30.00reverse acquisition time	0.00gamma	498.7831k internal	0.1834k external	0.1834temperature offset calibration	1.0074default loss term (dB/km)	0.3790temperature slope calibration	1.3530multiplexer offset coefficient	1.0000multiplexer slope coefficient	1.0000fibre end	0.00T internal ref (°C)	38.47T ext. ref 1 (°C)	31.31T ext. ref 2 (°C)	0.25length (m)	temperature (°C)	Stokes	anti-Stokes-747.200	800.000	-0.126	-0.670
-746.185	-46.700	0.356	0.221
-745.171	42.619	0.154	0.178
-744.156	115.516	0.375	0.582
-743.142	265.528	0.326	0.723
-742.127	22.882	0.380	0.395
-741.112	646.058	-0.105	-0.343
-740.098	-168.739	0.486	-0.023
-739.083	15.881	0.253	-0.252
-738.069	800.000	0.138	0.703
-737.054	-2.810	-0.333	-0.295
-736.039	-97.356	0.274	0.090
-735.025	610.696	-0.031	-0.097
-734.010	-66.051	0.178	0.090
-732.996	-200.000	-0.029	0.164
-731.981	800.000	0.136	0.648
-730.966	461.866	-0.208	0.591
-729.952	17.947	-0.448	0.453
-728.937	-58.205	-0.349	0.192
-727.923	-51.555	0.141	-0.083
-726.908	-200.000	-0.012	0.128
-725.894	108.486	-0.185	0.281
-724.879	685.649	0.084	0.281
-723.864	284.426	0.139	-0.318
-722.850	-73.395	-0.363	-0.168
-721.835	-113.954	-0.091	-0.022
-720.821	800.000	0.023	-0.095
-719.806	-29.704	0.338	-0.244
-718.791	-50.903	0.243	0.144
-717.777	289.089	-0.238	0.549
-716.762	407.193	0.027	0.073
-715.748	800.000	-0.074	0.283
-714.733	-152.652	-0.120	0.011
-713.718	800.000	-0.043	0.232
-712.704	52.137	-0.163	-0.197
-711.689	371.162	-0.035	0.091
-710.675	-148.603	-0.345	0.035
-709.660	-200.000	0.034	-0.200
-708.645	383.119	-0.094	-0.245
-707.631	-20.915	-0.362	0.281
-706.616	281.674	0.139	-0.316
-705.602	672.664	0.194	-0.641
-704.587	800.000	-0.010	-0.054
-703.572	-165.309	-0.624	0.034
-702.558	800.000	0.021	-0.086
-701.543	-119.285	-0.144	-0.031
-700.529	-200.000	0.027	-0.198
-699.514	-178.040	0.163	-0.005
-698.499	800.000	0.100	-0.481
-697.485	95.859	0.177	-0.256
-696.470	-106.164	0.294	0.083
-695.456	-90.358	0.495	0.181
-694.441	-79.636	0.219	0.093
-693.426	-95.394	0.165	-0.056
-692.412	-200.000	-0.000	0.212
-691.397	-77.566	-0.227	0.099
-690.383	-145.900	0.390	-0.043
-689.368	-47.969	-0.223	-0.136
-688.354	137.055	-0.394	-0.653
-687.339	800.000	-0.121	0.566
-686.324	-68.329	0.240	0.118
-685.310	-81.450	0.213	0.088
-684.295	34.724	0.318	0.351
-683.281	-127.004	-0.063	-0.012
-682.266	-21.511	-0.008	-0.006
-681.251	108.142	-0.192	0.291
-680.237	596.637	-0.065	-0.205
-679.222	48.441	-0.184	-0.218
-678.208	-171.788	-0.492	0.020
-677.193	800.000	0.141	0.516
-676.178	-115.302	-0.243	0.058
-675.164	-27.733	0.316	-0.232
-674.149	178.170	0.079	-0.146
-673.135	-167.163	0.059	-0.003
-672.120	-129.715	-0.055	0.010
-671.105	130.984	-0.054	0.088
-670.091	222.818	0.144	-0.295
-669.076	-200.000	0.030	-0.273
-668.062	205.613	-0.153	0.301
-667.047	-200.000	0.028	0.217
-666.032	-1.847	0.284	-0.252
-665.018	-195.006	-0.277	0.003
-664.003	103.710	0.171	0.254
-662.989	567.397	-0.167	-0.517
-661.974	36.529	0.170	-0.189
-660.959	800.000	0.053	-0.290
-659.945	-200.000	-0.072	-0.403
-658.930	-78.572	-0.209	-0.090
-657.916	-200.000	0.069	0.400
-656.901	-77.281	-0.217	-0.095
-655.886	-91.370	0.335	0.120
-654.872	-146.121	0.277	0.030
-653.857	-22.400	-0.258	-0.197
-652.843	-124.695	-0.739	0.143
-651.828	-106.767	-0.220	0.061
-650.814	-125.060	0.333	0.064
-649.799	45.652	0.369	0.431
-648.784	144.914	-0.381	-0.645
-647.770	155.050	0.236	-0.410
-646.755	-82.836	0.552	-0.224
-645.741	143.744	-0.223	0.376
-644.726	-110.799	-0.094	0.024
-643.711	195.533	0.048	0.093
-642.697	-87.382	0.437	-0.167
-641.682	-200.000	-0.044	-0.561
-640.668	16.329	-0.449	-0.447
-639.653	31.771	-0.090	-0.098
-638.638	-200.000	0.068	-0.614
-637.624	73.275	0.116	-0.153
-636.609	587.620	-0.019	0.059
-635.595	52.439	0.385	0.465
-634.580	-200.000	-0.060	0.478
-633.565	131.348	-0.150	0.245
-632.551	-70.262	-0.448	-0.214
-631.536	-153.731	-0.295	-0.025
-630.522	-107.295	-0.193	0.053
-629.507	53.651	0.235	-0.285
-628.492	-140.902	-0.151	0.019
-627.478	-29.414	0.280	0.202
-626.463	302.565	-0.066	-0.154
-625.449	16.334	0.197	0.196
-624.434	-101.894	0.577	0.175
-623.419	-79.103	0.106	0.045
-622.405	-59.704	0.418	-0.226
-621.390	-77.834	-0.153	0.066
-620.376	253.868	-0.107	-0.231
-619.361	27.631	-0.122	-0.129
-618.346	-113.885	-0.213	-0.052
-617.332	800.000	-0.046	-0.205
-616.317	-108.245	0.360	-0.098
-615.303	-95.259	-0.139	-0.047
-614.288	11.027	-0.201	0.194
-613.273	-94.908	-0.255	-0.087
-612.259	-132.705	-0.162	0.026
-611.244	-12.238	-0.436	-0.359
-610.230	69.465	-0.435	-0.565
-609.215	-97.697	0.072	0.023
-608.201	-130.922	-0.219	-0.037
-607.186	-95.956	-0.281	-0.094
-606.171	63.564	0.229	-0.291
-605.157	-45.645	-0.292	0.182
-604.142	206.269	-0.085	0.167
-603.128	-18.690	0.205	0.161
-602.113	-46.977	-0.365	0.224
-601.098	217.200	0.028	-0.056
-600.084	-71.260	-0.111	0.053
-599.069	-74.478	0.358	0.162
-598.055	-32.676	0.239	-0.167
-597.040	-20.124	0.368	-0.286
-596.025	27.961	-0.235	-0.250
-595.011	-136.566	-0.609	-0.088
-593.996	35.217	0.181	0.200
-592.982	11.044	-0.275	0.265
-591.967	404.317	-0.040	0.107
-590.952	-14.487	-0.152	-0.123
-589.938	94.610	0.113	-0.162
-588.923	800.000	-0.032	-0.127
-587.909	-24.064	-0.356	-0.268
-586.894	-200.000	-0.081	-0.519
-585.879	-40.473	-0.072	0.047
-584.865	-89.722	-0.312	0.115
-583.850	21.999	-0.411	0.422
-582.836	-76.403	-0.360	0.159
-581.821	-200.000	0.039	0.230
-580.806	87.007	-0.329	0.458
-579.792	-179.524	0.348	-0.009
-578.777	178.832	0.102	-0.188
-577.763	-73.486	0.530	-0.243
-576.748	-98.089	0.131	-0.042
-575.733	-200.000	-0.048	-0.312
-574.719	-39.736	-0.428	-0.281
-573.704	-126.862	-0.361	-0.066
-572.690	-200.000	0.030	-0.667
-571.675	-69.184	0.321	-0.155
-570.661	-182.588	-0.130	0.003
-569.646	800.000	-0.221	0.892
-568.631	-83.174	-0.289	-0.117
-567.617	-49.184	0.103	0.062
-566.602	87.839	-0.120	0.168
-565.588	-17.752	0.240	-0.190
-564.573	-58.297	-0.199	0.109
-563.558	-55.176	-0.320	0.181
-562.544	-161.397	0.224	-0.014
-561.529	-175.328	-0.426	0.014
-560.515	-132.667	0.202	-0.032
-559.500	-129.433	0.349	0.060
-558.485	151.982	0.159	-0.273
-557.471	-102.410	-0.345	0.103
-556.456	56.123	-0.220	0.269
-555.442	35.119	-0.315	-0.348
-554.427	-64.566	-0.264	-0.134
-553.412	-59.342	-0.548	0.296
-552.398	-125.844	-0.375	0.071
-551.383	112.984	-0.138	-0.212
-550.369	800.000	-0.110	0.486
-549.354	22.633	-0.071	0.074
-548.339	-131.767	-0.148	0.024
-547.325	402.650	-0.088	-0.235
-546.310	-178.825	0.263	0.007
-545.296	-117.033	0.380	0.087
-544.281	-200.000	-0.007	-0.280
-543.266	0.741	-0.219	0.197
-542.252	275.958	-0.042	-0.094
-541.237	-20.127	0.314	0.243
-540.223	-149.331	0.246	0.024
-539.208	-200.000	-0.028	-0.463
-538.193	2.989	0.130	-0.119
-537.179	-154.673	-0.062	0.005
-536.164	-200.000	0.039	-0.300
-535.150	-139.741	-0.170	-0.022
-534.135	-153.641	0.445	-0.038
-533.121	-149.582	0.220	0.022
-532.106	-200.000	-0.034	-0.246
-531.091	-29.482	0.415	0.298
-530.077	35.784	0.253	-0.279
-529.062	800.000	0.060	-0.321
-528.048	-81.806	0.399	0.164
-527.033	742.732	-0.045	0.153
-526.018	-87.487	0.175	-0.066
-525.004	-91.024	-0.183	-0.066
-523.989	-153.329	-0.402	0.035
-522.975	0.189	-0.153	-0.137
-521.960	-7.460	-0.140	0.119
-520.945	800.000	0.131	0.539
-519.931	117.805	0.115	0.179
-518.916	-56.637	-0.285	0.158
-517.902	-157.918	0.607	-0.044
-516.887	650.558	-0.051	-0.166
-515.872	-153.448	-0.494	-0.043
-514.858	85.764	-0.208	-0.288
-513.843	94.773	0.107	-0.154
-512.829	-0.228	0.238	0.212
-511.814	-107.008	-0.193	-0.053
-510.799	-81.790	-0.329	0.135
-509.785	-127.109	0.306	0.056
-508.770	49.518	0.291	-0.344
-507.756	-200.000	-0.025	0.159
-506.741	71.462	0.192	0.251
-505.726	-200.000	0.064	0.360
-504.712	-200.000	0.008	-0.178
-503.697	12.850	-0.403	-0.391
-502.683	-87.360	0.425	-0.161
-501.668	-200.000	0.045	-0.251
-500.653	-200.000	0.008	0.121
-499.639	-130.102	-0.825	-0.140
-498.624	-42.179	-0.105	0.067
-497.610	29.225	0.568	0.606
-496.595	-112.357	-0.474	0.118
-495.581	238.700	0.139	-0.290
-494.566	-136.271	-0.148	-0.021
-493.551	755.564	-0.032	0.108
-492.537	3.608	-0.377	0.345
-491.522	-120.092	0.296	0.063
-490.508	-200.000	0.030	-0.305
-489.493	-47.129	0.631	0.385
-488.478	-200.000	-0.041	0.252
-487.464	-200.000	0.029	-0.178
-486.449	461.314	-0.205	-0.576
-485.435	150.411	-0.244	-0.417
-484.420	-176.603	0.235	-0.007
-483.405	-101.430	0.414	-0.126
-482.391	-5.951	-0.153	0.131
-481.376	-81.612	-0.517	0.212
-480.362	-19.992	0.408	-0.315
-479.347	155.516	0.158	-0.274
-478.332	576.747	0.119	-0.366
-477.318	218.800	0.089	-0.180
-476.303	-89.434	0.236	0.087
-475.289	-130.981	0.089	-0.015
-474.274	362.750	0.063	0.161
-473.259	-59.173	-0.291	0.157
-472.245	-200.000	0.072	-0.435
-471.230	547.588	0.099	-0.299
-470.216	42.105	-0.283	0.323
-469.201	353.031	0.088	0.221
-468.186	-63.760	0.510	0.261
-467.172	-60.192	-0.630	0.336
-466.157	161.152	0.119	0.210
-465.143	-155.801	0.186	-0.015
-464.128	440.140	0.128	0.353
-463.113	-31.669	-0.471	-0.331
-462.099	240.774	-0.096	-0.202
-461.084	-200.000	0.068	0.640
-460.070	266.894	0.034	-0.075
-459.055	63.381	0.141	0.178
-458.040	-15.591	0.426	0.340
-457.026	451.325	0.095	0.264
-456.011	-94.873	-0.158	-0.053
-454.997	-56.781	-0.304	0.168
-453.982	-200.000	0.041	-0.238
-452.968	155.170	0.142	-0.245
-451.953	40.851	-0.139	0.157
-450.938	800.000	-0.098	-0.411
-449.924	-96.380	-0.502	-0.165
-448.909	-32.886	0.181	-0.126
-447.895	104.419	-0.113	0.167
-446.880	-23.350	-0.423	-0.318
-445.865	127.240	0.136	-0.217
-444.851	-65.071	0.281	-0.142
-443.836	-124.029	-0.198	-0.039
-442.822	129.274	-0.342	-0.549
-441.807	121.757	0.292	-0.457
-440.792	-41.924	0.328	0.210
-439.778	-92.094	0.423	0.149
-438.763	-134.872	0.170	0.026
-437.749	13.319	0.149	0.144
-436.734	-168.140	0.436	0.021
-435.719	208.541	0.172	0.337
-434.705	-41.943	-0.077	-0.049
-433.690	-66.957	-0.585	0.288
-432.676	608.073	-0.248	0.780
-431.661	-200.000	-0.073	0.414
-430.646	-92.994	0.112	-0.039
-429.632	268.332	-0.006	-0.013
-428.617	-200.000	0.016	-0.347
-427.603	-74.287	-0.168	-0.076
-426.588	195.202	0.139	-0.265
-425.573	-118.104	-0.218	0.048
-424.559	78.227	-0.092	-0.123
-423.544	-18.783	-0.331	0.258
-422.530	54.407	0.303	-0.365
-421.515	-58.047	-0.284	-0.155
-420.500	97.754	0.131	-0.189
-419.486	171.594	-0.076	-0.136
-418.471	125.453	-0.081	0.129
-417.457	147.526	-0.169	0.285
-416.442	-97.569	0.103	-0.033
-415.428	-84.725	0.343	0.134
-414.413	-113.913	0.105	-0.025
-413.398	800.000	-0.030	-0.159
-412.384	547.545	-0.059	-0.178
-411.369	-150.301	-0.388	0.037
-410.355	-176.613	-0.093	0.003
-409.340	-146.595	-0.464	0.050
-408.325	-117.039	-0.205	-0.046
-407.311	-186.797	0.239	0.004
-406.296	-53.107	-0.352	-0.202
-405.282	-200.000	-0.005	0.206
-404.267	153.766	0.193	-0.331
-403.252	-119.937	0.220	-0.047
-402.238	-200.000	0.014	0.167
-401.223	-149.917	0.220	-0.021
-400.209	-200.000	0.035	0.325
-399.194	6.369	-0.070	-0.065
-398.179	-94.372	0.294	-0.100
-397.165	-119.017	0.348	-0.076
-396.150	-89.352	0.102	0.038
-395.136	-61.687	0.455	-0.238
-394.121	800.000	0.060	0.234
-393.106	-74.763	-0.164	-0.073
-392.092	-125.127	0.397	0.075
-391.077	-162.367	-0.424	0.026
-390.063	-102.173	0.347	0.104
-389.048	-200.000	0.044	0.319
-388.033	-66.284	0.187	-0.093
-387.019	-126.275	-0.115	0.021
-386.004	190.236	0.088	-0.166
-384.990	122.598	-0.360	-0.565
-383.975	-17.779	-0.247	-0.193
-382.960	116.175	-0.200	-0.307
-381.946	800.000	0.045	0.194
-380.931	-73.752	0.328	0.148
-379.917	120.489	0.206	0.321
-378.902	267.600	-0.063	0.138
-377.888	27.773	0.121	0.128
-376.873	-138.087	0.205	0.028
-375.858	-179.707	0.305	-0.008
-374.844	800.000	-0.004	-0.019
-373.829	23.441	0.204	-0.210
-372.815	476.099	-0.059	0.167
-371.800	-200.000	0.033	0.285
-370.785	800.000	0.035	-0.183
-369.771	800.000	-0.099	-0.345
-368.756	-72.689	0.085	0.039
-367.742	-27.845	0.146	0.105
-366.727	-200.000	0.098	-0.644
-365.712	95.695	0.328	-0.469
-364.698	-53.518	-0.279	-0.159
-363.683	20.769	0.241	0.243
-362.669	13.158	0.326	0.316
-361.654	-90.466	0.101	0.036
-360.639	-200.000	0.012	0.536
-359.625	509.505	-0.141	-0.412
-358.610	-200.000	-0.021	0.140
-357.596	-200.000	-0.035	0.370
-356.581	-55.249	0.318	0.178
-355.566	141.687	0.219	0.364
-354.552	-200.000	-0.028	-0.217
-353.537	-134.459	0.327	0.050
-352.523	-186.364	0.506	-0.009
-351.508	26.201	0.189	0.197
-350.493	-170.801	0.183	0.008
-349.479	4.020	0.149	0.136
-348.464	-200.000	-0.009	-0.270
-347.450	-54.334	-0.496	0.280
-346.435	323.036	-0.052	0.124
-345.420	-128.967	-0.559	-0.097
-344.406	800.000	0.122	0.470
-343.391	-200.000	-0.014	0.205
-342.377	-185.859	0.128	-0.002
-341.362	-200.000	0.007	-0.453
-340.348	99.329	0.126	-0.183
-339.333	-200.000	-0.012	0.312
-338.318	-200.000	0.005	-0.390
-337.304	-19.109	-0.378	0.292
-336.289	409.868	0.070	-0.186
-335.275	-122.586	0.294	0.059
-334.260	-4.281	-0.231	-0.199
-333.245	614.016	-0.024	0.077
-332.231	231.701	0.225	-0.462
-331.216	108.293	-0.067	0.099
-330.202	96.293	-0.110	0.158
-329.187	-200.000	0.013	-0.238
-328.172	-9.539	-0.607	0.504
-327.158	-61.165	-0.209	0.109
-326.143	-200.000	-0.027	0.284
-325.129	-200.000	-0.031	-0.398
-324.114	-200.000	-0.065	-0.570
-323.099	800.000	0.133	0.506
-322.085	-172.057	0.265	0.011
-321.070	1.102	-0.229	-0.205
-320.056	318.649	0.034	0.080
-319.041	768.411	-0.015	0.052
-318.026	-112.675	0.460	-0.113
-317.012	245.977	0.133	-0.280
-315.997	-18.906	0.073	0.056
-314.983	-45.704	-0.391	-0.240
-313.968	1.796	0.170	-0.153
-312.953	-43.771	-0.165	0.103
-311.939	12.943	-0.433	0.417
-310.924	6.258	-0.142	-0.131
-309.910	-200.000	-0.015	0.234
-308.895	673.438	-0.149	0.483
-307.880	-56.462	-0.215	0.118
-306.866	-110.569	0.195	0.050
-305.851	-50.102	0.438	0.258
-304.837	63.952	0.310	-0.389
-303.822	-200.000	-0.002	-0.127
-302.807	800.000	-0.064	0.300
-301.793	84.187	0.186	0.254
-300.778	-100.473	-0.246	-0.075
-299.764	143.353	0.225	0.374
-298.749	-200.000	-0.010	0.409
-297.735	-20.589	0.404	0.309
-296.720	-200.000	-0.055	0.385
-295.705	36.211	0.233	-0.256
-294.691	182.728	0.051	0.095
-293.676	-123.295	0.259	-0.051
-292.662	-118.570	0.138	0.030
-291.647	-31.513	-0.225	0.157
-290.632	-28.632	-0.288	-0.206
-289.618	-200.000	0.031	-0.172
-288.603	-63.987	0.288	0.146
-287.589	5.374	-0.022	-0.020
-286.574	-142.927	0.163	-0.019
-285.559	116.211	0.152	0.232
-284.545	800.000	-0.022	0.103
-283.530	16.060	0.113	-0.111
-282.516	-200.000	-0.022	-0.203
-281.501	506.141	0.090	0.262
-280.486	-17.610	0.126	-0.098
-279.472	800.000	-0.059	-0.264
-278.457	-96.698	0.280	-0.091
-277.443	76.930	0.317	0.419
-276.428	-200.000	-0.040	-0.375
-275.413	-165.705	-0.164	0.009
-274.399	12.068	-0.148	0.142
-273.384	22.945	0.156	0.159
-272.370	94.480	-0.032	-0.045
-271.355	-57.400	-0.092	-0.050
-270.340	-200.000	-0.006	0.064
-269.326	-14.144	-0.318	0.255
-268.311	-200.000	0.004	-0.252
-267.297	800.000	0.093	0.328
-266.282	283.405	0.211	0.475
-265.267	-78.897	-0.101	-0.043
-264.253	-57.962	0.511	-0.277
-263.238	-68.657	-0.462	-0.222
-262.224	-180.027	-0.494	0.013
-261.209	348.296	0.065	0.161
-260.195	800.000	0.089	-0.326
-259.180	-200.000	0.001	0.408
-258.165	-67.644	-0.249	-0.121
-257.151	800.000	-0.107	-0.419
-256.136	2.053	0.177	0.159
-255.122	-200.000	-0.008	-0.214
-254.107	5.500	0.463	-0.425
-253.092	-112.330	-0.188	0.047
-252.078	800.000	-0.068	-0.331
-251.063	204.003	-0.158	-0.305
-250.049	-148.774	-0.168	0.017
-249.034	-114.886	-0.223	-0.052
-248.019	-48.748	-0.505	0.301
-247.005	800.000	0.019	-0.075
-245.990	569.000	-0.059	0.179
-244.976	-113.134	-0.308	0.075
-243.961	697.935	-0.099	0.326
-242.946	-169.363	-0.283	-0.013
-241.932	260.436	-0.045	0.098
-240.917	106.880	-0.167	0.248
-239.903	-3.193	0.120	-0.104
-238.888	-7.378	0.531	0.447
-237.873	654.076	-0.164	0.525
-236.859	-151.656	-0.191	0.017
-235.844	-153.895	0.513	-0.043
-234.830	-27.701	0.273	0.197
-233.815	800.000	-0.053	-0.245
-232.800	-157.151	-0.069	-0.005
-231.786	50.563	0.103	-0.121
-230.771	130.054	0.152	-0.242
-229.757	-8.110	0.322	0.270
-228.742	67.520	-0.232	0.295
-227.727	-41.930	-0.425	-0.270
-226.713	-100.102	-0.320	0.098
-225.698	-69.353	0.405	-0.193
-224.684	-200.000	0.052	-0.481
-223.669	124.155	-0.199	-0.312
-222.655	208.440	0.040	-0.077
-221.640	-200.000	-0.021	-0.400
-220.625	-200.000	-0.027	-0.166
-219.611	-159.885	0.407	-0.027
-218.596	375.699	-0.199	-0.506
-217.582	-57.519	0.352	0.191
-216.567	-200.000	-0.038	-0.406
-215.552	342.975	-0.141	0.345
-214.538	182.228	0.147	0.270
-213.523	18.713	-0.063	0.062
-212.509	800.000	0.092	0.367
-211.494	-200.000	0.004	0.079
-210.479	541.691	-0.132	-0.392
-209.465	769.679	0.173	-0.588
-208.450	11.397	0.161	-0.153
-207.436	-95.562	0.316	-0.104
-206.421	703.563	-0.129	0.425
-205.406	-200.000	0.003	0.043
-204.392	-22.307	-0.136	-0.102
-203.377	63.326	-0.247	0.307
-202.363	126.286	0.084	-0.133
-201.348	-54.837	-0.228	-0.127
-200.333	71.783	0.154	0.199
-199.319	-28.377	0.142	-0.101
-198.304	800.000	0.071	-0.333
-197.290	-13.667	-0.119	-0.096
-196.275	-200.000	0.072	0.442
-195.260	-120.605	-0.153	-0.032
-194.246	7.636	-0.129	0.119
-193.231	183.734	-0.246	0.453
-192.217	61.409	-0.273	-0.337
-191.202	43.108	-0.155	0.175
-190.187	-42.459	0.261	-0.165
-189.173	800.000	-0.094	0.354
-188.158	-103.381	0.102	0.030
-187.144	45.898	-0.425	-0.488
-186.129	163.526	-0.054	0.094
-185.114	27.231	-0.434	0.452
-184.100	-62.218	0.621	-0.320
-183.085	-137.926	0.077	0.011
-182.071	-4.435	0.221	-0.189
-181.056	71.960	-0.254	-0.329
-180.042	333.082	-0.080	-0.193
-179.027	21.554	-0.343	0.346
-178.012	-200.000	0.014	0.303
-176.998	11.121	0.145	-0.137
-175.983	-7.723	0.239	0.200
-174.969	-69.780	-0.389	0.183
-173.954	80.850	0.451	-0.604
-172.939	-200.000	0.014	0.191
-171.925	-35.831	0.241	0.161
-170.910	-50.888	0.620	0.360
-169.896	-23.136	-0.307	0.229
-168.881	800.000	-0.078	0.351
-167.866	707.488	0.158	0.522
-166.852	193.524	0.101	-0.190
-165.837	49.685	0.352	0.412
-164.823	-29.558	-0.081	0.057
-163.808	-200.000	0.029	0.337
-162.793	-48.344	0.214	-0.127
-161.779	-30.830	0.263	0.184
-160.764	-101.374	0.181	0.054
-159.750	-9.548	0.139	0.115
-158.735	-200.000	-0.098	0.676
-157.720	-18.831	-0.347	-0.268
-156.706	-100.771	0.240	0.073
-155.691	-143.135	-0.173	-0.020
-154.677	64.352	0.087	0.109
-153.662	-53.952	-0.183	-0.103
-152.647	-164.262	-0.528	0.030
-151.633	-200.000	0.009	-0.368
-150.618	-13.417	0.208	-0.167
-149.604	-27.118	0.373	0.269
-148.589	298.713	0.135	0.310
-147.574	-61.871	-0.094	0.049
-146.560	-4.386	-0.058	0.049
-145.545	800.000	-0.050	-0.195
-144.531	-129.009	0.495	-0.085
-143.516	-33.148	0.308	-0.211
-142.502	360.220	-0.115	0.287
-141.487	13.932	0.485	0.467
-140.472	-46.606	-0.071	0.043
-139.458	-117.159	-0.482	-0.108
-138.443	51.508	0.244	-0.288
-137.429	107.432	0.227	0.335
-136.414	-162.885	-0.771	0.046
-135.399	-197.945	0.278	-0.002
-134.385	121.082	0.066	0.102
-133.370	800.000	-0.039	0.170
-132.356	246.191	0.107	0.224
-131.341	-127.860	0.342	-0.060
-130.326	23.274	0.110	-0.112
-129.312	-0.951	-0.140	-0.122
-128.297	208.314	-0.040	-0.078
-127.283	223.083	0.188	0.377
-126.268	-30.169	0.449	0.315
-125.253	-97.142	0.428	-0.138
-124.239	286.596	-0.089	-0.200
-123.224	800.000	-0.087	0.432
-122.210	-4.988	0.382	0.326
-121.195	276.977	-0.261	0.577
