DTS Sentinel unit serial number:	SN409020Multiplexer serial number:	ORYXHardware model number:	OX4-SRSoftware version number:	ORYX F/W v3.00 Oryx Data Collector v3.7.2.0data status	okinstallation	HaddamTimeLapsedifferential loss correction	single-endedforward channel	channel 3reverse channel	N/Adate	2011/06/22time	04:36:17forward acquisition time	30.00reverse acquisition time	0.00gamma	498.7831k internal	0.1752k external	0.1752temperature offset calibration	1.0074default loss term (dB/km)	0.3790temperature slope calibration	1.3530multiplexer offset coefficient	1.0000multiplexer slope coefficient	1.0000fibre end	0.00T internal ref (°C)	22.69T ext. ref 1 (°C)	18.12T ext. ref 2 (°C)	0.14length (m)	temperature (°C)	Stokes	anti-Stokes-747.200	-95.249	-0.156	-0.056
-746.185	-200.000	-0.026	0.345
-745.171	-101.041	0.363	-0.117
-744.156	154.780	0.314	0.574
-743.142	-99.402	-0.453	0.150
-742.127	-152.257	0.662	-0.063
-741.112	-61.053	-0.342	-0.191
-740.098	75.330	-0.337	0.473
-739.083	73.433	0.127	0.177
-738.069	-200.000	0.020	0.697
-737.054	-76.753	-0.489	0.226
-736.039	-200.000	-0.037	-0.582
-735.025	800.000	0.117	-0.459
-734.010	-152.937	0.265	-0.025
-732.996	35.022	0.210	-0.244
-731.981	-119.666	0.275	0.063
-730.966	-200.000	0.012	-0.572
-729.952	277.150	-0.076	0.179
-728.937	-106.167	0.192	-0.057
-727.923	-59.226	-0.205	-0.117
-726.908	-200.000	0.026	-0.241
-725.894	-50.201	0.343	0.214
-724.879	-110.844	0.198	0.054
-723.864	-144.116	0.178	-0.022
-722.850	-200.000	-0.018	-0.112
-721.835	-200.000	0.056	0.345
-720.821	-54.942	0.059	-0.035
-719.806	60.260	-0.335	-0.440
-718.791	-42.607	-0.121	-0.082
-717.777	-200.000	0.234	0.001
-716.762	334.407	-0.207	-0.533
-715.748	104.027	-0.136	-0.213
-714.733	-33.430	-0.452	0.331
-713.718	123.119	0.143	0.238
-712.704	800.000	-0.104	0.481
-711.689	70.579	0.307	0.421
-710.675	-47.995	0.369	0.236
-709.660	-83.848	0.512	-0.215
-708.645	704.290	0.064	-0.224
-707.631	-112.866	-0.235	-0.061
-706.616	-34.554	-0.252	0.183
-705.602	-96.234	-0.290	0.101
-704.587	-17.939	-0.455	0.377
-703.572	60.804	-0.269	-0.354
-702.558	691.987	-0.093	0.326
-701.543	-19.987	-0.261	-0.213
-700.529	-172.254	-0.329	-0.014
-699.514	415.292	0.193	0.549
-698.499	-80.024	0.320	0.141
-697.485	14.893	0.215	0.223
-696.470	-42.179	-0.246	0.166
-695.456	-200.000	-0.017	0.237
-694.441	-65.738	-0.200	-0.106
-693.426	-175.243	-0.288	-0.010
-692.412	-200.000	0.023	-0.313
-691.397	96.227	0.161	0.244
-690.383	-60.039	-0.150	-0.084
-689.368	-200.000	0.030	0.511
-688.354	54.985	-0.337	-0.431
-687.339	-28.230	0.152	0.116
-686.324	165.413	-0.049	-0.091
-685.310	0.527	-0.047	0.044
-684.295	-121.069	-0.335	-0.074
-683.281	-89.666	-0.083	-0.032
-682.266	48.891	-0.098	-0.121
-681.251	-200.000	-0.006	0.067
-680.237	176.645	-0.170	-0.328
-679.222	-41.082	0.200	-0.137
-678.208	-191.841	-0.529	0.007
-677.193	323.748	0.078	-0.197
-676.178	-94.327	-0.098	-0.035
-675.164	113.340	0.166	-0.267
-674.149	491.541	0.170	0.519
-673.135	-200.000	-0.015	-0.385
-672.120	-200.000	-0.053	0.362
-671.105	-115.657	0.223	-0.055
-670.091	-80.027	0.382	0.169
-669.076	22.560	-0.058	-0.063
-668.062	32.632	-0.141	0.161
-667.047	25.522	0.136	0.150
-666.032	22.845	0.056	0.060
-665.018	-131.020	-0.451	-0.079
-664.003	-40.900	-0.332	-0.227
-662.989	2.872	-0.073	-0.070
-661.974	-77.872	0.207	-0.094
-660.959	172.653	0.088	-0.169
-659.945	496.541	-0.123	-0.376
-658.930	59.981	-0.258	-0.338
-657.916	-171.888	-0.234	-0.010
-656.901	-169.737	-0.326	0.015
-655.886	-61.562	-0.142	0.079
-654.872	-120.875	0.567	0.125
-653.857	30.001	-0.117	0.132
-652.843	800.000	0.074	-0.339
-651.828	-200.000	-0.045	-0.369
-650.814	-87.855	-0.368	-0.146
-649.799	-33.305	0.338	0.247
-648.784	-73.149	-0.340	0.164
-647.770	-200.000	-0.034	-0.281
-646.755	-134.976	-0.227	-0.036
-645.741	-49.630	-0.489	0.307
-644.726	800.000	-0.102	0.404
-643.711	-200.000	0.004	-0.055
-642.697	29.594	0.114	-0.128
-641.682	0.873	-0.270	-0.256
-640.668	2.124	-0.320	-0.306
-639.653	-83.201	-0.188	-0.080
-638.638	-124.111	-0.506	0.104
-637.624	337.707	0.176	-0.454
-636.609	206.518	0.209	-0.431
-635.595	49.611	-0.051	0.063
-634.580	169.592	0.288	-0.546
-633.565	-39.293	-0.254	-0.176
-632.551	-200.000	-0.015	0.261
-631.536	82.439	-0.135	0.194
-630.522	133.414	-0.169	-0.290
-629.507	427.035	0.258	0.739
-628.492	632.788	-0.109	-0.367
-627.478	-48.458	0.130	-0.083
-626.463	-130.801	-0.362	-0.064
-625.449	-158.817	-0.716	0.053
-624.434	4.558	0.188	0.182
-623.419	-91.631	0.415	0.155
-622.405	-20.843	0.222	0.180
-621.390	431.656	0.054	-0.156
-620.376	0.874	0.500	-0.473
-619.361	800.000	0.070	0.343
-618.346	62.583	-0.258	-0.341
-617.332	143.515	-0.148	-0.261
-616.317	-3.769	-0.111	0.102
-615.303	135.850	-0.105	-0.181
-614.288	-200.000	-0.003	0.268
-613.273	800.000	0.035	0.192
-612.259	392.021	0.033	-0.091
-611.244	800.000	0.111	-0.459
-610.230	-200.000	0.029	0.345
-609.215	-161.370	0.122	0.008
-608.201	800.000	-0.033	0.172
-607.186	750.674	0.062	0.222
-606.171	-101.357	-0.074	0.024
-605.157	-111.157	-0.460	0.123
-604.142	277.019	-0.049	0.115
-603.128	-135.301	-0.281	0.044
-602.113	-109.085	-0.629	-0.176
-601.098	-118.844	0.222	0.051
-600.084	-200.000	-0.001	0.111
-599.069	-123.216	0.504	0.106
-598.055	-142.423	0.628	0.081
-597.040	-75.625	0.134	0.063
-596.025	-64.003	-0.551	-0.296
-595.011	83.766	0.391	0.563
-593.996	-200.000	-0.004	0.481
-592.982	-200.000	0.003	-0.590
-591.967	-79.314	0.094	0.042
-590.952	-138.518	-0.078	0.011
-589.938	123.262	-0.150	0.248
-588.923	-149.839	-0.375	0.038
-587.909	-53.095	0.297	0.180
-586.894	-134.635	0.330	0.052
-585.879	-141.465	0.278	-0.037
-584.865	113.982	0.135	0.218
-583.850	-200.000	-0.039	-0.269
-582.836	-110.224	0.281	-0.077
-581.821	-19.453	0.249	0.204
-580.806	-56.496	-0.292	0.170
-579.792	800.000	-0.073	0.363
-578.777	-200.000	0.034	0.273
-577.763	-79.817	-0.299	-0.132
-576.748	800.000	0.124	0.534
-575.733	173.955	0.181	0.346
-574.719	600.055	-0.180	-0.592
-573.704	-200.000	0.016	-0.307
-572.690	-167.053	-0.267	0.014
-571.675	-129.605	0.404	0.073
-570.661	30.223	0.419	0.471
-569.646	-200.000	0.013	0.348
-568.631	-80.071	0.247	-0.109
-567.617	23.241	-0.244	0.264
-566.602	-47.030	-0.189	0.121
-565.588	675.461	-0.038	-0.131
-564.573	45.587	0.532	-0.648
-563.558	566.028	0.143	-0.461
-562.544	-200.000	0.006	-0.319
-561.529	800.000	-0.077	-0.332
-560.515	-110.115	-0.575	-0.157
-559.500	-200.000	-0.025	0.183
-558.485	-51.178	-0.331	0.204
-557.471	275.928	0.093	0.218
-556.456	800.000	-0.080	-0.311
-555.442	-200.000	0.097	-0.807
-554.427	800.000	0.017	0.078
-553.412	-101.198	0.543	-0.174
-552.398	360.577	0.100	0.266
-551.383	243.337	0.245	0.544
-550.369	-29.016	-0.218	0.164
-549.354	-58.656	0.232	0.132
-548.339	293.056	0.073	-0.176
-547.325	-200.000	0.019	-0.513
-546.310	-139.122	-0.472	-0.066
-545.296	37.197	0.460	-0.537
-544.281	800.000	-0.091	-0.429
-543.266	363.274	-0.085	-0.225
-542.252	-168.894	-0.239	0.012
-541.237	-185.795	-0.112	0.002
-540.223	-6.019	0.066	0.060
-539.208	406.128	0.027	0.076
-538.193	582.203	0.041	0.134
-537.179	287.267	-0.162	-0.388
-536.164	-200.000	0.047	-0.331
-535.150	24.949	0.304	0.332
-534.135	125.429	-0.208	0.347
-533.121	171.249	-0.269	0.509
-532.106	-90.627	-0.531	-0.201
-531.091	87.997	-0.339	-0.496
-530.077	-200.000	-0.015	0.243
-529.062	222.576	0.083	-0.176
-528.048	-200.000	0.017	-0.107
-527.033	79.682	-0.208	0.294
-526.018	-134.431	0.262	0.042
-525.004	-200.000	-0.016	-0.184
-523.989	-195.621	0.594	0.006
-522.975	-200.000	0.039	0.555
-521.960	-10.155	-0.359	0.314
-520.945	-135.010	-0.679	-0.107
-519.931	-120.228	-0.463	0.103
-518.916	-61.139	0.260	0.144
-517.902	-200.000	0.007	0.166
-516.887	153.702	-0.190	0.343
-515.872	-127.145	-0.194	0.037
-514.858	-124.816	0.302	0.061
-513.843	-156.464	0.073	0.006
-512.829	-47.218	0.055	-0.035
-511.814	-73.889	-0.259	0.123
-510.799	-16.250	0.416	0.347
-509.785	161.193	-0.349	-0.644
-508.770	-51.731	-0.224	0.137
-507.756	-111.393	0.375	0.100
-506.741	-200.000	0.038	0.331
-505.726	-155.723	-0.387	-0.032
-504.712	-6.785	-0.286	-0.255
-503.697	206.168	-0.101	-0.208
-502.683	-133.572	-0.187	-0.030
-501.668	19.227	-0.041	0.044
-500.653	-73.399	0.092	0.044
-499.639	1.788	0.077	-0.073
-498.624	-121.120	-0.276	-0.060
-497.610	109.174	-0.168	0.265
-496.595	-200.000	-0.013	-0.235
-495.581	-131.977	-0.209	0.036
-494.566	-14.805	-0.436	-0.368
-493.551	337.904	0.018	-0.045
-492.537	126.170	0.317	-0.528
-491.522	-0.898	0.239	0.222
-490.508	800.000	-0.092	0.529
-489.493	-180.045	-0.303	-0.008
-488.478	-129.601	0.053	-0.010
-487.464	-58.161	0.399	0.228
-486.449	155.222	0.230	0.416
-485.435	-11.056	0.355	-0.308
-484.420	-200.000	0.007	-0.055
-483.405	56.402	0.219	0.279
-482.391	-57.671	-0.364	0.209
-481.376	-200.000	0.039	-0.271
-480.362	-162.118	0.119	0.008
-479.347	2.815	0.125	-0.119
-478.332	70.592	-0.188	-0.256
-477.318	21.721	-0.064	0.068
-476.303	78.281	0.102	0.143
-475.289	-3.083	0.294	0.269
-474.274	-65.714	-0.498	0.261
-473.259	63.025	-0.184	0.242
-472.245	-120.270	-0.213	-0.047
-471.230	31.691	-0.356	0.403
-470.216	-153.829	-0.220	-0.020
-469.201	68.229	-0.024	-0.032
-468.186	-118.900	-0.124	-0.028
-467.172	800.000	-0.141	0.538
-466.157	-120.999	-0.411	0.090
-465.143	-200.000	-0.007	-0.217
-464.128	-38.193	-0.369	0.256
-463.113	138.936	-0.072	-0.125
-462.099	-22.047	0.278	0.221
-461.084	-33.395	0.077	0.056
-460.070	800.000	-0.049	-0.238
-459.055	-41.089	0.386	-0.261
-458.040	-113.615	0.417	-0.106
-457.026	-6.613	0.317	-0.283
-456.011	-183.702	0.204	0.004
-454.997	800.000	-0.068	0.358
-453.982	-200.000	-0.002	0.435
-452.968	47.191	0.324	0.396
-451.953	65.367	-0.046	-0.061
-450.938	-158.231	-0.408	-0.031
-449.924	-84.722	-0.375	0.154
-448.909	-200.000	-0.015	0.166
-447.895	370.336	0.179	0.477
-446.880	-5.340	0.156	0.141
-445.865	93.439	0.217	0.324
-444.851	207.201	0.130	-0.268
-443.836	-200.000	-0.015	-0.207
-442.822	620.922	-0.097	-0.322
-441.807	800.000	0.050	-0.196
-440.792	-48.996	0.463	-0.290
-439.778	101.485	-0.116	0.177
-438.763	-129.345	0.139	0.025
-437.749	-200.000	-0.050	0.352
-436.734	-154.020	0.293	0.026
-435.719	-14.454	0.129	0.109
-434.705	-57.335	0.341	-0.196
-433.690	-76.426	0.489	0.225
-432.676	-119.755	-0.316	-0.071
-431.661	-26.320	-0.198	-0.152
-430.646	-128.413	0.223	-0.041
-429.632	-151.059	-0.259	0.025
-428.617	34.121	-0.268	-0.306
-427.603	-112.141	-0.462	0.121
-426.588	-122.822	-0.165	-0.035
-425.573	102.338	0.195	0.299
-424.559	39.640	0.237	-0.278
-423.544	-33.794	-0.300	-0.217
-422.530	-52.498	0.077	0.046
-421.515	-4.651	0.216	-0.195
-420.500	271.189	-0.118	0.273
-419.486	-27.880	0.183	-0.139
-418.471	-163.189	0.691	-0.043
-417.457	-104.672	-0.417	0.125
-416.442	-100.730	0.410	0.132
-415.428	-114.846	0.161	0.040
-414.413	-200.000	-0.003	-0.239
-413.398	-129.655	0.267	-0.048
-412.384	149.008	0.156	0.276
-411.369	-200.000	0.004	-0.263
-410.355	-200.000	0.031	-0.269
-409.340	-68.088	0.363	0.184
-408.325	-119.367	-0.250	0.057
-407.311	800.000	0.077	0.404
-406.296	437.480	0.114	-0.328
-405.282	-120.570	0.426	0.094
-404.267	47.083	0.277	-0.338
-403.252	-20.782	0.163	0.131
-402.238	-200.000	0.047	-0.507
-401.223	-34.496	0.183	-0.131
-400.209	151.522	-0.197	0.352
-399.194	800.000	0.047	0.178
-398.179	-153.689	0.312	0.028
-397.165	97.027	0.377	0.568
-396.150	-74.038	-0.218	0.103
-395.136	-42.716	0.280	0.186
-394.121	-160.896	-0.294	-0.020
-393.106	-105.063	0.203	0.060
-392.092	-23.532	-0.104	0.082
-391.077	-88.472	-0.213	-0.083
-390.063	-61.730	-0.089	0.049
-389.048	-200.000	-0.011	-0.080
-388.033	-145.978	-0.306	0.035
-387.019	800.000	0.064	0.255
-386.004	800.000	-0.098	0.449
-384.990	-82.222	0.277	0.117
-383.975	-46.715	-0.189	0.121
-382.960	37.243	-0.303	-0.352
-381.946	-101.724	0.101	-0.032
-380.931	172.823	0.071	-0.134
-379.917	-93.904	-0.517	-0.185
-378.902	-76.869	0.081	-0.037
-377.888	-200.000	-0.026	-0.329
-376.873	-200.000	-0.037	0.375
-375.858	261.877	-0.015	-0.035
-374.844	77.199	0.261	-0.364
-373.829	76.872	-0.108	-0.150
-372.815	-200.000	-0.005	-0.287
-371.800	-19.252	-0.495	0.401
-370.785	0.438	-0.158	0.147
-369.771	-25.580	-0.161	0.124
-368.756	-200.000	-0.000	-0.159
-367.742	800.000	-0.078	0.419
-366.727	682.668	0.052	0.179
-365.712	438.987	-0.045	0.129
-364.698	-99.144	-0.248	0.082
-363.683	226.135	-0.108	0.229
-362.669	57.707	-0.316	0.404
-361.654	-200.000	-0.000	0.211
-360.639	-200.000	-0.008	-0.406
-359.625	114.807	0.090	0.144
-358.610	-109.591	0.065	-0.018
-357.596	-89.584	0.271	-0.103
-356.581	-68.514	0.367	-0.185
-355.566	-63.661	-0.436	0.233
-354.552	107.626	-0.136	0.212
-353.537	-200.000	0.015	0.180
-352.523	-84.079	0.375	-0.155
-351.508	-141.563	0.257	0.034
-350.493	279.509	0.023	-0.055
-349.479	1.451	0.077	0.073
-348.464	436.786	0.042	0.120
-347.450	-42.208	-0.253	0.169
-346.435	144.017	-0.132	-0.230
-345.420	132.395	0.236	-0.399
-344.406	76.538	0.220	-0.306
-343.391	-200.000	0.044	-0.342
-342.377	-100.565	-0.510	0.164
-341.362	38.420	-0.172	0.200
-340.348	411.271	0.161	0.448
-339.333	-134.919	0.147	-0.023
-338.318	-200.000	-0.075	-0.681
-337.304	109.591	-0.513	-0.805
-336.289	-37.048	-0.375	0.262
-335.275	-200.000	0.025	-0.238
-334.260	456.483	0.044	-0.127
-333.245	103.626	0.240	-0.368
-332.231	-85.201	0.254	0.103
-331.216	17.608	0.155	-0.161
-330.202	8.369	0.155	0.152
-329.187	-200.000	0.006	0.498
-328.172	-40.450	-0.252	0.170
-327.158	-9.475	-0.204	0.177
-326.143	-166.289	-0.361	-0.020
-325.129	76.949	0.304	-0.423
-324.114	800.000	-0.052	-0.245
-323.099	786.335	0.151	-0.545
-322.085	27.690	-0.242	-0.266
-321.070	165.975	-0.160	0.297
-320.056	-81.974	-0.162	0.069
-319.041	-43.394	0.101	-0.066
-318.026	140.129	0.317	-0.547
-317.012	800.000	0.183	-0.712
-315.997	800.000	-0.117	-0.525
-314.983	-200.000	-0.037	0.317
-313.968	108.073	-0.261	0.408
-312.953	-126.222	0.177	0.034
-311.939	71.541	0.176	0.240
-310.924	24.876	0.268	-0.289
-309.910	-4.582	0.036	-0.032
-308.895	-95.635	0.081	-0.028
-307.880	436.926	0.106	-0.302
-306.866	63.636	0.483	0.634
-305.851	355.084	-0.085	-0.223
-304.837	225.972	-0.067	-0.141
-303.822	296.193	0.057	-0.136
-302.807	13.979	-0.071	-0.072
-301.793	-76.477	-0.287	0.131
-300.778	26.190	0.505	0.550
-299.764	526.018	-0.188	0.581
-298.749	-91.803	0.109	0.040
-297.735	-48.444	0.126	-0.079
-296.720	-9.031	0.331	0.289
-295.705	-117.828	0.149	0.035
-294.691	800.000	0.067	-0.381
-293.676	-12.919	0.229	0.194
-292.662	31.819	0.350	0.393
-291.647	301.334	-0.089	0.215
-290.632	91.645	0.231	0.339
-289.618	178.452	0.190	-0.364
-288.603	-142.843	-0.647	-0.081
-287.589	-149.688	0.277	-0.028
-286.574	-79.392	0.209	-0.092
-285.559	131.171	-0.056	-0.095
-284.545	-61.143	0.452	0.248
-283.530	-167.097	0.120	0.006
-282.516	-132.647	-0.287	-0.047
-281.501	50.545	0.225	-0.278
-280.486	-77.548	-0.153	-0.069
-279.472	-140.106	-0.367	-0.050
-278.457	-200.000	-0.003	-0.168
-277.443	800.000	0.036	0.163
-276.428	-73.250	0.035	-0.017
-275.413	-127.576	0.290	-0.054
-274.399	133.654	0.154	-0.260
-273.384	-99.000	-0.296	0.097
-272.370	-13.890	-0.220	-0.185
-271.355	-62.184	0.384	-0.208
-270.340	800.000	-0.053	0.245
-269.326	21.894	-0.301	-0.319
-268.311	-20.312	0.357	0.286
-267.297	-73.175	0.342	0.163
-266.282	-145.348	0.277	-0.032
-265.267	282.417	-0.127	0.298
-264.253	46.223	0.335	0.404
-263.238	800.000	-0.089	0.499
-262.224	-150.731	-0.218	-0.021
-261.209	-200.000	-0.020	-0.261
-260.195	159.280	0.137	-0.248
-259.180	0.047	-0.233	-0.216
-258.165	457.967	-0.121	-0.352
-257.151	800.000	0.039	0.151
-256.136	-142.584	0.524	0.066
-255.122	-108.664	0.412	0.114
-254.107	-96.520	0.527	-0.180
-253.092	-84.996	0.376	-0.153
-252.078	723.953	-0.179	-0.625
-251.063	800.000	0.084	-0.431
-250.049	-177.228	0.282	-0.009
-249.034	-155.295	0.341	-0.028
-248.019	800.000	-0.090	0.377
-247.005	-27.783	0.194	-0.146
-245.990	-62.741	-0.536	0.288
-244.976	-13.095	-0.154	0.130
-243.961	-57.277	-0.297	0.170
-242.946	-99.169	0.475	0.156
-241.932	-64.575	-0.052	-0.028
-240.917	800.000	0.105	-0.591
-239.903	114.101	-0.143	-0.227
-238.888	-100.802	-0.426	-0.136
-237.873	800.000	0.076	0.382
-236.859	-200.000	0.010	0.194
-235.844	-100.999	-0.198	0.063
-234.830	-200.000	-0.076	0.688
-233.815	800.000	0.095	0.410
-232.800	-8.306	0.429	0.375
-231.786	-144.302	-0.207	0.025
-230.771	-200.000	-0.039	0.256
-229.757	-33.490	0.052	-0.038
-228.742	-200.000	-0.003	0.151
-227.727	800.000	-0.091	-0.415
-226.713	-72.926	0.256	0.122
-225.698	-98.912	-0.030	0.010
-224.684	23.470	0.150	0.161
-223.669	-133.695	-0.372	0.060
-222.655	474.906	-0.080	-0.235
-221.640	-123.822	0.479	-0.098
-220.625	51.320	0.170	-0.210
-219.611	-70.537	0.074	0.036
-218.596	-200.000	-0.054	-0.434
-217.582	-120.129	-0.236	0.052
-216.567	18.749	0.205	0.213
-215.552	800.000	0.034	-0.135
-214.538	-14.307	-0.277	-0.232
-213.523	42.044	-0.038	0.045
-212.509	259.628	-0.077	0.175
-211.494	-55.408	-0.318	0.185
-210.479	93.290	-0.146	-0.215
-209.465	-13.451	0.249	-0.209
-208.450	-200.000	-0.040	-0.296
-207.436	85.596	-0.223	0.318
-206.421	81.819	0.089	0.126
-205.406	29.612	-0.165	-0.183
-204.392	199.528	0.070	-0.141
-203.377	-98.702	-0.026	-0.008
-202.363	24.347	-0.301	-0.323
-201.348	540.650	-0.106	-0.329
-200.333	800.000	-0.026	-0.103
-199.319	111.252	0.187	-0.294
-198.304	-64.403	-0.232	0.122
-197.290	43.730	0.343	-0.408
-196.275	-64.495	0.409	0.215
-195.260	29.448	0.163	0.180
-194.246	-200.000	0.005	-0.188
-193.231	-200.000	0.026	-0.301
-192.217	-120.716	-0.023	0.005
-191.202	-167.487	-0.350	0.018
-190.187	27.743	-0.251	0.275
-189.173	-27.393	0.222	0.168
-188.158	-123.937	-0.134	-0.027
-187.144	-112.471	0.323	-0.083
-186.129	-69.569	-0.279	-0.138
-185.114	-5.329	0.092	0.082
-184.100	90.907	0.293	0.428
-183.085	-167.177	0.266	0.014
-182.071	800.000	-0.111	-0.484
-181.056	56.536	-0.262	-0.331
-180.042	-200.000	0.018	-0.341
-179.027	-200.000	-0.012	-0.534
-178.012	67.563	0.069	-0.092
-176.998	800.000	-0.156	0.717
-175.983	-115.786	-0.445	-0.107
-174.969	-59.611	-0.260	-0.144
-173.954	-105.465	-0.087	0.026
-172.939	-146.836	-0.199	0.022
-171.925	-76.302	0.367	0.167
-170.910	-86.101	0.143	-0.057
-169.896	3.155	0.036	0.034
-168.881	33.362	-0.219	-0.246
-167.866	-12.803	-0.238	0.201
-166.852	37.198	-0.185	-0.213
-165.837	166.855	-0.139	-0.257
-164.823	-175.272	0.238	0.008
-163.808	-5.083	-0.210	0.187
-162.793	-157.706	-0.600	0.046
-161.779	-151.132	-0.166	-0.016
-160.764	344.806	0.066	0.168
-159.750	800.000	0.053	-0.270
-158.735	-200.000	-0.026	0.252
-157.720	502.743	-0.114	-0.344
-156.706	-200.000	-0.067	0.560
-155.691	-164.137	0.132	0.008
-154.677	1.379	-0.124	-0.116
-153.662	485.079	-0.134	-0.397
-152.647	161.493	-0.104	-0.190
-151.633	261.107	-0.064	-0.145
-150.618	-129.154	-0.257	-0.046
-149.604	-200.000	-0.008	0.235
-148.589	-151.019	-0.501	0.048
-147.574	266.040	-0.018	0.041
-146.560	-168.455	0.432	-0.021
-145.545	-200.000	-0.208	-0.000
-144.531	369.205	-0.144	-0.380
-143.516	800.000	-0.059	-0.266
-142.502	-2.641	-0.107	-0.097
-141.487	800.000	-0.018	-0.076
-140.472	-8.473	0.126	-0.109
-139.458	27.577	-0.104	0.114
-138.443	-200.000	-0.021	-0.379
-137.429	-10.782	-0.170	-0.146
-136.414	-163.992	0.434	-0.026
-135.399	-77.183	0.221	-0.099
-134.385	-37.867	0.431	0.296
-133.370	-173.772	0.131	0.005
-132.356	520.493	-0.035	-0.108
-131.341	249.095	-0.246	0.543
-130.326	183.697	-0.119	0.228
-129.312	-55.331	0.547	-0.318
-128.297	-88.214	-0.045	0.017
-127.283	-97.979	-0.139	0.046
-126.268	-164.575	-0.297	-0.017
-125.253	164.632	0.098	-0.179
-124.239	-200.000	-0.017	0.339
-123.224	75.728	-0.335	-0.459
-122.210	-146.618	0.279	-0.031
