DTS Sentinel unit serial number:	SN409020Multiplexer serial number:	ORYXHardware model number:	OX4-SRSoftware version number:	ORYX F/W v3.00 Oryx Data Collector v3.7.2.0data status	okinstallation	HaddamTimeLapsedifferential loss correction	single-endedforward channel	channel 3reverse channel	N/Adate	2011/06/21time	13:51:17forward acquisition time	30.00reverse acquisition time	0.00gamma	498.7831k internal	0.1812k external	0.1812temperature offset calibration	1.0074default loss term (dB/km)	0.3790temperature slope calibration	1.3530multiplexer offset coefficient	1.0000multiplexer slope coefficient	1.0000fibre end	0.00T internal ref (°C)	36.09T ext. ref 1 (°C)	31.82T ext. ref 2 (°C)	0.24length (m)	temperature (°C)	Stokes	anti-Stokes-747.200	13.652	-0.316	0.315
-746.185	34.580	0.426	0.478
-745.171	-37.100	-0.260	-0.178
-744.156	188.036	-0.222	0.426
-743.142	-138.131	0.027	0.004
-742.127	207.058	-0.108	0.216
-741.112	179.987	-0.325	-0.614
-740.098	72.830	-0.383	0.514
-739.083	-200.000	0.019	-0.334
-738.069	-200.000	0.025	-0.357
-737.054	47.030	0.116	0.139
-736.039	-126.501	-0.365	-0.069
-735.025	348.838	0.043	-0.110
-734.010	566.269	0.110	0.345
-732.996	800.000	-0.108	-0.557
-731.981	-197.112	-0.107	-0.001
-730.966	-29.023	0.442	-0.325
-729.952	-200.000	-0.024	-0.542
-728.937	21.283	0.299	-0.311
-727.923	-97.151	0.517	0.172
-726.908	800.000	-0.045	-0.206
-725.894	0.298	-0.093	0.085
-724.879	4.643	0.104	0.098
-723.864	-110.727	-0.461	-0.121
-722.850	-102.773	0.391	-0.119
-721.835	-200.000	-0.005	-0.209
-720.821	5.909	-0.419	-0.397
-719.806	46.309	-0.237	-0.282
-718.791	800.000	-0.030	-0.153
-717.777	-74.256	0.161	0.074
-716.762	-4.694	-0.221	0.195
-715.748	-200.000	-0.071	-0.431
-714.733	-49.984	-0.144	-0.087
-713.718	-154.458	0.227	0.019
-712.704	151.248	0.049	-0.086
-711.689	-77.374	0.519	-0.230
-710.675	-39.363	0.060	0.040
-709.660	462.847	-0.011	0.032
-708.645	-39.463	0.340	0.228
-707.631	203.451	0.224	0.445
-706.616	800.000	-0.090	0.360
-705.602	158.363	-0.185	0.330
-704.587	-144.988	-0.607	-0.070
-703.572	-189.426	0.272	-0.004
-702.558	-200.000	0.029	-0.283
-701.543	-22.756	-0.247	-0.191
-700.529	462.885	0.058	-0.167
-699.514	39.585	-0.212	-0.244
-698.499	-53.408	-0.047	-0.027
-697.485	800.000	0.141	-0.509
-696.470	-44.249	0.208	-0.133
-695.456	362.508	0.102	-0.263
-694.441	-6.857	-0.127	-0.111
-693.426	800.000	0.057	-0.304
-692.412	43.626	0.319	0.374
-691.397	-200.000	0.010	-0.358
-690.383	-124.688	-0.272	0.054
-689.368	-42.266	0.288	-0.188
-688.354	-27.845	-0.387	-0.287
-687.339	800.000	-0.076	0.288
-686.324	457.966	-0.083	0.237
-685.310	-19.234	-0.218	0.173
-684.295	57.445	-0.322	0.403
-683.281	612.542	0.071	0.229
-682.266	123.268	-0.293	0.472
-681.251	769.701	0.044	0.155
-680.237	275.831	-0.172	0.392
-679.222	-65.547	0.142	0.073
-678.208	39.181	-0.561	0.643
-677.193	625.411	-0.289	0.938
-676.178	-200.000	0.004	0.464
-675.164	-23.885	0.313	0.239
-674.149	44.172	-0.107	-0.125
-673.135	-93.550	0.168	-0.059
-672.120	20.088	-0.384	-0.397
-671.105	-17.350	0.043	-0.034
-670.091	299.129	-0.262	0.620
-669.076	71.948	-0.071	0.095
-668.062	-106.553	0.368	0.104
-667.047	-200.000	0.019	0.413
-666.032	-168.364	0.119	0.006
-665.018	-181.664	-0.488	0.012
-664.003	-89.291	-0.247	-0.093
-662.989	5.752	0.161	0.152
-661.974	-200.000	0.007	-0.164
-660.959	-37.245	0.357	-0.244
-659.945	-48.302	-0.214	-0.132
-658.930	-113.773	0.301	-0.074
-657.916	269.144	-0.136	0.307
-656.901	-38.399	0.149	0.101
-655.886	-120.128	-0.212	-0.046
-654.872	413.728	-0.042	0.116
-653.857	166.250	0.111	-0.201
-652.843	250.531	-0.138	-0.301
-651.828	-14.784	0.211	0.173
-650.814	-162.536	0.116	0.007
-649.799	-164.563	-0.349	0.020
-648.784	-55.297	0.255	-0.146
-647.770	93.018	-0.315	0.455
-646.755	-16.731	-0.241	0.195
-645.741	48.671	-0.209	0.251
-644.726	-27.968	-0.196	-0.145
-643.711	-32.973	-0.087	-0.061
-642.697	138.519	0.232	0.390
-641.682	27.975	-0.311	0.335
-640.668	-92.895	-0.232	-0.082
-639.653	13.321	-0.064	-0.063
-638.638	-200.000	-0.087	-0.502
-637.624	-200.000	-0.045	-0.308
-636.609	72.533	-0.251	-0.335
-635.595	800.000	-0.127	-0.597
-634.580	313.714	0.036	0.086
-633.565	-36.643	-0.319	0.218
-632.551	11.457	0.146	-0.143
-631.536	-147.986	0.126	0.013
-630.522	800.000	0.057	-0.256
-629.507	-200.000	0.078	0.536
-628.492	800.000	0.080	-0.396
-627.478	99.890	0.133	-0.198
-626.463	-12.503	0.132	-0.110
-625.449	-159.954	0.225	0.015
-624.434	7.523	-0.023	0.022
-623.419	90.576	-0.119	0.170
-622.405	-117.964	0.331	0.075
-621.390	-42.716	0.440	0.285
-620.376	100.636	-0.195	0.290
-619.361	-200.000	-0.006	0.070
-618.346	-200.000	-0.471	-0.003
-617.332	308.774	-0.240	-0.575
-616.317	-5.830	-0.123	-0.108
-615.303	-59.801	-0.128	0.070
-614.288	-200.000	-0.008	0.338
-613.273	4.542	0.045	-0.042
-612.259	-140.378	0.493	0.065
-611.244	800.000	-0.126	-0.617
-610.230	-100.527	-0.511	-0.160
-609.215	-200.000	0.014	0.078
-608.201	271.850	0.126	-0.285
-607.186	96.727	0.235	0.345
-606.171	-47.970	0.069	-0.043
-605.157	123.899	-0.124	-0.199
-604.142	-132.913	0.256	0.041
-603.128	-9.860	0.375	0.318
-602.113	-64.498	-0.286	0.148
-601.098	792.757	0.137	0.484
-600.084	-86.566	-0.127	0.049
-599.069	102.193	-0.320	-0.478
-598.055	-167.316	-0.087	0.004
-597.040	-139.712	0.340	-0.046
-596.025	291.030	-0.236	-0.549
-595.011	-17.673	-0.208	0.166
-593.996	192.589	-0.093	0.180
-592.982	-19.852	-0.174	0.137
-591.967	362.575	-0.036	0.092
-590.952	112.635	0.241	-0.373
-589.938	317.111	0.086	-0.207
-588.923	13.398	-0.497	0.492
-587.909	-90.477	-0.169	0.062
-586.894	-72.494	-0.276	-0.130
-585.879	1.390	0.104	-0.095
-584.865	-158.916	0.341	0.024
-583.850	-162.137	-0.322	-0.020
-582.836	-79.069	-0.378	0.163
-581.821	737.001	0.087	-0.298
-580.806	-140.696	-0.387	-0.051
-579.792	-200.000	0.020	-0.436
-578.777	222.904	-0.156	-0.322
-577.763	-146.939	0.181	0.020
-576.748	-200.000	-0.012	-0.305
-575.733	-7.737	0.163	0.140
-574.719	800.000	0.022	-0.116
-573.704	-200.000	-0.023	-0.217
-572.690	-50.723	-0.057	0.034
-571.675	-47.829	0.115	0.071
-570.661	182.391	0.124	0.233
-569.646	-200.000	0.076	-0.539
-568.631	286.047	0.143	-0.331
-567.617	18.499	-0.255	0.260
-566.602	65.484	0.141	0.182
-565.588	-171.002	-0.096	0.004
-564.573	464.689	-0.113	-0.325
-563.558	-126.863	0.676	0.126
-562.544	559.825	0.009	0.028
-561.529	-23.371	0.099	-0.076
-560.515	-61.280	-0.313	-0.167
-559.500	461.792	-0.130	-0.370
-558.485	718.976	0.060	-0.203
-557.471	-107.722	0.320	0.088
-556.456	-172.855	0.423	-0.016
-555.442	-200.000	0.040	0.581
-554.427	-17.193	-0.571	0.458
-553.412	-200.000	-0.095	-0.560
-552.398	-200.000	-0.003	0.148
-551.383	20.060	0.180	0.185
-550.369	-113.795	-0.167	-0.041
-549.354	127.125	-0.187	-0.303
-548.339	-140.049	-0.336	-0.045
-547.325	63.763	0.103	-0.132
-546.310	-139.370	-0.138	0.019
-545.296	-81.313	-0.346	-0.145
-544.281	-173.311	-0.195	0.007
-543.266	-200.000	-0.052	0.402
-542.252	-69.281	-0.334	0.163
-541.237	-200.000	-0.001	-0.039
-540.223	800.000	0.002	0.009
-539.208	-69.495	-0.402	-0.195
-538.193	322.193	-0.172	-0.420
-537.179	-127.028	0.139	0.026
-536.164	-200.000	0.048	0.329
-535.150	138.211	0.089	-0.148
-534.135	297.900	0.217	-0.511
-533.121	-200.000	-0.030	-0.438
-532.106	5.147	0.022	0.020
-531.091	-115.595	-0.572	0.136
-530.077	76.606	-0.279	-0.377
-529.062	139.983	-0.020	-0.034
-528.048	162.852	-0.277	0.496
-527.033	-99.808	-0.120	0.038
-526.018	47.183	0.144	0.170
-525.004	-71.978	0.090	-0.043
-523.989	-50.183	0.098	0.059
-522.975	-64.250	0.102	-0.053
-521.960	-165.835	-0.345	-0.019
-520.945	61.583	-0.132	-0.167
-519.931	-122.312	0.301	-0.062
-518.916	800.000	-0.091	0.333
-517.902	-101.151	-0.249	-0.077
-516.887	-200.000	-0.001	0.301
-515.872	21.845	-0.214	0.222
-514.858	-29.161	-0.318	-0.231
-513.843	226.992	0.028	-0.057
-512.829	0.657	-0.053	0.048
-511.814	-200.000	0.048	0.397
-510.799	-49.007	0.559	-0.339
-509.785	-24.366	0.186	0.141
-508.770	-70.962	-0.165	0.079
-507.756	-114.209	-0.097	-0.024
-506.741	190.475	-0.118	-0.226
-505.726	242.523	0.118	0.252
-504.712	186.702	0.152	-0.288
-503.697	-200.000	-0.023	-0.207
-502.683	-103.036	-0.027	-0.008
-501.668	133.439	0.142	-0.235
-500.653	37.409	0.223	-0.251
-499.639	53.369	-0.483	-0.589
-498.624	4.347	0.510	-0.475
-497.610	-120.723	0.660	0.141
-496.595	-67.850	-0.619	0.306
-495.581	101.650	-0.290	0.431
-494.566	-7.712	-0.012	0.010
-493.551	-110.293	0.217	-0.057
-492.537	-53.154	0.250	-0.145
-491.522	60.530	0.044	-0.056
-490.508	123.585	0.072	-0.115
-489.493	285.826	-0.099	-0.229
-488.478	655.892	-0.016	0.053
-487.464	800.000	0.041	0.226
-486.449	-200.000	0.002	-0.096
-485.435	106.617	0.109	-0.165
-484.420	-4.300	-0.209	-0.184
-483.405	-145.476	-0.330	-0.037
-482.391	-61.828	0.640	-0.339
-481.376	800.000	-0.084	-0.355
-480.362	-132.902	-0.344	-0.055
-479.347	-0.799	0.105	-0.095
-478.332	214.463	0.084	-0.169
-477.318	-90.144	0.346	-0.127
-476.303	570.555	0.054	-0.168
-475.289	-52.410	-0.227	0.133
-474.274	175.543	0.154	0.284
-473.259	320.128	0.131	0.317
-472.245	800.000	-0.036	0.161
-471.230	23.524	-0.090	-0.094
-470.216	299.955	0.158	0.372
-469.201	800.000	-0.039	0.153
-468.186	-13.455	0.181	0.149
-467.172	400.889	-0.135	-0.361
-466.157	-182.767	0.250	-0.006
-465.143	800.000	-0.158	0.612
-464.128	-72.567	0.258	-0.121
-463.113	-122.543	0.124	0.025
-462.099	-60.821	0.110	-0.059
-461.084	342.416	-0.117	-0.292
-460.070	-135.564	0.195	0.029
-459.055	-36.823	0.095	0.065
-458.040	-14.477	-0.316	-0.258
-457.026	800.000	-0.049	-0.248
-456.011	-48.945	0.279	0.169
-454.997	-66.747	0.571	0.286
-453.982	-142.161	-0.170	-0.021
-452.968	-200.000	0.017	-0.392
-451.953	-4.422	-0.453	-0.397
-450.938	-76.111	0.173	0.077
-449.924	248.222	0.310	0.668
-448.909	-109.939	0.371	-0.098
-447.895	-66.808	0.480	-0.240
-446.880	-132.679	0.289	-0.046
-445.865	-47.430	0.427	-0.262
-444.851	-200.000	0.019	-0.219
-443.836	13.239	-0.067	0.066
-442.822	131.523	-0.042	-0.068
-441.807	-112.778	-0.173	-0.043
-440.792	-78.795	0.278	0.120
-439.778	-90.595	0.342	0.125
-438.763	244.291	0.084	0.180
-437.749	-131.187	0.248	0.041
-436.734	128.061	0.197	0.318
-435.719	274.557	-0.115	-0.259
-434.705	-92.041	0.163	0.058
-433.690	193.378	-0.098	0.188
-432.676	-200.000	0.017	-0.457
-431.661	-60.025	0.105	-0.057
-430.646	-53.342	-0.209	-0.121
-429.632	71.506	-0.275	-0.363
-428.617	-9.978	-0.268	0.226
-427.603	447.420	0.139	-0.390
-426.588	-73.298	-0.169	0.078
-425.573	-27.471	-0.313	0.230
-424.559	369.311	-0.178	0.459
-423.544	31.809	0.199	-0.217
-422.530	482.096	-0.172	-0.498
-421.515	130.192	-0.282	0.459
-420.500	-200.000	-0.055	0.343
-419.486	-129.265	-0.210	0.037
-418.471	-99.562	-0.308	0.097
-417.457	-6.407	0.281	0.242
-416.442	-6.889	0.157	0.135
-415.428	203.357	0.275	0.541
-414.413	-0.195	0.115	-0.103
-413.398	-0.953	-0.173	0.155
-412.384	244.932	0.293	-0.627
-411.369	81.408	0.161	0.221
-410.355	-200.000	-0.010	0.171
-409.340	-155.418	-0.037	-0.003
-408.325	55.338	-0.344	0.422
-407.311	-131.487	-0.250	0.041
-406.296	-62.514	0.406	0.213
-405.282	11.733	-0.112	0.109
-404.267	14.745	-0.188	0.186
-403.252	-53.242	-0.429	-0.249
-402.238	-68.830	-0.050	-0.024
-401.223	-24.871	0.150	0.113
-400.209	-84.612	0.420	0.167
-399.194	-104.376	-0.614	0.179
-398.179	-2.672	-0.387	-0.342
-397.165	21.192	-0.072	-0.074
-396.150	96.147	-0.077	-0.112
-395.136	325.806	-0.124	0.301
-394.121	-164.218	-0.456	0.026
-393.106	-10.339	0.179	0.150
-392.092	-130.768	0.198	-0.033
-391.077	-5.036	-0.353	-0.308
-390.063	-72.684	-0.265	0.123
-389.048	-57.341	0.250	0.139
-388.033	206.883	0.184	-0.364
-387.019	800.000	-0.097	0.409
-386.004	22.941	0.025	0.026
-384.990	197.970	-0.250	-0.485
-383.975	-64.362	0.087	0.045
-382.960	-86.889	0.495	0.190
-381.946	-88.946	0.163	0.061
-380.931	-51.978	0.159	0.093
-379.917	560.917	-0.070	0.216
-378.902	-168.730	-0.371	-0.017
-377.888	523.553	0.046	-0.139
-376.873	-26.194	-0.361	-0.268
-375.858	13.770	0.147	0.144
-374.844	-167.805	0.187	0.009
-373.829	-21.836	0.194	-0.149
-372.815	-159.724	-0.319	-0.022
-371.800	-150.665	0.467	-0.044
-370.785	-24.258	-0.120	0.091
-369.771	-73.661	0.019	-0.009
-368.756	-35.895	-0.117	-0.080
-367.742	351.461	-0.042	0.105
-366.727	-122.969	0.331	-0.067
-365.712	-137.495	-0.144	-0.020
-364.698	-31.754	-0.192	-0.136
-363.683	-80.627	-0.161	-0.068
-362.669	-104.828	-0.377	-0.109
-361.654	22.190	0.208	-0.215
-360.639	800.000	0.060	0.261
-359.625	201.531	0.130	-0.254
-358.610	-12.797	0.392	0.322
-357.596	-71.179	0.382	0.180
-356.581	-114.709	-0.296	0.071
-355.566	-171.541	0.144	-0.006
-354.552	154.475	0.146	0.255
-353.537	-89.765	-0.241	0.089
-352.523	-200.000	0.016	-0.315
-351.508	501.178	0.159	-0.468
-350.493	132.096	-0.104	-0.170
-349.479	-121.985	0.171	-0.035
-348.464	-153.823	-0.146	0.012
-347.450	164.465	-0.067	-0.119
-346.435	-174.325	0.327	-0.012
-345.420	605.351	-0.008	-0.025
-344.406	-159.439	-0.486	-0.034
-343.391	-150.356	0.187	0.018
-342.377	-38.647	0.159	-0.106
-341.362	33.956	-0.322	0.355
-340.348	92.393	-0.190	0.271
-339.333	-90.949	0.526	0.190
-338.318	-118.977	0.085	0.019
-337.304	800.000	0.047	0.251
-336.289	-52.182	0.232	-0.135
-335.275	-83.332	-0.442	0.178
-334.260	174.620	0.050	0.092
-333.245	-200.000	-0.008	-0.145
-332.231	294.475	-0.160	0.371
-331.216	-91.784	-0.195	-0.070
-330.202	130.239	-0.129	0.208
-329.187	-200.000	0.056	0.361
-328.172	-200.000	0.056	-0.386
-327.158	-15.473	-0.175	0.141
-326.143	-140.826	0.360	-0.046
-325.129	-40.461	-0.282	0.184
-324.114	78.109	0.024	-0.033
-323.099	-73.332	-0.437	0.201
-322.085	-181.764	-0.359	0.009
-321.070	627.707	-0.104	-0.334
-320.056	-38.673	0.272	-0.181
-319.041	-18.455	0.160	0.126
-318.026	800.000	-0.075	0.358
-317.012	-101.625	0.315	-0.096
-315.997	-66.303	-0.163	0.081
-314.983	-157.821	0.178	-0.013
-313.968	40.956	0.231	0.263
-312.953	-12.492	-0.099	-0.082
-311.939	175.776	0.112	-0.206
-310.924	64.409	0.309	-0.393
-309.910	37.507	-0.241	-0.270
-308.895	-135.761	-0.420	-0.062
-307.880	201.841	0.239	0.467
-306.866	73.120	0.201	-0.266
-305.851	-32.047	-0.204	0.144
-304.837	-115.744	0.159	0.037
-303.822	18.343	-0.201	0.202
-302.807	-95.372	0.199	-0.067
-301.793	-65.810	0.099	-0.050
-300.778	-190.253	-0.242	-0.003
-299.764	800.000	0.139	-0.540
-298.749	86.242	-0.136	-0.190
-297.735	-81.941	-0.167	0.068
-296.720	-23.417	0.136	-0.103
-295.705	80.118	0.392	0.532
-294.691	86.800	-0.178	-0.248
-293.676	-55.095	0.686	-0.388
-292.662	587.782	0.069	-0.215
-291.647	-129.048	-0.164	-0.029
-290.632	60.755	0.210	-0.262
-289.618	362.319	-0.076	0.193
-288.603	196.007	0.297	0.572
-287.589	56.915	0.342	0.421
-286.574	-6.167	0.406	0.349
-285.559	51.441	-0.162	0.194
-284.545	800.000	-0.046	0.184
-283.530	-69.237	-0.329	-0.159
-282.516	657.654	0.070	0.228
-281.501	54.255	0.237	-0.288
-280.486	-102.670	0.153	-0.046
-279.472	-38.143	-0.341	-0.227
-278.457	-43.888	-0.226	0.143
-277.443	-200.000	-0.053	0.357
-276.428	42.761	0.185	-0.212
-275.413	-5.121	0.553	-0.479
-274.399	-170.320	0.272	0.012
-273.384	-88.725	0.522	0.194
-272.370	-200.000	0.007	0.064
-271.355	-52.101	-0.316	0.184
-270.340	800.000	0.076	0.407
-269.326	-70.996	-0.783	0.370
-268.311	65.028	-0.269	-0.343
-267.297	-54.110	-0.162	0.092
-266.282	40.632	-0.227	0.258
-265.267	-112.878	0.277	-0.069
-264.253	-200.000	-0.037	-0.222
-263.238	-130.359	0.173	-0.029
-262.224	-75.716	0.330	0.147
-261.209	-200.000	-0.033	-0.339
-260.195	-42.559	-0.122	0.078
-259.180	-109.241	0.128	-0.034
-258.165	-85.689	-0.348	-0.136
-257.151	125.590	0.125	0.199
-256.136	-7.640	0.224	-0.190
-255.122	-200.000	-0.063	0.644
-254.107	-200.000	-0.025	-0.421
-253.092	800.000	-0.078	-0.376
-252.078	12.233	-0.312	0.302
-251.063	49.846	0.205	0.244
-250.049	-62.839	0.256	0.133
-249.034	3.729	0.157	-0.144
-248.019	230.651	-0.159	0.329
-247.005	7.814	-0.488	0.460
-245.990	95.590	-0.087	0.125
-244.976	-117.791	-0.342	-0.077
-243.961	-18.771	0.240	0.188
-242.946	228.588	0.147	0.302
-241.932	-84.903	0.150	0.059
-240.917	-85.832	0.371	-0.144
-239.903	-59.238	0.305	0.165
-238.888	-118.579	-0.222	0.049
-237.873	-103.373	0.145	0.043
-236.859	31.142	0.517	0.559
-235.844	-93.529	0.548	0.190
-234.830	690.775	0.259	0.857
-233.815	-52.298	-0.069	0.040
-232.800	0.461	-0.029	0.026
-231.786	-34.068	-0.270	0.186
-230.771	-28.708	-0.449	-0.325
-229.757	-135.934	0.312	-0.046
-228.742	-87.481	0.439	0.166
-227.727	-9.220	0.116	0.098
-226.713	-200.000	-0.081	0.511
-225.698	490.291	-0.096	-0.278
-224.684	-34.610	-0.064	0.044
-223.669	-160.754	-0.253	-0.017
-222.655	-200.000	0.018	-0.170
-221.640	-25.636	0.134	-0.099
-220.625	-96.873	-0.654	0.215
-219.611	63.808	-0.377	0.477
-218.596	-57.118	0.146	-0.081
-217.582	-200.000	-0.372	0.001
-216.567	-200.000	-0.054	-0.337
-215.552	445.211	-0.110	0.304
-214.538	800.000	-0.019	0.095
-213.523	-45.557	0.563	-0.349
-212.509	72.093	-0.311	-0.407
-211.494	-39.065	-0.541	-0.357
-210.479	-183.995	-0.225	-0.005
-209.465	190.836	0.058	-0.110
-208.450	-90.421	0.529	-0.192
-207.436	-161.224	-0.115	-0.007
-206.421	486.233	-0.206	-0.594
-205.406	-181.455	0.266	-0.006
-204.392	-200.000	-0.047	0.265
-203.377	-123.268	-0.117	-0.023
-202.363	52.907	0.149	-0.179
-201.348	314.325	0.278	-0.660
-200.333	-28.970	-0.198	0.142
-199.319	-164.273	-0.507	0.029
-198.304	350.987	0.084	0.209
-197.290	25.845	0.521	0.546
-196.275	293.212	0.081	0.186
-195.260	-148.787	-0.249	-0.025
-194.246	-73.052	0.423	0.194
-193.231	73.956	0.090	-0.119
-192.217	-107.677	-0.276	0.075
-191.202	363.885	0.064	-0.161
-190.187	427.898	0.075	-0.203
-189.173	-26.223	-0.082	-0.060
-188.158	-39.345	-0.222	0.146
-187.144	-91.576	-0.252	-0.090
-186.129	-73.349	0.016	0.007
-185.114	-21.983	-0.246	-0.187
-184.100	-25.316	-0.274	0.203
-183.085	-1.387	-0.140	0.124
-182.071	-55.452	0.356	-0.200
-181.056	-51.535	0.329	0.192
-180.042	800.000	0.049	0.196
-179.027	-168.683	0.369	-0.017
-178.012	638.221	-0.170	0.547
-176.998	800.000	0.056	0.253
-175.983	25.470	0.348	0.363
-174.969	-200.000	-0.048	0.296
-173.954	-200.000	0.119	-0.001
-172.939	-119.131	-0.307	0.067
-171.925	-200.000	-0.026	-0.207
-170.910	114.798	-0.203	-0.311
-169.896	425.565	-0.065	-0.176
-168.881	209.627	0.079	-0.155
-167.866	-28.671	0.194	0.140
-166.852	39.721	0.040	-0.045
-165.837	-195.297	-0.130	-0.001
-164.823	15.206	0.465	-0.457
-163.808	-200.000	-0.018	-0.172
-162.793	252.453	-0.009	-0.018
-161.779	214.749	-0.159	0.318
-160.764	800.000	0.140	-0.496
-159.750	-56.862	0.127	0.070
-158.735	21.973	0.222	-0.227
-157.720	-65.673	0.437	-0.219
-156.706	44.031	0.187	0.215
-155.691	-200.000	0.034	-0.303
-154.677	-102.750	0.382	-0.113
-153.662	-127.614	0.211	-0.038
-152.647	597.248	-0.127	0.396
-151.633	-76.829	-0.442	-0.193
-150.618	-100.758	-0.143	-0.044
-149.604	-94.879	0.286	-0.097
-148.589	-83.712	-0.208	0.083
-147.574	-200.000	0.013	-0.104
-146.560	-40.701	-0.159	-0.103
-145.545	-110.096	0.328	-0.085
-144.531	109.179	-0.051	-0.076
-143.516	35.237	0.208	-0.228
-142.502	-18.578	-0.064	-0.050
-141.487	800.000	-0.086	-0.454
-140.472	800.000	-0.097	-0.483
-139.458	-135.584	-0.088	-0.013
-138.443	-55.316	0.445	0.250
-137.429	-200.000	0.003	-0.168
-136.414	-133.616	0.083	-0.013
-135.399	261.475	-0.089	-0.193
-134.385	112.748	-0.239	0.364
-133.370	-200.000	-0.008	0.302
-132.356	-76.539	0.478	0.209
-131.341	-67.744	0.039	-0.019
-130.326	-126.398	-0.239	0.044
-129.312	-104.011	0.378	-0.110
-128.297	-94.565	-0.069	-0.023
-127.283	74.338	0.122	0.161
-126.268	28.835	-0.775	-0.823
-125.253	800.000	0.020	0.081
-124.239	-73.652	0.491	0.223
-123.224	47.645	0.263	0.307
-122.210	46.112	-0.036	-0.042
-121.195	73.023	0.128	0.167
