DTS Sentinel unit serial number:	SN409020Multiplexer serial number:	ORYXHardware model number:	OX4-SRSoftware version number:	ORYX F/W v3.00 Oryx Data Collector v3.7.2.0data status	okinstallation	HaddamTimeLapsedifferential loss correction	single-endedforward channel	channel 3reverse channel	N/Adate	2011/06/21time	15:26:17forward acquisition time	30.00reverse acquisition time	0.00gamma	498.7831k internal	0.1815k external	0.1815temperature offset calibration	1.0074default loss term (dB/km)	0.3790temperature slope calibration	1.3530multiplexer offset coefficient	1.0000multiplexer slope coefficient	1.0000fibre end	0.00T internal ref (°C)	37.81T ext. ref 1 (°C)	28.25T ext. ref 2 (°C)	0.25length (m)	temperature (°C)	Stokes	anti-Stokes-747.200	-63.909	-0.226	0.118
-746.185	-200.000	0.108	0.800
-745.171	-64.034	0.615	-0.321
-744.156	-28.590	-0.155	0.114
-743.142	-200.000	0.060	-0.420
-742.127	396.238	-0.034	0.092
-741.112	-89.454	-0.449	-0.168
-740.098	-31.192	-0.133	-0.096
-739.083	-200.000	0.052	-0.307
-738.069	-113.368	0.272	-0.068
-737.054	463.987	0.127	0.364
-736.039	592.909	-0.153	0.487
-735.025	800.000	-0.035	-0.169
-734.010	547.709	0.083	0.257
-732.996	56.629	0.093	0.116
-731.981	195.921	-0.124	-0.241
-730.966	-200.000	0.064	0.461
-729.952	-80.894	0.017	-0.007
-728.937	-81.747	0.305	0.127
-727.923	95.390	-0.068	-0.100
-726.908	6.635	-0.408	-0.389
-725.894	2.555	-0.120	-0.111
-724.879	-200.000	-0.094	0.692
-723.864	-200.000	-0.023	-0.233
-722.850	-200.000	0.016	0.209
-721.835	-158.031	-0.121	-0.009
-720.821	31.844	0.173	-0.190
-719.806	-200.000	0.044	0.365
-718.791	4.063	0.086	-0.080
-717.777	153.871	0.137	-0.240
-716.762	165.832	-0.094	0.170
-715.748	-70.597	-0.224	-0.108
-714.733	280.852	-0.081	-0.186
-713.718	-100.995	-0.164	0.051
-712.704	100.951	0.079	-0.118
-711.689	-76.629	0.400	-0.179
-710.675	254.016	-0.162	-0.355
-709.660	-57.732	0.629	-0.351
-708.645	-16.120	0.098	0.080
-707.631	-137.112	-0.260	0.038
-706.616	-140.220	-0.526	-0.070
-705.602	45.329	-0.327	-0.386
-704.587	122.224	0.106	-0.170
-703.572	730.952	-0.117	-0.404
-702.558	-79.233	0.421	0.182
-701.543	333.361	0.106	-0.262
-700.529	25.196	0.205	-0.218
-699.514	42.566	0.096	-0.111
-698.499	65.458	0.122	0.159
-697.485	-13.880	0.390	0.322
-696.470	86.984	0.273	0.387
-695.456	7.050	0.079	-0.075
-694.441	-137.854	0.263	-0.037
-693.426	-183.169	0.144	0.003
-692.412	112.641	0.076	-0.118
-691.397	4.304	0.333	0.312
-690.383	-88.988	-0.423	-0.159
-689.368	-200.000	0.035	-0.548
-688.354	19.874	0.136	0.140
-687.339	-200.000	-0.019	-0.148
-686.324	-200.000	0.013	-0.373
-685.310	-200.000	0.047	-0.346
-684.295	-89.410	-0.252	-0.094
-683.281	-200.000	-0.046	0.440
-682.266	-188.863	-0.286	-0.004
-681.251	-200.000	-0.026	0.364
-680.237	-50.844	0.298	0.178
-679.222	-200.000	-0.038	-0.296
-678.208	328.398	0.059	0.146
-677.193	50.214	-0.306	-0.369
-676.178	-90.171	-0.360	0.133
-675.164	310.130	0.139	-0.334
-674.149	-87.721	0.267	0.103
-673.135	248.634	-0.075	0.162
-672.120	-79.745	-0.452	-0.194
-671.105	-200.000	0.016	0.426
-670.091	699.756	-0.051	-0.172
-669.076	324.667	-0.138	-0.337
-668.062	-136.310	-0.101	-0.015
-667.047	-107.799	-0.904	-0.250
-666.032	9.432	-0.111	0.107
-665.018	800.000	0.120	-0.487
-664.003	-144.423	0.223	-0.026
-662.989	3.867	-0.209	0.195
-661.974	-101.961	0.221	-0.068
-660.959	-129.108	-0.157	0.028
-659.945	-24.860	0.157	-0.119
-658.930	-80.122	-0.287	0.122
-657.916	-200.000	0.048	0.406
-656.901	759.662	-0.015	0.052
-655.886	-102.546	0.478	-0.145
-654.872	87.368	-0.159	-0.225
-653.857	-3.205	-0.251	-0.223
-652.843	29.977	-0.143	-0.155
-651.828	11.261	-0.176	-0.172
-650.814	-65.017	0.163	-0.084
-649.799	-185.900	0.138	0.003
-648.784	-113.878	0.107	-0.026
-647.770	-154.611	0.230	-0.019
-646.755	500.051	0.081	0.241
-645.741	-6.378	-0.231	0.201
-644.726	-142.274	0.092	0.011
-643.711	-125.920	-0.409	0.078
-642.697	800.000	0.066	-0.255
-641.682	-80.268	-0.256	-0.109
-640.668	136.131	0.185	-0.308
-639.653	800.000	-0.016	0.076
-638.638	-21.966	-0.284	0.220
-637.624	-99.657	-0.707	0.225
-636.609	800.000	-0.065	0.335
-635.595	223.466	-0.149	-0.308
-634.580	-88.421	0.214	0.081
-633.565	605.137	-0.115	-0.369
-632.551	-60.014	0.398	-0.216
-631.536	-167.726	-0.184	-0.009
-630.522	-188.487	0.049	-0.001
-629.507	-135.058	0.071	-0.011
-628.492	509.041	-0.098	0.291
-627.478	-171.634	-0.165	-0.007
-626.463	800.000	0.081	0.327
-625.449	-139.330	0.366	0.050
-624.434	-115.945	0.632	-0.149
-623.419	267.541	-0.138	-0.309
-622.405	-31.808	0.077	-0.055
-621.390	258.067	0.039	0.085
-620.376	-200.000	0.038	-0.266
-619.361	430.003	0.076	-0.211
-618.346	372.082	0.142	0.371
-617.332	8.055	-0.274	-0.262
-616.317	-200.000	0.125	-0.883
-615.303	-185.136	0.301	0.006
-614.288	88.823	-0.120	0.170
-613.273	91.037	0.054	-0.078
-612.259	278.590	-0.245	-0.559
-611.244	-89.460	-0.599	-0.223
-610.230	117.879	0.175	0.275
-609.215	-5.017	-0.421	-0.369
-608.201	81.927	-0.249	0.344
-607.186	-177.766	0.472	-0.014
-606.171	290.945	0.124	0.289
-605.157	-200.000	-0.026	0.234
-604.142	-1.326	-0.369	0.332
-603.128	-1.130	-0.172	0.155
-602.113	-200.000	-0.027	-0.182
-601.098	47.248	0.172	-0.204
-600.084	-119.324	-0.510	-0.112
-599.069	-135.053	0.072	0.011
-598.055	-70.783	0.067	0.032
-597.040	-71.316	-0.065	-0.031
-596.025	800.000	-0.117	-0.533
-595.011	-55.134	0.163	-0.093
-593.996	-37.458	0.416	0.282
-592.982	100.066	0.145	0.214
-591.967	-200.000	0.060	-0.386
-590.952	-113.979	-0.316	0.078
-589.938	-92.109	0.040	0.014
-588.923	79.024	-0.227	0.310
-587.909	-87.746	-0.400	-0.153
-586.894	-200.000	0.049	-0.297
-585.879	38.066	-0.066	0.075
-584.865	-200.000	0.004	-0.039
-583.850	-141.743	0.202	0.026
-582.836	189.773	0.226	-0.432
-581.821	-26.204	-0.085	0.063
-580.806	-84.042	-0.456	-0.183
-579.792	-67.921	0.288	-0.143
-578.777	800.000	-0.026	-0.112
-577.763	221.550	-0.061	0.126
-576.748	-38.794	-0.072	-0.048
-575.733	54.451	0.123	0.151
-574.719	800.000	-0.057	0.256
-573.704	-35.090	0.208	-0.144
-572.690	128.170	0.139	0.226
-571.675	190.765	0.163	0.313
-570.661	38.341	-0.122	-0.138
-569.646	-40.075	-0.321	-0.213
-568.631	91.118	-0.082	0.117
-567.617	-97.749	0.307	-0.101
-566.602	315.973	-0.122	-0.294
-565.588	-200.000	-0.048	-0.500
-564.573	247.185	0.239	-0.516
-563.558	-146.810	0.459	-0.050
-562.544	800.000	-0.132	-0.636
-561.529	94.597	0.118	-0.172
-560.515	-171.197	0.260	0.011
-559.500	-200.000	-0.028	0.336
-558.485	-80.439	0.355	0.150
-557.471	-108.296	-0.167	-0.046
-556.456	30.056	-0.260	-0.282
-555.442	800.000	0.055	-0.224
-554.427	-200.000	0.042	-0.545
-553.412	52.535	0.459	-0.558
-552.398	-142.104	0.143	0.018
-551.383	-14.184	0.134	-0.110
-550.369	-200.000	-0.001	-0.452
-549.354	-127.131	-0.085	-0.016
-548.339	-100.599	-0.177	0.055
-547.325	800.000	0.077	-0.372
-546.310	800.000	-0.056	-0.306
-545.296	-64.215	0.375	-0.193
-544.281	128.919	0.061	-0.099
-543.266	800.000	-0.112	-0.536
-542.252	491.475	-0.020	-0.059
-541.237	800.000	0.127	-0.468
-540.223	-63.806	0.390	-0.202
-539.208	-23.305	-0.088	-0.067
-538.193	-21.758	0.360	-0.278
-537.179	-200.000	-0.020	0.218
-536.164	-173.415	0.251	0.009
-535.150	366.041	0.084	-0.217
-534.135	787.596	0.053	0.186
-533.121	176.751	-0.265	-0.492
-532.106	32.742	0.181	-0.199
-531.091	-73.018	-0.172	0.080
-530.077	-151.999	-0.183	0.017
-529.062	-200.000	-0.010	0.126
-528.048	176.158	-0.076	0.140
-527.033	-181.758	-0.217	-0.005
-526.018	-82.278	-0.161	0.066
-525.004	173.557	0.164	0.301
-523.989	177.558	0.134	0.249
-522.975	2.452	-0.423	-0.389
-521.960	109.905	-0.254	-0.388
-520.945	-200.000	0.012	-0.106
-519.931	800.000	-0.081	0.401
-518.916	-116.179	-0.040	-0.009
-517.902	434.593	0.171	0.473
-516.887	200.127	-0.172	0.336
-515.872	249.866	0.140	-0.304
-514.858	800.000	-0.067	0.284
-513.843	112.447	0.197	-0.303
-512.829	-148.109	0.616	-0.064
-511.814	249.589	0.245	0.530
-510.799	-28.972	-0.350	0.255
-509.785	283.229	0.073	0.167
-508.770	245.065	0.115	0.247
-507.756	-52.235	0.052	0.030
-506.741	-6.772	-0.098	0.084
-505.726	-24.841	-0.198	0.149
-504.712	-25.776	-0.084	-0.063
-503.697	-144.462	0.570	0.066
-502.683	-5.503	-0.419	0.365
-501.668	-85.200	-0.472	0.186
-500.653	53.135	0.210	-0.255
-499.639	71.145	-0.130	0.172
-498.624	-17.524	-0.170	0.135
-497.610	-98.403	0.259	-0.084
-496.595	-200.000	0.010	-0.106
-495.581	-166.864	-0.338	-0.017
-494.566	-4.250	0.364	0.319
-493.551	15.293	0.305	-0.304
-492.537	-172.932	-0.240	0.009
-491.522	-50.190	-0.336	0.201
-490.508	-120.671	0.458	0.098
-489.493	-130.227	-0.367	-0.063
-488.478	172.411	-0.219	0.400
-487.464	114.757	0.107	-0.165
-486.449	-58.886	0.207	-0.113
-485.435	-101.136	-0.145	0.045
-484.420	-89.197	-0.396	0.148
-483.405	229.344	-0.173	0.359
-482.391	149.785	-0.178	-0.307
-481.376	280.056	-0.176	-0.401
-480.362	-200.000	-0.029	-0.261
-479.347	-150.405	0.397	-0.038
-478.332	-38.866	-0.128	-0.085
-477.318	800.000	0.098	0.460
-476.303	-111.437	0.322	-0.083
-475.289	-114.421	0.283	-0.068
-474.274	-68.304	-0.172	0.085
-473.259	-95.895	-0.135	0.045
-472.245	-174.284	-0.578	-0.021
-471.230	-83.079	-0.386	0.157
-470.216	800.000	0.037	0.181
-469.201	-96.734	0.286	-0.095
-468.186	44.485	-0.370	0.431
-467.172	220.189	0.189	-0.384
-466.157	-113.384	0.141	-0.035
-465.143	-200.000	-0.042	0.241
-464.128	-110.896	-0.177	-0.046
-463.113	-83.027	-0.273	0.111
-462.099	-125.763	-0.107	-0.020
-461.084	176.198	0.131	0.243
-460.070	-31.196	-0.325	0.231
-459.055	-65.542	-0.412	-0.209
-458.040	1.888	-0.057	-0.052
-457.026	-200.000	-0.041	-0.420
-456.011	-200.000	-0.012	-0.255
-454.997	77.139	0.198	0.267
-453.982	-114.732	-0.087	-0.021
-452.968	-7.883	-0.433	-0.370
-451.953	800.000	-0.026	0.094
-450.938	31.327	0.306	-0.333
-449.924	28.491	0.207	-0.221
-448.909	-86.678	-0.149	-0.057
-447.895	435.000	-0.112	0.310
-446.880	-49.432	0.191	-0.115
-445.865	-200.000	0.015	-0.096
-444.851	-22.909	0.297	-0.227
-443.836	16.763	-0.260	-0.260
-442.822	-132.222	-0.603	0.098
-441.807	-17.697	-0.133	-0.106
-440.792	-120.203	0.463	0.099
-439.778	-135.799	-0.151	0.022
-438.763	39.155	-0.237	0.269
-437.749	29.145	-0.331	-0.355
-436.734	-36.638	0.066	0.045
-435.719	-32.639	-0.274	-0.193
-434.705	131.962	-0.058	-0.095
-433.690	-118.891	0.566	0.125
-432.676	132.014	0.199	0.325
-431.661	800.000	-0.078	0.357
-430.646	594.722	-0.119	-0.373
-429.632	-15.946	0.353	0.284
-428.617	-17.281	0.272	0.217
-427.603	800.000	-0.034	-0.122
-426.588	-84.335	0.254	0.101
-425.573	-79.169	-0.182	-0.078
-424.559	166.815	-0.174	0.314
-423.544	-200.000	0.017	0.560
-422.530	-16.292	-0.395	0.317
-421.515	-80.191	0.290	0.122
-420.500	65.910	-0.234	0.300
-419.486	-77.228	-0.107	-0.047
-418.471	-73.374	-0.052	0.024
-417.457	30.677	-0.318	-0.344
-416.442	148.921	-0.085	0.146
-415.428	-200.000	0.048	0.454
-414.413	800.000	-0.115	0.460
-413.398	192.401	-0.184	0.353
-412.384	-200.000	-0.047	-0.539
-411.369	800.000	0.019	0.087
-410.355	-150.985	0.193	-0.018
-409.340	33.642	0.022	0.024
-408.325	-78.120	0.305	-0.132
-407.311	-3.455	0.272	0.240
-406.296	195.660	0.090	0.174
-405.282	167.535	-0.125	0.225
-404.267	-146.999	0.646	0.069
-403.252	-6.477	0.210	-0.181
-402.238	-200.000	-0.024	-0.236
-401.223	-69.134	-0.138	-0.067
-400.209	-54.789	-0.266	0.151
-399.194	6.001	-0.422	0.395
-398.179	-135.554	-0.074	0.011
-397.165	-41.794	-0.302	0.195
-396.150	-99.833	-0.254	0.080
-395.136	-200.000	-0.057	-0.335
-394.121	-75.426	-0.392	0.176
-393.106	-200.000	-0.007	-0.133
-392.092	57.533	0.238	-0.295
-391.077	139.897	0.194	-0.323
-390.063	-116.430	0.071	0.016
-389.048	406.078	0.121	-0.325
-388.033	-119.516	0.092	-0.020
-387.019	160.475	0.078	-0.137
-386.004	63.389	0.232	0.294
-384.990	210.284	0.096	0.192
-383.975	-40.067	-0.156	0.103
-382.960	33.497	-0.220	-0.242
-381.946	-200.000	0.000	0.120
-380.931	14.990	-0.238	-0.235
-379.917	246.745	-0.156	-0.333
-378.902	283.186	0.188	0.427
-377.888	-44.792	-0.268	0.168
-376.873	-13.866	0.548	-0.447
-375.858	-200.000	-0.015	0.212
-374.844	-200.000	0.003	-0.378
-373.829	-166.783	0.493	0.025
-372.815	298.313	-0.161	0.376
-371.800	523.865	-0.031	0.093
-370.785	-166.730	0.334	0.017
-369.771	200.259	0.189	0.368
-368.756	-109.404	-0.313	-0.083
-367.742	800.000	-0.058	0.206
-366.727	56.939	0.311	0.383
-365.712	257.108	0.087	0.189
-364.698	120.308	0.183	-0.288
-363.683	-13.358	0.198	0.162
-362.669	-100.754	-0.221	0.068
-361.654	-32.307	-0.392	0.276
-360.639	117.865	-0.178	0.278
-359.625	3.943	-0.284	0.262
-358.610	496.494	0.032	0.093
-357.596	-53.923	-0.209	0.120
-356.581	194.665	0.054	0.103
-355.566	-171.116	-0.198	-0.008
-354.552	161.906	0.315	0.558
-353.537	-200.000	0.013	0.097
-352.523	29.760	0.270	-0.290
-351.508	-71.155	0.161	0.076
-350.493	577.691	0.100	-0.309
-349.479	-27.510	0.431	0.316
-348.464	800.000	0.077	-0.363
-347.450	-200.000	-0.037	-0.233
-346.435	-106.516	0.459	-0.128
-345.420	176.831	-0.160	-0.294
-344.406	123.924	-0.097	0.154
-343.391	-21.657	0.173	-0.133
-342.377	-47.691	0.262	0.160
-341.362	-44.556	-0.142	0.089
-340.348	-200.000	-0.020	0.220
-339.333	15.951	0.167	0.166
-338.318	-106.168	0.563	-0.158
-337.304	40.042	0.326	0.370
-336.289	-74.097	-0.308	0.140
-335.275	86.552	-0.040	-0.056
-334.260	-51.963	-0.312	0.182
-333.245	-104.110	0.165	-0.048
-332.231	-200.000	-0.016	0.205
-331.216	-56.133	0.441	0.247
-330.202	1.612	0.143	-0.129
-329.187	70.084	0.096	-0.124
-328.172	-104.204	0.099	-0.029
-327.158	20.294	0.243	-0.247
-326.143	-95.795	-0.057	0.019
-325.129	3.412	0.271	-0.248
-324.114	-142.193	-0.430	0.053
-323.099	-33.763	-0.347	-0.241
-322.085	8.756	-0.219	-0.208
-321.070	218.819	-0.135	-0.273
-320.056	24.674	0.054	0.056
-319.041	4.295	-0.170	0.156
-318.026	111.656	-0.116	0.177
-317.012	-200.000	0.021	0.132
-315.997	-50.764	0.206	-0.122
-314.983	-84.946	0.215	-0.085
-313.968	-157.867	-0.700	-0.051
-312.953	17.862	0.144	0.145
-311.939	118.616	0.224	-0.349
-310.924	-156.938	-0.373	0.028
-309.910	-55.837	-0.084	0.047
-308.895	-81.212	0.315	-0.131
-307.880	338.806	-0.017	0.043
-306.866	310.092	-0.060	0.142
-305.851	-62.570	0.421	0.219
-304.837	-200.000	0.007	0.309
-303.822	-200.000	0.036	-0.240
-302.807	356.700	0.093	0.233
-301.793	-44.412	0.438	0.275
-300.778	64.306	-0.390	0.496
-299.764	800.000	-0.104	0.392
-298.749	-51.280	0.178	-0.104
-297.735	-19.680	-0.291	0.226
-296.720	-200.000	-0.069	-0.644
-295.705	110.387	-0.223	-0.338
-294.691	-45.024	0.263	0.164
-293.676	800.000	0.065	0.294
-292.662	-76.562	-0.392	-0.172
-291.647	-128.548	-0.195	0.034
-290.632	-200.000	0.018	-0.610
-289.618	-88.494	0.417	-0.156
-288.603	-86.165	0.297	-0.115
-287.589	-157.266	-0.490	-0.037
-286.574	-160.002	-0.405	-0.027
-285.559	-125.457	-0.264	-0.050
-284.545	96.270	-0.091	-0.131
-283.530	-97.067	0.067	-0.022
-282.516	166.577	-0.189	-0.339
-281.501	-127.978	-0.442	-0.079
-280.486	151.717	-0.050	-0.086
-279.472	-76.342	-0.356	-0.157
-278.457	209.042	0.107	-0.211
-277.443	800.000	0.088	0.444
-276.428	304.518	0.042	0.098
-275.413	-200.000	0.023	-0.134
-274.399	-200.000	0.002	0.213
-273.384	-36.232	-0.117	0.079
-272.370	-80.984	-0.503	-0.208
-271.355	-155.540	-0.106	-0.008
-270.340	-120.436	0.159	-0.034
-269.326	-38.335	-0.246	-0.163
-268.311	-122.981	0.415	-0.083
-267.297	-102.249	0.125	-0.037
-266.282	-29.347	0.161	0.116
-265.267	-120.522	0.375	0.079
-264.253	223.213	0.099	0.202
-263.238	-124.405	0.268	0.052
-262.224	-200.000	-0.012	-0.314
-261.209	800.000	-0.047	-0.177
-260.195	800.000	-0.053	0.199
-259.180	-36.655	0.209	0.141
-258.165	-165.069	0.175	-0.010
-257.151	-128.504	-0.306	-0.054
-256.136	375.248	-0.166	-0.428
-255.122	123.028	0.171	-0.270
-254.107	-6.731	0.161	0.137
-253.092	-40.536	-0.352	0.229
-252.078	96.659	0.262	-0.377
-251.063	-44.561	-0.462	0.289
-250.049	-106.131	-0.530	-0.149
-249.034	561.884	0.126	-0.386
-248.019	-110.706	-0.303	-0.078
-247.005	63.699	0.274	-0.346
-245.990	-65.468	0.139	-0.070
-244.976	17.971	0.071	-0.071
-243.961	29.746	-0.262	0.281
-242.946	-113.741	-0.273	0.066
-241.932	-132.524	0.129	0.021
-240.917	-93.735	-0.165	0.057
-239.903	-58.629	-0.263	0.143
-238.888	-74.026	0.323	0.146
-237.873	106.903	-0.185	-0.276
-236.859	-28.925	0.494	0.356
-235.844	173.143	0.224	-0.408
-234.830	-89.180	-0.261	0.096
-233.815	800.000	-0.115	0.574
-232.800	-92.532	-0.393	-0.138
-231.786	-68.248	-0.364	-0.177
-230.771	-37.540	-0.037	-0.025
-229.757	98.304	0.107	-0.154
-228.742	300.949	-0.089	0.208
-227.727	-8.643	-0.421	0.354
-226.713	28.832	-0.262	-0.279
-225.698	800.000	-0.027	0.101
-224.684	305.581	-0.062	-0.145
-223.669	183.528	0.108	0.202
-222.655	134.288	-0.187	-0.305
-221.640	-71.028	0.547	-0.257
-220.625	-168.575	-0.617	0.029
-219.611	-50.055	-0.385	-0.229
-218.596	-200.000	0.028	0.204
-217.582	-200.000	-0.018	0.405
-216.567	798.969	0.096	0.333
-215.552	229.676	0.106	0.219
-214.538	-102.667	0.183	0.055
-213.523	-164.457	0.218	0.012
-212.509	-49.477	0.242	-0.144
-211.494	-43.235	0.226	0.143
-210.479	-85.583	0.454	-0.176
-209.465	800.000	-0.033	-0.143
-208.450	34.871	-0.159	0.174
-207.436	-200.000	0.047	-0.307
-206.421	800.000	0.094	-0.434
-205.406	-130.547	0.442	0.074
-204.392	-100.348	0.333	0.103
-203.377	18.237	-0.045	-0.046
-202.363	-83.470	0.598	0.239
-201.348	-200.000	0.004	0.473
-200.333	298.464	0.107	0.247
-199.319	-58.161	-0.110	-0.060
-198.304	-72.719	-0.158	0.073
-197.290	72.600	0.258	-0.337
-196.275	667.138	0.082	0.268
-195.260	9.303	-0.283	0.269
-194.246	66.397	0.029	0.037
-193.231	155.761	0.173	-0.300
-192.217	-104.030	-0.233	0.068
-191.202	-192.098	0.216	-0.003
-190.187	120.954	0.190	0.297
-189.173	-39.383	0.239	0.157
-188.158	40.875	-0.186	0.210
-187.144	-200.000	0.016	0.257
-186.129	195.403	0.131	-0.250
-185.114	-148.371	0.221	-0.022
-184.100	-160.048	0.407	0.027
-183.085	-200.000	0.002	0.140
-182.071	61.198	-0.117	0.146
-181.056	164.832	-0.235	0.417
-180.042	-200.000	-0.178	0.000
-179.027	-37.851	-0.348	0.232
-178.012	-78.324	-0.092	0.039
-176.998	-200.000	0.012	0.646
-175.983	-200.000	0.050	0.312
-174.969	-75.647	0.307	0.136
-173.954	-200.000	-0.008	-0.151
-172.939	-72.247	0.324	0.150
-171.925	-200.000	-0.065	0.372
-170.910	-200.000	0.005	-0.373
-169.896	211.898	-0.100	-0.199
-168.881	800.000	-0.077	0.349
-167.866	146.038	0.213	0.360
-166.852	14.096	-0.118	-0.115
-165.837	-200.000	-0.032	-0.667
-164.823	-147.382	0.337	-0.035
-163.808	-90.295	0.192	-0.069
-162.793	-147.166	0.176	0.019
-161.779	-21.232	-0.241	-0.184
-160.764	181.381	-0.117	0.217
-159.750	-110.662	-0.349	-0.090
-158.735	600.045	-0.034	0.107
-157.720	127.052	0.166	0.264
-156.706	800.000	-0.047	-0.183
-155.691	-70.513	0.382	0.180
-154.677	800.000	-0.046	0.212
-153.662	85.210	0.240	-0.330
-152.647	35.633	0.085	-0.093
-151.633	-50.907	0.191	-0.112
-150.618	786.721	0.084	0.290
-149.604	-166.340	-0.341	0.018
-148.589	60.992	0.182	0.227
-147.574	388.746	-0.132	0.343
-146.560	7.634	0.192	-0.180
-145.545	-94.323	0.238	0.081
-144.531	217.279	0.208	-0.416
-143.516	187.744	-0.092	-0.172
-142.502	-11.255	0.513	-0.422
-141.487	-200.000	0.046	-0.371
-140.472	39.437	0.142	-0.159
-139.458	171.933	0.158	-0.285
-138.443	-8.758	-0.353	0.296
-137.429	174.561	0.148	-0.269
-136.414	449.729	-0.096	-0.266
-135.399	730.983	-0.030	-0.100
-134.385	-67.891	0.517	-0.252
-133.370	-200.000	-0.002	0.399
-132.356	72.848	0.323	0.422
-131.341	17.515	-0.716	-0.712
-130.326	380.809	0.036	0.092
-129.312	-177.321	0.246	0.007
-128.297	-200.000	-0.016	0.109
-127.283	-200.000	-0.019	0.428
-126.268	-51.308	0.302	0.176
-125.253	-200.000	0.017	0.286
-124.239	-104.666	-0.233	0.067
-123.224	-76.970	0.350	-0.152
-122.210	359.203	0.135	-0.339
-121.195	-55.154	0.532	0.299
