DTS Sentinel unit serial number:	SN409020Multiplexer serial number:	ORYXHardware model number:	OX4-SRSoftware version number:	ORYX F/W v3.00 Oryx Data Collector v3.7.2.0data status	okinstallation	HaddamTimeLapsedifferential loss correction	single-endedforward channel	channel 3reverse channel	N/Adate	2011/06/22time	02:51:17forward acquisition time	30.00reverse acquisition time	0.00gamma	498.7831k internal	0.1750k external	0.1750temperature offset calibration	1.0074default loss term (dB/km)	0.3790temperature slope calibration	1.3530multiplexer offset coefficient	1.0000multiplexer slope coefficient	1.0000fibre end	0.00T internal ref (°C)	22.31T ext. ref 1 (°C)	17.51T ext. ref 2 (°C)	0.02length (m)	temperature (°C)	Stokes	anti-Stokes-747.200	-200.000	0.010	-0.145
-746.185	-21.616	0.214	-0.173
-745.171	518.546	-0.107	-0.336
-744.156	800.000	0.100	0.452
-743.142	-7.264	-0.306	-0.275
-742.127	30.957	-0.115	0.131
-741.112	-136.868	0.180	-0.027
-740.098	771.539	-0.180	0.656
-739.083	-73.902	-0.318	-0.153
-738.069	140.270	-0.222	0.391
-737.054	800.000	0.019	-0.080
-736.039	-119.943	-0.414	0.094
-735.025	800.000	0.104	0.596
-734.010	-13.501	0.260	-0.224
-732.996	15.945	-0.119	-0.124
-731.981	-10.058	0.185	-0.163
-730.966	-114.111	0.267	-0.068
-729.952	-160.773	0.474	0.033
-728.937	113.046	-0.172	-0.277
-727.923	-200.000	-0.032	-0.412
-726.908	-8.453	0.169	-0.150
-725.894	795.045	0.081	-0.300
-724.879	-200.000	0.003	0.244
-723.864	137.977	-0.223	0.390
-722.850	604.576	0.089	0.295
-721.835	800.000	-0.064	0.327
-720.821	-131.749	0.248	-0.043
-719.806	-122.389	-0.215	0.046
-718.791	365.837	-0.286	-0.769
-717.777	-200.000	0.051	-0.328
-716.762	-179.735	0.167	-0.005
-715.748	-126.197	0.349	0.069
-714.733	-146.036	0.334	0.039
-713.718	-92.224	-0.244	0.091
-712.704	-91.857	0.180	-0.067
-711.689	722.756	-0.008	-0.030
-710.675	18.024	-0.302	-0.319
-709.660	15.903	-0.199	-0.208
-708.645	-45.279	-0.075	0.049
-707.631	800.000	-0.072	-0.270
-706.616	121.378	-0.094	-0.156
-705.602	52.100	0.089	0.112
-704.587	65.387	-0.126	-0.169
-703.572	-106.630	-0.300	0.088
-702.558	52.593	-0.133	0.168
-701.543	800.000	-0.036	0.157
-700.529	800.000	0.083	-0.310
-699.514	-172.801	0.424	0.017
-698.499	-62.672	0.483	-0.265
-697.485	71.411	0.297	0.410
-696.470	252.460	-0.094	-0.213
-695.456	384.871	-0.118	-0.323
-694.441	-200.000	0.034	0.432
-693.426	-200.000	0.019	-0.390
-692.412	-133.708	-0.657	-0.108
-691.397	34.096	0.265	0.306
-690.383	-200.000	0.031	-0.488
-689.368	-78.729	0.310	-0.140
-688.354	-79.736	0.228	0.102
-687.339	-1.653	0.257	0.240
-686.324	-200.000	0.007	0.279
-685.310	146.121	0.119	0.212
-684.295	-200.000	-0.002	0.550
-683.281	-185.972	-0.692	0.013
-682.266	-19.942	0.126	-0.103
-681.251	-92.359	0.134	-0.050
-680.237	800.000	-0.018	0.093
-679.222	800.000	-0.047	0.260
-678.208	-4.276	-0.381	-0.349
-677.193	-135.235	0.308	0.049
-676.178	-133.284	0.153	-0.025
-675.164	234.933	0.101	-0.222
-674.149	-200.000	-0.027	0.179
-673.135	-2.333	0.127	-0.118
-672.120	153.510	-0.154	0.280
-671.105	-135.730	-0.410	0.064
-670.091	3.606	-0.504	0.487
-669.076	90.075	0.194	0.288
-668.062	263.888	-0.240	0.556
-667.047	-15.698	-0.183	-0.154
-666.032	24.200	-0.329	-0.360
-665.018	-107.507	-0.506	-0.146
-664.003	50.078	-0.250	-0.313
-662.989	800.000	-0.098	0.531
-661.974	-32.531	0.313	0.231
-660.959	-43.506	-0.329	-0.220
-659.945	-142.514	-0.905	0.116
-658.930	412.750	0.138	-0.390
-657.916	-92.984	-0.231	-0.085
-656.901	-39.044	-0.469	-0.326
-655.886	-132.609	-0.386	0.065
-654.872	485.598	-0.173	0.524
-653.857	112.709	0.138	0.221
-652.843	-80.234	0.439	0.194
-651.828	-75.791	0.224	0.105
-650.814	-200.000	-0.020	0.124
-649.799	369.590	0.034	-0.091
-648.784	-104.008	0.332	-0.102
-647.770	418.098	-0.030	-0.085
-646.755	35.277	0.118	0.137
-645.741	-119.475	-0.435	0.099
-644.726	-157.234	-0.259	0.021
-643.711	-173.669	-0.498	0.019
-642.697	-2.655	-0.243	0.225
-641.682	82.608	-0.209	-0.300
-640.668	-200.000	0.030	-0.240
-639.653	-200.000	-0.013	0.093
-638.638	-200.000	-0.032	0.532
-637.624	90.027	-0.291	0.431
-636.609	-128.351	-0.246	0.046
-635.595	111.780	0.124	0.198
-634.580	-70.223	-0.311	0.156
-633.565	800.000	-0.016	-0.084
-632.551	800.000	-0.048	-0.224
-631.536	-200.000	-0.007	0.108
-630.522	-115.043	0.206	-0.051
-629.507	164.841	0.124	0.233
-628.492	-102.032	0.075	-0.024
-627.478	-200.000	0.026	-0.559
-626.463	68.891	-0.169	-0.230
-625.449	-200.000	-0.063	-0.610
-624.434	41.113	-0.246	-0.294
-623.419	79.864	0.035	-0.050
-622.405	-190.985	-0.370	-0.005
-621.390	-200.000	-0.044	0.314
-620.376	-121.339	-0.574	0.126
-619.361	10.457	-0.166	-0.167
-618.346	-42.451	0.221	-0.149
-617.332	-77.060	0.551	-0.253
-616.317	-82.505	-0.193	0.083
-615.303	2.327	0.462	-0.442
-614.288	-161.760	0.227	-0.015
-613.273	603.093	0.124	0.412
-612.259	-133.102	-0.178	0.030
-611.244	-14.791	-0.525	0.445
-610.230	100.741	-0.133	-0.204
-609.215	800.000	-0.041	-0.164
-608.201	-130.084	0.161	0.029
-607.186	-61.066	0.144	0.080
-606.171	-34.647	-0.194	-0.140
-605.157	-170.730	0.296	0.013
-604.142	-143.831	-0.232	0.029
-603.128	177.119	0.430	-0.830
-602.113	19.679	-0.568	0.604
-601.098	-79.030	0.388	0.174
-600.084	70.771	0.034	-0.046
-599.069	-170.767	-0.337	-0.015
-598.055	471.054	0.063	0.188
-597.040	-110.675	0.329	-0.089
-596.025	51.547	-0.307	0.386
-595.011	59.528	-0.358	-0.466
-593.996	39.535	0.176	-0.208
-592.982	800.000	0.049	0.236
-591.967	35.460	0.025	0.029
-590.952	-147.207	0.324	-0.036
-589.938	-157.121	-0.263	0.021
-588.923	295.963	0.094	-0.230
-587.909	-137.700	0.199	-0.029
-586.894	403.991	0.168	0.468
-585.879	-200.000	-0.011	0.075
-584.865	715.496	0.077	0.271
-583.850	-103.108	0.286	-0.089
-582.836	-83.557	0.543	-0.228
-581.821	-200.000	-0.020	-0.334
-580.806	-134.085	0.042	0.007
-579.792	-140.054	0.169	-0.023
-578.777	-62.424	-0.140	0.077
-577.763	-120.754	0.222	0.049
-576.748	-137.843	0.329	0.048
-575.733	434.169	-0.124	-0.358
-574.719	299.429	0.290	-0.709
-573.704	310.132	0.071	-0.177
-572.690	191.601	-0.119	0.238
-571.675	800.000	0.033	-0.142
-570.661	-106.525	0.026	0.007
-569.646	-66.651	0.171	0.089
-568.631	-3.264	-0.209	-0.192
-567.617	-83.963	0.054	-0.022
-566.602	-0.127	-0.285	0.267
-565.588	422.470	-0.111	0.317
-564.573	134.453	-0.121	-0.207
-563.558	57.272	-0.185	0.239
-562.544	-105.473	-0.169	0.050
-561.529	-51.978	0.317	0.194
-560.515	-78.608	0.159	0.072
-559.500	-200.000	-0.004	-0.026
-558.485	14.029	-0.252	-0.259
-557.471	-52.074	-0.116	-0.071
-556.456	-200.000	0.076	-0.662
-555.442	353.377	0.070	0.183
-554.427	-200.000	0.054	-0.362
-553.412	-3.741	0.479	0.438
-552.398	800.000	0.015	-0.063
-551.383	-200.000	0.043	-0.474
-550.369	-70.703	0.312	0.155
-549.354	-200.000	-0.050	-0.481
-548.339	-94.896	-0.366	-0.130
-547.325	510.440	-0.074	0.229
-546.310	292.821	-0.045	-0.109
-545.296	342.666	-0.202	-0.524
-544.281	-157.023	-0.418	-0.033
-543.266	24.699	-0.136	0.149
-542.252	-58.099	0.424	0.243
-541.237	66.314	-0.160	0.214
-540.223	-200.000	0.015	0.230
-539.208	-7.640	0.102	0.091
-538.193	-200.000	0.015	-0.162
-537.179	-54.173	0.170	0.102
-536.164	6.453	-0.224	-0.220
-535.150	-64.726	0.668	0.355
-534.135	228.319	0.290	0.625
-533.121	-101.147	-0.390	-0.125
-532.106	-63.741	-0.478	0.257
-531.091	434.607	0.168	0.484
-530.077	-46.338	0.163	0.105
-529.062	-23.069	0.169	-0.134
-528.048	-88.096	0.321	0.126
-527.033	186.193	-0.160	-0.315
-526.018	-2.488	0.398	-0.367
-525.004	-175.881	0.604	0.021
-523.989	331.232	0.041	0.106
-522.975	-132.091	-0.117	-0.020
-521.960	-164.493	0.219	-0.013
-520.945	259.702	0.088	0.201
-519.931	699.855	-0.040	0.140
-518.916	-200.000	0.008	-0.187
-517.902	57.336	0.106	0.137
-516.887	800.000	-0.023	-0.094
-515.872	17.259	-0.450	-0.470
-514.858	104.267	-0.250	-0.389
-513.843	-182.182	0.507	0.012
-512.829	-58.896	-0.136	-0.077
-511.814	107.004	0.295	-0.462
-510.799	-200.000	-0.007	-0.194
-509.785	-49.378	0.341	0.214
-508.770	-51.706	0.427	0.261
-507.756	-112.587	0.492	0.128
-506.741	-57.486	-0.204	0.118
-505.726	97.446	0.143	0.216
-504.712	-200.000	-0.019	0.119
-503.697	-200.000	0.001	0.012
-502.683	-181.149	0.412	-0.011
-501.668	7.973	-0.376	-0.371
-500.653	-200.000	-0.004	-0.320
-499.639	-58.337	-0.363	0.207
-498.624	77.998	0.290	0.407
-497.610	-138.887	0.676	-0.096
-496.595	103.630	0.033	-0.052
-495.581	-157.048	-0.425	-0.034
-494.566	-68.593	-0.176	0.089
-493.551	4.357	-0.211	0.203
-492.537	-51.828	-0.056	0.034
-491.522	-145.807	0.207	-0.024
-490.508	5.345	-0.227	-0.220
-489.493	-136.813	-0.276	0.041
-488.478	476.603	0.129	-0.385
-487.464	149.846	0.065	-0.116
-486.449	-62.777	0.448	-0.243
-485.435	426.710	0.106	-0.302
-484.420	31.969	0.091	-0.103
-483.405	-120.976	0.185	-0.041
-482.391	438.252	-0.143	0.414
-481.376	-19.324	0.161	-0.131
-480.362	-111.544	0.205	-0.054
-479.347	-95.545	-0.523	-0.183
-478.332	39.235	0.040	0.047
-477.318	51.159	0.149	-0.186
-476.303	-200.000	0.015	-0.383
-475.289	548.915	-0.112	-0.356
-474.274	15.635	-0.168	0.174
-473.259	800.000	0.174	0.761
-472.245	-200.000	-0.000	-0.314
-471.230	151.587	-0.144	0.259
-470.216	-168.531	-0.492	0.024
-469.201	-200.000	-0.025	-0.461
-468.186	-121.110	-0.215	0.047
-467.172	-75.110	-0.421	0.197
-466.157	-43.624	0.495	0.327
-465.143	-158.604	0.429	0.032
-464.128	306.458	-0.287	-0.704
-463.113	-16.427	-0.040	0.034
-462.099	800.000	-0.080	0.337
-461.084	106.232	-0.310	0.484
-460.070	-27.146	0.195	-0.149
-459.055	-11.900	-0.265	-0.228
-458.040	453.162	0.090	-0.262
-457.026	-158.837	-0.266	0.020
-456.011	315.206	0.204	0.509
-454.997	80.989	0.215	0.305
-453.982	-142.893	0.554	0.070
-452.968	-200.000	-0.025	0.258
-451.953	79.720	0.332	-0.469
-450.938	49.200	-0.066	-0.081
-449.924	-37.809	-0.377	0.263
-448.909	-104.862	0.342	0.102
-447.895	-26.169	0.141	0.108
-446.880	17.260	0.223	-0.232
-445.865	134.620	-0.108	-0.184
-444.851	-93.970	-0.272	-0.097
-443.836	-43.248	-0.078	-0.052
-442.822	126.317	-0.146	-0.242
-441.807	-149.789	-0.588	0.060
-440.792	87.850	-0.170	0.247
-439.778	-38.426	0.196	0.136
-438.763	32.468	-0.473	-0.536
-437.749	131.428	-0.210	-0.355
-436.734	-89.284	0.245	-0.094
-435.719	-98.141	-0.059	-0.020
-434.705	-200.000	-0.006	0.282
-433.690	152.918	0.374	-0.673
-432.676	-58.578	0.098	-0.056
-431.661	253.662	-0.178	0.401
-430.646	93.649	-0.140	0.208
-429.632	9.898	-0.381	-0.379
-428.617	-200.000	-0.006	-0.221
-427.603	78.393	0.116	-0.163
-426.588	800.000	0.151	0.683
-425.573	-124.467	-0.080	-0.016
-424.559	76.495	0.066	-0.092
-423.544	-200.000	-0.055	-0.396
-422.530	49.638	-0.092	0.114
-421.515	-60.671	0.163	-0.091
-420.500	41.850	-0.088	0.105
-419.486	-82.111	0.453	-0.193
-418.471	16.729	0.301	-0.313
-417.457	166.229	0.134	0.250
-416.442	23.488	-0.073	-0.078
-415.428	-114.327	0.434	-0.109
-414.413	70.694	-0.117	-0.159
-413.398	-200.000	0.000	0.007
-412.384	-146.123	0.205	-0.023
-411.369	82.961	-0.367	0.525
-410.355	-61.096	-0.353	-0.195
-409.340	19.030	-0.086	0.091
-408.325	86.030	0.245	-0.354
-407.311	-200.000	0.037	0.576
-406.296	58.829	0.324	0.418
-405.282	-15.583	-0.237	0.198
-404.267	-3.186	0.086	0.078
-403.252	-48.554	0.345	0.217
-402.238	-20.112	-0.112	0.090
-401.223	119.835	-0.234	0.381
-400.209	-9.784	-0.318	0.278
-399.194	155.080	-0.237	0.429
-398.179	-61.315	-0.229	0.126
-397.165	-20.756	0.101	0.081
-396.150	-157.566	0.148	-0.011
-395.136	9.441	-0.463	0.459
-394.121	139.973	-0.202	-0.350
-393.106	217.532	-0.190	0.399
-392.092	-37.946	0.343	-0.239
-391.077	-200.000	-0.052	0.309
-390.063	-7.619	0.254	0.225
-389.048	-149.951	0.355	0.036
-388.033	-112.279	-0.079	-0.021
-387.019	-124.144	-0.137	0.028
-386.004	-200.000	-0.032	0.341
-384.990	215.936	0.042	-0.087
-383.975	800.000	-0.084	-0.323
-382.960	800.000	0.039	-0.217
-381.946	-146.977	-0.196	-0.022
-380.931	-200.000	-0.002	-0.189
-379.917	-96.434	-0.537	-0.185
-378.902	-99.279	0.291	-0.096
-377.888	53.332	-0.108	-0.135
-376.873	-147.343	-0.267	-0.029
-375.858	96.754	0.047	-0.070
-374.844	125.290	0.136	0.225
-373.829	-129.770	0.434	0.077
-372.815	-140.454	-0.860	-0.116
-371.800	1.875	0.211	-0.199
-370.785	-109.872	0.265	-0.072
-369.771	-128.323	-0.534	0.099
-368.756	176.641	-0.116	-0.222
-367.742	-123.790	-0.118	0.024
-366.727	-92.680	0.434	-0.158
-365.712	534.221	0.077	-0.241
-364.698	267.872	0.113	-0.261
-363.683	-200.000	0.030	0.269
-362.669	-200.000	0.008	-0.153
-361.654	-91.352	-0.306	-0.114
-360.639	-200.000	-0.005	0.435
-359.625	75.560	0.142	-0.196
-358.610	-200.000	-0.002	-0.115
-357.596	157.605	0.116	0.211
-356.581	64.732	-0.127	-0.168
-355.566	-200.000	0.016	0.254
-354.552	92.885	-0.320	0.473
-353.537	144.319	-0.090	-0.157
-352.523	-159.578	-0.220	0.016
-351.508	-23.062	0.275	-0.216
-350.493	-28.434	0.279	0.210
-349.479	-137.951	0.358	0.052
-348.464	-48.286	0.210	0.132
-347.450	-168.408	0.355	-0.018
-346.435	441.680	-0.088	0.253
-345.420	-200.000	0.001	-0.275
-344.406	1.171	0.265	0.249
-343.391	384.206	0.066	0.178
-342.377	-119.477	-0.332	-0.075
-341.362	-131.657	-0.380	-0.065
-340.348	-120.913	-0.325	-0.071
-339.333	-200.000	0.036	-0.374
-338.318	469.317	0.140	-0.413
-337.304	-15.334	-0.302	0.252
-336.289	-200.000	-0.022	-0.467
-335.275	-175.661	-0.349	-0.012
-334.260	18.831	0.137	0.143
-333.245	-10.328	-0.417	0.361
-332.231	391.450	0.107	-0.293
-331.216	-7.346	0.195	0.172
-330.202	800.000	0.041	-0.204
-329.187	-159.284	-0.181	-0.013
-328.172	-194.110	0.319	-0.003
-327.158	607.770	-0.060	0.196
-326.143	-15.293	-0.231	0.193
-325.129	800.000	0.137	0.607
-324.114	233.091	-0.115	0.247
-323.099	-136.218	-0.300	0.045
-322.085	265.480	0.110	-0.253
-321.070	62.306	-0.199	-0.260
-320.056	-174.051	-0.841	-0.032
-319.041	324.849	-0.153	-0.383
-318.026	-107.642	-0.171	-0.048
-317.012	61.531	0.129	-0.168
-315.997	800.000	-0.092	-0.349
-314.983	-57.213	-0.376	0.216
-313.968	87.424	0.197	0.286
-312.953	-114.293	0.566	0.141
-311.939	36.676	-0.318	0.367
-310.924	83.671	-0.165	0.235
-309.910	-200.000	-0.059	0.343
-308.895	588.954	-0.077	0.250
-307.880	800.000	0.055	0.213
-306.866	-3.107	0.309	-0.282
-305.851	-63.152	0.103	-0.055
-304.837	-138.779	-0.242	-0.034
-303.822	299.306	0.052	-0.126
-302.807	-54.580	0.202	-0.119
-301.793	-19.643	0.527	-0.425
-300.778	-70.213	0.407	-0.201
-299.764	-141.839	0.426	0.055
-298.749	144.286	-0.214	-0.373
-297.735	101.059	-0.210	0.320
-296.720	-99.350	0.371	-0.121
-295.705	-9.276	0.453	-0.395
-294.691	-37.337	-0.168	0.117
-293.676	-200.000	-0.005	-0.355
-292.662	-200.000	-0.037	-0.243
-291.647	403.715	-0.181	-0.501
-290.632	-90.656	0.157	-0.059
-289.618	-154.233	0.444	0.039
-288.603	-200.000	0.059	-0.371
-287.589	-65.494	-0.227	0.119
-286.574	279.185	0.102	-0.239
-285.559	58.016	-0.085	-0.108
-284.545	-23.361	0.207	0.162
-283.530	159.196	-0.258	0.469
-282.516	-17.459	0.326	-0.267
-281.501	-200.000	0.038	0.341
-280.486	800.000	0.064	0.281
-279.472	800.000	-0.124	0.500
-278.457	115.407	-0.247	-0.395
-277.443	-87.264	-0.551	0.217
-276.428	-63.007	0.207	0.111
-275.413	-142.863	0.436	0.055
-274.399	532.946	-0.063	0.196
-273.384	61.712	-0.201	-0.262
-272.370	-36.183	0.053	-0.037
-271.355	-173.507	0.378	0.015
-270.340	-53.813	-0.164	0.098
-269.326	-19.056	0.364	0.295
-268.311	-156.891	-0.276	0.022
-267.297	800.000	0.049	-0.261
-266.282	-170.271	0.176	0.008
-265.267	-200.000	-0.021	0.281
-264.253	-24.207	-0.085	-0.066
-263.238	342.742	-0.174	0.445
-262.224	-93.599	0.515	-0.184
-261.209	-117.608	0.346	0.081
-260.195	-142.466	0.379	-0.048
-259.180	68.958	-0.082	-0.111
-258.165	-137.183	0.137	-0.020
-257.151	176.401	0.072	-0.136
-256.136	-59.946	0.136	0.076
-255.122	-0.091	-0.382	-0.354
-254.107	-16.016	-0.276	0.229
-253.092	-200.000	0.018	0.198
-252.078	179.951	-0.096	0.184
-251.063	-90.131	0.070	-0.027
-250.049	800.000	-0.091	0.437
-249.034	-122.153	0.200	0.042
-248.019	2.576	0.237	-0.223
-247.005	-141.810	-0.387	0.050
-245.990	800.000	0.054	0.288
-244.976	-53.136	0.304	0.182
-243.961	-55.016	-0.237	-0.139
-242.946	549.128	0.160	-0.502
-241.932	-200.000	0.008	-0.186
-240.917	-3.976	0.269	0.243
-239.903	-57.631	-0.234	-0.133
-238.888	-200.000	-0.009	-0.441
-237.873	-119.747	-0.494	-0.110
-236.859	800.000	0.100	0.519
-235.844	506.262	-0.108	-0.327
-234.830	648.899	0.131	-0.438
-233.815	-148.604	-0.569	-0.060
-232.800	29.054	0.375	0.414
-231.786	-26.783	0.054	0.041
-230.771	-200.000	0.019	-0.140
-229.757	-111.889	0.188	-0.049
-228.742	265.193	0.131	0.298
-227.727	-130.121	0.246	-0.043
-226.713	800.000	0.099	-0.432
-225.698	15.470	0.089	0.091
-224.684	-107.367	-0.081	-0.023
-223.669	-73.606	0.461	-0.218
-222.655	164.872	-0.219	-0.404
-221.640	-159.286	-0.253	-0.018
-220.625	-95.734	-0.063	-0.022
-219.611	-200.000	-0.029	-0.265
-218.596	-11.106	-0.257	-0.221
-217.582	250.130	0.102	0.227
-216.567	-66.647	-0.195	-0.100
-215.552	-130.400	-0.190	0.033
-214.538	-151.197	0.384	0.037
-213.523	2.665	0.439	0.414
-212.509	-119.989	-0.463	-0.103
-211.494	-87.921	-0.367	0.143
-210.479	-139.081	-0.068	0.009
-209.465	-72.819	-0.719	0.343
-208.450	26.156	-0.129	-0.140
-207.436	-74.044	-0.080	-0.038
-206.421	29.498	0.216	-0.239
-205.406	0.696	0.052	0.048
-204.392	-7.757	-0.254	-0.223
-203.377	110.005	-0.167	0.262
-202.363	-175.511	0.367	-0.013
-201.348	-91.247	-0.445	0.165
-200.333	-54.604	-0.207	-0.121
-199.319	110.230	-0.261	0.408
-198.304	-200.000	0.091	0.559
-197.290	800.000	-0.064	-0.247
-196.275	-36.755	-0.047	-0.033
-195.260	800.000	-0.024	0.128
-194.246	4.882	0.366	0.350
-193.231	-200.000	-0.058	0.344
-192.217	126.800	-0.179	-0.295
-191.202	-200.000	-0.044	0.376
-190.187	-32.681	0.034	-0.024
-189.173	43.901	0.218	0.260
-188.158	72.088	0.101	0.136
-187.144	-98.733	-0.538	0.177
-186.129	-30.067	0.220	-0.162
-185.114	-42.035	0.314	0.209
-184.100	12.710	0.218	-0.219
-183.085	-160.655	0.187	0.013
-182.071	147.643	0.281	-0.494
-181.056	81.657	-0.110	0.155
-180.042	800.000	0.046	-0.235
-179.027	-200.000	0.032	-0.336
-178.012	-113.203	-0.311	-0.079
-176.998	-41.896	0.602	0.400
-175.983	-167.839	0.380	-0.019
-174.969	125.290	0.057	0.093
-173.954	170.170	-0.244	0.455
-172.939	4.620	0.227	0.216
-171.925	-82.870	0.150	-0.062
-170.910	-137.134	-0.360	0.053
-169.896	7.712	-0.079	-0.077
-168.881	30.301	-0.060	0.066
-167.866	800.000	0.090	0.426
-166.852	-189.454	0.262	-0.004
-165.837	-127.539	-0.074	-0.014
-164.823	332.323	-0.178	0.448
-163.808	-200.000	0.048	0.313
-162.793	2.030	0.322	-0.302
-161.779	-146.476	-0.193	-0.022
-160.764	-139.397	-0.408	0.056
-159.750	-108.419	-0.072	0.020
-158.735	61.305	0.333	-0.430
-157.720	1.178	-0.331	0.308
-156.706	800.000	0.077	0.439
-155.691	-78.886	-0.330	-0.145
-154.677	800.000	-0.051	0.223
-153.662	-200.000	-0.030	-0.346
-152.647	-50.406	-0.311	-0.190
-151.633	77.508	-0.045	-0.063
-150.618	-64.605	0.187	-0.098
-149.604	-35.073	-0.343	-0.242
-148.589	28.082	-0.179	-0.196
-147.574	227.429	0.167	-0.355
-146.560	-63.016	0.250	0.133
-145.545	19.837	0.176	-0.185
-144.531	-111.603	0.470	-0.123
-143.516	-24.632	0.212	0.163
-142.502	-200.000	-0.001	-0.066
-141.487	-159.132	-0.220	0.016
-140.472	373.232	-0.200	0.531
-139.458	-83.147	-0.459	0.191
-138.443	-126.026	-0.231	-0.045
-137.429	-94.343	-0.325	-0.115
-136.414	-10.316	0.266	0.228
-135.399	800.000	-0.108	0.393
-134.385	-166.400	-0.391	0.021
-133.370	-14.271	0.135	-0.113
-132.356	100.278	0.039	-0.059
-131.341	-89.179	-0.524	-0.200
-130.326	204.842	-0.102	0.206
-129.312	354.225	0.097	0.251
-128.297	-184.456	0.091	0.002
-127.283	-174.391	0.190	-0.007
-126.268	-47.890	0.326	0.204
-125.253	-92.021	-0.365	0.133
-124.239	-165.864	-0.113	-0.006
-123.224	164.535	-0.046	0.085
-122.210	-138.678	0.556	0.078
-121.195	-101.982	0.272	0.085
