DTS Sentinel unit serial number:	SN409020Multiplexer serial number:	ORYXHardware model number:	OX4-SRSoftware version number:	ORYX F/W v3.00 Oryx Data Collector v3.7.2.0data status	okinstallation	HaddamTimeLapsedifferential loss correction	single-endedforward channel	channel 3reverse channel	N/Adate	2011/06/21time	23:06:17forward acquisition time	30.00reverse acquisition time	0.00gamma	498.7831k internal	0.1753k external	0.1753temperature offset calibration	1.0074default loss term (dB/km)	0.3790temperature slope calibration	1.3530multiplexer offset coefficient	1.0000multiplexer slope coefficient	1.0000fibre end	0.00T internal ref (°C)	23.41T ext. ref 1 (°C)	19.18T ext. ref 2 (°C)	0.05length (m)	temperature (°C)	Stokes	anti-Stokes-747.200	-200.000	-0.067	0.525
-746.185	151.813	-0.326	0.592
-745.171	-45.665	0.294	0.192
-744.156	-76.274	0.410	0.191
-743.142	-160.474	-0.086	0.006
-742.127	-200.000	0.011	0.120
-741.112	216.334	-0.216	0.457
-740.098	45.630	0.307	0.376
-739.083	-35.296	-0.071	0.051
-738.069	-2.336	-0.192	0.178
-737.054	-107.262	0.300	-0.087
-736.039	-100.144	0.106	-0.035
-735.025	800.000	-0.107	0.398
-734.010	800.000	0.076	0.403
-732.996	-148.375	-0.221	0.024
-731.981	6.896	-0.197	0.194
-730.966	-102.565	-0.186	0.058
-729.952	-200.000	0.023	-0.199
-728.937	231.585	-0.161	-0.351
-727.923	-200.000	-0.078	0.457
-726.908	-7.076	-0.188	-0.169
-725.894	76.817	-0.111	-0.156
-724.879	-111.721	-0.387	0.103
-723.864	-200.000	-0.001	-0.416
-722.850	315.429	0.052	0.130
-721.835	-73.465	-0.071	-0.034
-720.821	800.000	-0.130	-0.699
-719.806	-83.392	0.103	0.043
-718.791	266.816	0.018	-0.041
-717.777	-128.391	-0.107	-0.020
-716.762	-119.597	-0.129	-0.029
-715.748	-200.000	0.025	0.432
-714.733	-200.000	0.011	0.545
-713.718	-114.360	-0.183	0.046
-712.704	-5.823	-0.186	0.169
-711.689	39.850	-0.238	-0.283
-710.675	-106.938	0.156	-0.045
-709.660	-153.659	-0.397	-0.036
-708.645	-46.559	0.364	0.236
-707.631	141.075	0.142	0.250
-706.616	-48.823	-0.127	-0.081
-705.602	497.050	0.044	0.136
-704.587	75.959	0.228	0.319
-703.572	-84.277	0.315	0.132
-702.558	306.878	-0.095	0.236
-701.543	134.712	0.179	-0.308
-700.529	132.785	0.126	-0.215
-699.514	-200.000	0.017	0.235
-698.499	-72.103	-0.758	0.371
-697.485	-166.953	0.488	-0.026
-696.470	765.633	0.043	-0.156
-695.456	-86.033	-0.266	0.108
-694.441	-71.946	0.154	0.076
-693.426	422.632	-0.100	-0.287
-692.412	-38.953	-0.206	-0.144
-691.397	-86.573	0.390	-0.157
-690.383	-61.668	0.152	-0.084
-689.368	27.703	0.097	0.109
-688.354	335.660	-0.178	-0.459
-687.339	-12.499	-0.090	-0.078
-686.324	-21.986	0.507	-0.407
-685.310	-43.667	-0.363	-0.241
-684.295	-162.360	0.775	-0.050
-683.281	800.000	0.043	0.199
-682.266	613.122	-0.113	0.378
-681.251	20.104	-0.429	0.458
-680.237	-99.477	0.373	-0.123
-679.222	-106.844	0.426	0.124
-678.208	-149.849	-0.461	0.047
-677.193	8.843	-0.112	-0.112
-676.178	-200.000	0.072	0.431
-675.164	-189.973	-0.229	-0.003
-674.149	-82.847	0.619	0.263
-673.135	-190.034	-0.737	0.011
-672.120	800.000	0.060	0.298
-671.105	-200.000	0.008	0.051
-670.091	-52.670	0.476	-0.290
-669.076	-188.784	0.117	-0.002
-668.062	800.000	0.053	-0.253
-667.047	-75.683	-0.326	-0.153
-666.032	800.000	-0.120	0.612
-665.018	4.374	0.159	0.154
-664.003	-54.977	-0.223	0.132
-662.989	106.084	0.113	0.177
-661.974	-200.000	0.031	0.214
-660.959	60.623	0.119	-0.156
-659.945	-137.352	0.202	0.030
-658.930	126.194	-0.296	-0.495
-657.916	25.758	0.294	-0.324
-656.901	-33.480	0.075	-0.054
-655.886	-200.000	0.002	-0.287
-654.872	-23.910	-0.453	-0.357
-653.857	-103.173	-0.178	-0.055
-652.843	115.025	0.162	-0.262
-651.828	-69.167	-0.200	-0.101
-650.814	-126.688	0.155	-0.030
-649.799	146.248	-0.059	0.104
-648.784	800.000	-0.030	0.144
-647.770	-99.877	-0.394	-0.129
-646.755	-114.318	-0.361	-0.091
-645.741	-125.183	-0.087	0.017
-644.726	-60.994	-0.493	-0.274
-643.711	-141.843	-0.504	-0.066
-642.697	-127.041	-0.153	0.029
-641.682	800.000	-0.070	-0.296
-640.668	-106.687	0.255	-0.074
-639.653	-200.000	-0.024	-0.224
-638.638	-40.651	0.244	-0.167
-637.624	-200.000	0.027	-0.299
-636.609	-138.517	-0.455	-0.065
-635.595	-190.222	-0.308	0.004
-634.580	800.000	-0.093	-0.525
-633.565	-200.000	0.013	0.388
-632.551	-71.562	-0.322	-0.158
-631.536	800.000	0.133	0.559
-630.522	800.000	0.068	-0.310
-629.507	-25.917	-0.257	-0.200
-628.492	-24.189	-0.173	0.136
-627.478	332.728	-0.096	-0.247
-626.463	-21.982	-0.300	0.240
-625.449	-3.737	-0.443	0.406
-624.434	310.697	-0.144	-0.359
-623.419	-120.084	0.151	-0.034
-622.405	33.417	0.095	-0.109
-621.390	-57.256	0.101	-0.058
-620.376	-200.000	-0.052	0.396
-619.361	595.275	-0.191	-0.628
-618.346	-118.885	-0.593	0.137
-617.332	-36.194	-0.342	0.243
-616.317	-4.939	0.237	-0.215
-615.303	-132.301	0.279	0.047
-614.288	-100.171	-0.565	-0.185
-613.273	-128.713	-0.255	-0.047
-612.259	-57.536	0.638	0.368
-611.244	52.842	-0.076	0.096
-610.230	-124.114	-0.155	0.032
-609.215	-35.557	0.258	0.185
-608.201	159.952	0.105	0.194
-607.186	-81.286	-0.274	-0.119
-606.171	-200.000	0.021	-0.162
-605.157	154.533	0.155	-0.281
-604.142	-152.245	0.230	0.022
-603.128	-125.618	-0.383	0.076
-602.113	311.371	-0.218	-0.540
-601.098	-200.000	-0.009	-0.275
-600.084	-93.205	0.179	-0.065
-599.069	-200.000	0.045	-0.436
-598.055	64.882	0.280	0.374
-597.040	54.604	-0.237	0.301
-596.025	-36.687	-0.385	0.273
-595.011	43.556	0.179	-0.215
-593.996	589.550	0.099	0.324
-592.982	-110.418	-0.280	0.076
-591.967	-81.338	0.512	0.221
-590.952	9.184	0.267	0.266
-589.938	800.000	0.025	-0.095
-588.923	66.835	0.285	-0.382
-587.909	109.750	0.037	0.059
-586.894	-175.276	-0.283	-0.010
-585.879	48.010	0.256	0.316
-584.865	64.107	0.202	0.268
-583.850	-65.986	-0.199	-0.105
-582.836	-96.847	-0.593	0.204
-581.821	-107.235	0.240	-0.069
-580.806	800.000	0.077	-0.398
-579.792	-157.598	-0.510	0.040
-578.777	-42.309	0.032	0.022
-577.763	-38.745	-0.151	0.105
-576.748	599.925	0.092	0.301
-575.733	105.892	-0.463	-0.724
-574.719	-105.199	0.309	-0.092
-573.704	-200.000	0.348	0.000
-572.690	-51.228	0.260	-0.160
-571.675	-148.304	-0.316	0.034
-570.661	198.133	0.166	-0.335
-569.646	-23.040	-0.166	-0.131
-568.631	-33.083	-0.182	0.133
-567.617	166.152	0.085	-0.159
-566.602	363.655	-0.064	-0.170
-565.588	366.778	-0.068	0.181
-564.573	119.202	-0.113	0.185
-563.558	-63.532	0.414	-0.223
-562.544	11.336	-0.118	0.119
-561.529	800.000	-0.066	-0.277
-560.515	-34.130	0.179	0.130
-559.500	-2.100	-0.153	0.141
-558.485	-200.000	-0.012	0.196
-557.471	-126.802	0.613	-0.118
-556.456	569.225	-0.022	-0.070
-555.442	80.843	-0.098	-0.140
-554.427	-119.667	-0.378	0.085
-553.412	21.941	0.321	-0.345
-552.398	-200.000	0.053	-0.394
-551.383	39.924	0.344	0.407
-550.369	-200.000	-0.005	0.069
-549.354	190.832	0.134	-0.266
-548.339	83.747	0.344	-0.495
-547.325	-121.580	-0.457	-0.099
-546.310	69.887	-0.151	0.205
-545.296	221.529	-0.261	-0.554
-544.281	518.344	0.036	0.110
-543.266	-101.088	0.347	0.111
-542.252	-200.000	-0.006	0.114
-541.237	-21.738	0.199	-0.159
-540.223	-200.000	0.025	0.261
-539.208	-5.577	-0.078	0.070
-538.193	524.371	-0.082	-0.257
-537.179	-159.093	-0.447	-0.033
-536.164	-186.800	0.313	-0.006
-535.150	-99.592	-0.378	0.124
-534.135	-192.323	0.438	-0.005
-533.121	-83.651	0.107	-0.045
-532.106	158.418	0.274	-0.502
-531.091	78.677	0.164	-0.231
-530.077	163.075	0.090	-0.166
-529.062	-91.891	0.100	0.037
-528.048	-200.000	0.034	0.417
-527.033	-69.174	-0.359	0.181
-526.018	-200.000	0.018	-0.236
-525.004	9.795	0.244	0.243
-523.989	87.762	-0.194	-0.283
-522.975	-97.293	-0.121	-0.041
-521.960	-78.281	-0.128	0.057
-520.945	167.037	-0.110	0.205
-519.931	-14.041	0.098	-0.083
-518.916	-131.268	0.291	0.050
-517.902	69.567	-0.192	-0.261
-516.887	-35.818	0.122	-0.086
-515.872	-30.547	0.202	-0.150
-514.858	-152.624	-0.405	0.038
-513.843	-19.650	-0.524	0.425
-512.829	169.975	0.011	-0.020
-511.814	157.680	0.267	0.487
-510.799	-200.000	-0.013	0.212
-509.785	-89.366	0.138	0.053
-508.770	-89.047	0.149	0.058
-507.756	133.740	0.152	0.260
-506.741	-26.059	-0.343	0.264
-505.726	672.529	0.068	-0.233
-504.712	-134.567	0.169	0.027
-503.697	-3.733	-0.136	-0.124
-502.683	583.988	0.050	0.161
-501.668	-47.999	-0.447	0.283
-500.653	-200.000	-0.032	-0.194
-499.639	-13.566	0.264	0.225
-498.624	11.766	-0.217	-0.219
-497.610	-150.548	-0.168	-0.017
-496.595	-38.414	0.120	-0.083
-495.581	-169.984	-0.235	0.011
-494.566	-113.898	-0.321	-0.081
-493.551	-71.771	0.440	-0.214
-492.537	-98.629	0.332	-0.111
-491.522	4.114	0.144	0.138
-490.508	-139.905	-0.544	-0.075
-489.493	115.990	0.035	0.057
-488.478	-200.000	0.342	-0.000
-487.464	-83.577	-0.228	0.095
-486.449	16.198	-0.171	0.177
-485.435	-122.966	-0.198	-0.042
-484.420	150.927	-0.107	0.192
-483.405	-1.169	-0.023	0.021
-482.391	-52.265	0.380	0.231
-481.376	-100.727	0.169	0.054
-480.362	46.772	-0.166	0.203
-479.347	-133.089	-0.401	-0.066
-478.332	186.116	0.133	-0.261
-477.318	-43.154	-0.209	-0.139
-476.303	-4.568	0.042	0.038
-475.289	4.491	0.203	0.196
-474.274	-42.423	-0.115	-0.077
-473.259	10.413	-0.257	-0.257
-472.245	800.000	0.044	0.197
-471.230	-77.681	0.104	-0.047
-470.216	-98.698	0.660	0.220
-469.201	-77.208	0.164	0.075
-468.186	165.001	-0.162	0.300
-467.172	-71.653	0.679	-0.331
-466.157	-157.719	-0.211	0.016
-465.143	53.296	0.144	-0.181
-464.128	-0.163	-0.116	0.108
-463.113	448.594	0.053	-0.153
-462.099	82.531	-0.180	0.257
-461.084	-60.800	0.180	-0.100
-460.070	117.954	-0.138	0.223
-459.055	-160.440	0.331	-0.023
-458.040	-92.106	-0.342	-0.126
-457.026	-172.221	-0.480	0.020
-456.011	800.000	-0.018	0.095
-454.997	-29.305	-0.132	-0.099
-453.982	94.298	-0.360	0.537
-452.968	-119.545	0.117	-0.026
-451.953	-117.546	0.820	-0.193
-450.938	-121.867	-0.239	0.051
-449.924	-18.201	0.140	0.115
-448.909	52.117	0.199	0.249
-447.895	-168.249	0.260	0.013
-446.880	22.660	0.036	-0.039
-445.865	111.017	0.078	-0.124
-444.851	-9.413	-0.271	0.237
-443.836	-4.071	0.183	-0.166
-442.822	-162.212	0.593	0.038
-441.807	-160.823	0.339	0.023
-440.792	64.918	0.287	-0.380
-439.778	-54.273	-0.232	0.137
-438.763	800.000	-0.039	-0.209
-437.749	794.261	0.058	0.212
-436.734	-79.653	-0.416	-0.183
-435.719	-151.488	0.078	-0.007
-434.705	-134.416	-0.294	-0.047
-433.690	-154.548	-0.150	0.013
-432.676	800.000	-0.033	-0.160
-431.661	-59.198	0.209	-0.118
-430.646	-20.021	-0.233	-0.188
-429.632	4.245	-0.366	-0.351
-428.617	-74.149	0.395	0.186
-427.603	130.669	-0.303	0.511
-426.588	108.141	-0.102	0.160
-425.573	196.376	0.118	0.236
-424.559	800.000	0.100	0.465
-423.544	-16.841	-0.242	0.200
-422.530	14.759	-0.210	-0.215
-421.515	-200.000	0.032	-0.242
-420.500	-86.014	0.227	-0.091
-419.486	-23.093	-0.174	-0.137
-418.471	362.943	0.172	0.454
-417.457	-143.499	0.128	-0.016
-416.442	-140.970	-0.387	-0.051
-415.428	-62.710	-0.043	0.023
-414.413	-44.613	0.306	0.199
-413.398	288.226	-0.130	-0.309
-412.384	86.617	0.048	0.070
-411.369	-38.516	-0.157	-0.108
-410.355	47.135	-0.143	-0.174
-409.340	64.679	-0.316	-0.418
-408.325	-200.000	-0.031	0.306
-407.311	-74.310	0.143	0.067
-406.296	14.006	0.120	0.122
-405.282	-128.093	0.456	0.085
-404.267	25.383	0.135	-0.146
-403.252	800.000	-0.074	0.271
-402.238	-71.352	-0.232	0.113
-401.223	-125.797	-0.067	0.013
-400.209	-166.670	0.303	-0.016
-399.194	-200.000	0.026	-0.221
-398.179	-31.918	0.321	0.235
-397.165	-30.448	-0.424	0.314
-396.150	358.204	0.048	0.125
-395.136	29.919	0.370	0.412
-394.121	65.094	0.133	0.176
-393.106	161.439	-0.132	-0.242
-392.092	24.240	-0.258	-0.279
-391.077	-133.697	0.273	0.044
-390.063	339.092	0.114	-0.293
-389.048	-200.000	0.006	-0.177
-388.033	176.551	-0.094	0.179
-387.019	23.276	0.196	0.211
-386.004	205.316	0.068	-0.139
-384.990	-139.485	0.400	-0.055
-383.975	-200.000	-0.028	-0.292
-382.960	-13.404	-0.055	-0.046
-381.946	294.993	-0.076	-0.184
-380.931	-57.649	0.576	0.329
-379.917	-176.527	0.185	-0.006
-378.902	-76.317	-0.255	0.117
-377.888	10.208	0.152	0.151
-376.873	176.617	0.152	-0.291
-375.858	-16.088	-0.411	-0.341
-374.844	185.972	0.147	-0.286
-373.829	-15.307	0.102	0.085
-372.815	-141.645	0.396	-0.052
-371.800	-150.498	0.168	0.017
-370.785	31.340	-0.453	-0.509
-369.771	-25.494	0.122	0.094
-368.756	-200.000	0.002	0.205
-367.742	-70.000	0.093	-0.046
-366.727	-200.000	-0.077	0.469
-365.712	236.144	0.097	0.209
-364.698	233.734	-0.329	-0.710
-363.683	-100.647	-0.325	0.104
-362.669	-123.226	0.393	0.081
-361.654	800.000	-0.041	0.227
-360.639	12.176	0.236	0.237
-359.625	-64.605	0.269	-0.142
-358.610	-26.561	-0.123	0.094
-357.596	-27.749	-0.300	0.227
-356.581	-3.510	0.131	0.119
-355.566	26.087	-0.165	-0.180
-354.552	302.409	0.085	-0.206
-353.537	-67.362	-0.156	-0.080
-352.523	800.000	-0.031	0.170
-351.508	-147.971	-0.130	0.014
-350.493	64.285	0.473	0.623
-349.479	-45.828	0.289	-0.186
-348.464	106.058	-0.019	0.029
-347.450	51.738	0.107	0.133
-346.435	-45.345	-0.398	-0.257
-345.420	800.000	-0.103	-0.382
-344.406	92.674	-0.270	0.399
-343.391	387.162	0.053	0.144
-342.377	-132.526	0.336	-0.056
-341.362	-169.767	0.619	-0.029
-340.348	5.623	0.047	0.045
-339.333	-118.701	-0.349	0.080
-338.318	-23.585	-0.622	-0.486
-337.304	557.475	-0.044	-0.139
-336.289	7.257	0.075	-0.073
-335.275	-170.028	-0.087	-0.004
-334.260	-113.117	0.502	0.128
-333.245	40.743	0.380	0.447
-332.231	-28.323	0.363	-0.273
-331.216	800.000	-0.023	-0.090
-330.202	-25.778	0.147	0.113
-329.187	-142.776	0.712	-0.089
-328.172	-200.000	-0.013	-0.077
-327.158	-136.000	-0.287	-0.044
-326.143	-126.040	-0.470	0.091
-325.129	-58.109	0.275	0.156
-324.114	140.711	0.241	-0.416
-323.099	-200.000	0.001	0.053
-322.085	800.000	-0.126	-0.465
-321.070	79.268	0.260	-0.365
-320.056	-88.645	-0.395	-0.153
-319.041	-90.577	0.261	0.098
-318.026	-39.282	0.428	-0.293
-317.012	31.630	0.343	0.385
-315.997	-74.601	0.366	-0.171
-314.983	-35.682	0.211	0.149
-313.968	55.215	0.171	-0.216
-312.953	-200.000	0.452	-0.002
-311.939	191.151	0.098	-0.193
-310.924	522.081	0.080	0.246
-309.910	-12.295	-0.218	0.186
-308.895	386.703	-0.046	-0.125
-307.880	-177.339	0.478	0.015
-306.866	800.000	-0.009	0.049
-305.851	-73.432	-0.076	-0.036
-304.837	29.122	-0.393	-0.435
-303.822	255.297	0.195	-0.437
-302.807	-200.000	-0.034	-0.363
-301.793	63.204	-0.175	0.229
-300.778	-17.743	-0.084	0.069
-299.764	-48.789	0.090	0.056
-298.749	61.850	0.090	0.117
-297.735	-39.064	0.071	0.049
-296.720	-163.674	0.563	0.034
-295.705	20.844	0.264	0.279
-294.691	43.395	-0.131	-0.156
-293.676	-130.378	-0.221	0.039
-292.662	800.000	0.124	0.474
-291.647	-148.719	-0.172	-0.018
-290.632	84.252	0.119	-0.170
-289.618	75.825	-0.133	-0.183
-288.603	137.825	-0.145	0.248
-287.589	-96.546	-0.393	-0.134
-286.574	-59.774	0.451	-0.251
-285.559	-126.885	-0.398	-0.076
-284.545	-99.326	0.365	-0.119
-283.530	-25.179	-0.074	-0.057
-282.516	-200.000	-0.000	0.131
-281.501	-42.189	0.049	-0.032
-280.486	158.581	-0.250	0.454
-279.472	-81.540	0.104	0.044
-278.457	316.240	0.137	-0.339
-277.443	-105.141	0.388	-0.115
-276.428	28.851	0.109	0.120
-275.413	-200.000	0.001	0.609
-274.399	-128.649	-0.414	0.076
-273.384	-25.352	-0.429	0.330
-272.370	119.730	0.114	0.184
-271.355	-200.000	0.037	-0.384
-270.340	750.254	-0.075	-0.267
-269.326	-115.042	-0.154	0.038
-268.311	10.003	-0.260	0.257
-267.297	548.946	-0.213	-0.668
-266.282	51.503	-0.293	-0.363
-265.267	-60.663	0.288	0.159
-264.253	126.345	0.201	0.332
-263.238	510.479	-0.148	-0.451
-262.224	800.000	0.040	-0.152
-261.209	-200.000	-0.057	0.353
-260.195	-65.340	0.458	0.239
-259.180	620.592	0.058	-0.190
-258.165	15.502	0.057	0.058
-257.151	-200.000	-0.018	0.303
-256.136	86.613	-0.365	0.525
-255.122	-170.553	0.919	-0.041
-254.107	-116.672	-0.284	0.067
-253.092	101.584	-0.199	-0.303
-252.078	29.854	-0.431	0.478
-251.063	-2.416	0.349	0.318
-250.049	18.943	0.186	-0.194
-249.034	-106.342	0.295	0.085
-248.019	-185.689	-0.204	0.004
-247.005	-133.144	0.194	0.032
-245.990	-49.303	-0.339	0.210
-244.976	800.000	0.177	0.747
-243.961	487.321	0.110	0.328
-242.946	-128.999	0.533	0.096
-241.932	101.872	-0.255	0.387
-240.917	-38.358	-0.354	0.243
-239.903	-126.830	-0.319	0.061
-238.888	-50.923	-0.168	-0.102
-237.873	-103.248	-0.167	-0.051
-236.859	-200.000	-0.426	-0.001
-235.844	77.687	0.268	-0.371
-234.830	-76.987	-0.344	0.156
-233.815	30.832	-0.324	0.361
-232.800	-200.000	0.031	-0.634
-231.786	-68.956	0.275	-0.137
-230.771	-181.234	-0.203	-0.005
-229.757	12.199	0.029	-0.029
-228.742	-107.136	0.109	0.031
-227.727	-107.889	-0.071	-0.020
-226.713	-200.000	-0.049	0.362
-225.698	-103.571	-0.301	0.091
-224.684	-6.851	-0.222	0.196
-223.669	91.290	-0.176	-0.257
-222.655	-56.188	0.064	0.037
-221.640	71.930	-0.040	-0.054
-220.625	269.787	0.067	-0.154
-219.611	-200.000	0.034	-0.286
-218.596	800.000	-0.104	0.470
-217.582	-13.917	-0.295	0.247
-216.567	140.467	0.191	0.328
-215.552	276.483	-0.136	0.315
-214.538	-68.174	0.378	0.191
-213.523	290.757	0.106	0.251
-212.509	-0.531	0.371	-0.341
-211.494	-117.590	0.244	0.057
-210.479	-200.000	-0.044	-0.701
-209.465	-94.092	-0.155	-0.055
-208.450	-170.398	-0.325	-0.015
-207.436	-115.162	0.043	-0.011
-206.421	496.804	-0.138	-0.414
-205.406	-200.000	-0.001	-0.392
-204.392	21.178	0.320	-0.337
-203.377	563.295	0.012	-0.038
-202.363	277.330	0.078	-0.180
-201.348	-126.824	-0.320	-0.061
-200.333	-187.171	-0.334	-0.006
-199.319	800.000	0.029	-0.158
-198.304	576.658	0.041	0.132
-197.290	800.000	0.063	-0.295
-196.275	-87.441	0.096	0.038
-195.260	422.175	-0.150	-0.419
-194.246	17.307	-0.196	-0.202
-193.231	26.190	-0.173	-0.188
-192.217	-137.756	0.486	-0.070
-191.202	-133.487	0.172	-0.028
-190.187	-56.624	0.040	0.023
-189.173	-82.384	0.371	0.156
-188.158	-200.000	0.027	-0.220
-187.144	-77.310	-0.145	-0.065
-186.129	-156.201	-0.059	0.005
-185.114	-32.573	0.056	0.040
-184.100	800.000	-0.085	0.405
-183.085	-100.057	0.374	0.120
-182.071	-121.785	-0.171	-0.036
-181.056	646.520	0.132	0.441
-180.042	-151.608	0.285	0.027
-179.027	49.816	-0.071	-0.087
-178.012	170.322	-0.235	0.437
-176.998	104.356	0.331	-0.507
-175.983	-28.691	0.451	0.336
-174.969	-0.007	-0.260	0.240
-173.954	-191.159	-0.796	-0.010
-172.939	371.339	0.040	0.106
-171.925	800.000	0.051	-0.210
-170.910	-65.489	0.670	0.348
-169.896	800.000	-0.048	-0.267
-168.881	-200.000	0.025	-0.432
-167.866	-1.452	-0.284	-0.259
-166.852	-126.827	-0.337	-0.064
-165.837	384.031	-0.159	-0.426
-164.823	101.821	0.248	0.376
-163.808	-200.000	-0.009	0.457
-162.793	-15.905	-0.206	0.169
-161.779	-200.000	-0.001	-0.105
-160.764	-153.881	-0.673	-0.059
-159.750	401.424	0.059	0.162
-158.735	258.160	-0.098	0.219
-157.720	122.899	-0.247	0.402
-156.706	800.000	0.114	-0.442
-155.691	38.911	0.333	0.386
-154.677	-200.000	0.033	-0.241
-153.662	745.329	-0.077	0.269
-152.647	-95.586	-0.223	0.077
-151.633	-200.000	0.019	0.427
-150.618	800.000	0.059	-0.237
-149.604	221.738	0.315	-0.659
-148.589	-200.000	-0.016	-0.198
-147.574	-1.353	0.234	0.214
-146.560	26.231	-0.102	0.110
-145.545	165.737	-0.070	-0.129
-144.531	-113.032	-0.234	-0.059
-143.516	-25.768	0.143	0.109
-142.502	59.117	0.427	-0.545
-141.487	5.604	0.308	0.295
-140.472	50.624	0.241	0.295
-139.458	800.000	-0.127	-0.514
-138.443	-139.257	-0.140	0.019
-137.429	-0.643	0.113	0.104
-136.414	19.294	-0.204	-0.212
-135.399	146.895	-0.071	-0.125
-134.385	-200.000	-0.026	0.397
-133.370	699.235	0.146	0.500
-132.356	800.000	0.095	0.494
-131.341	-99.504	-0.400	0.129
-130.326	15.637	0.314	0.319
-129.312	196.954	0.112	0.222
-128.297	170.212	-0.175	0.325
-127.283	-200.000	-0.017	-0.130
-126.268	-86.599	-0.281	0.111
-125.253	800.000	0.089	-0.434
-124.239	316.450	-0.064	-0.157
-123.224	745.453	0.104	0.364
-122.210	131.505	-0.113	-0.189
-121.195	-85.549	0.191	0.077
