DTS Sentinel unit serial number:	SN409020Multiplexer serial number:	ORYXHardware model number:	OX4-SRSoftware version number:	ORYX F/W v3.00 Oryx Data Collector v3.7.2.0data status	okinstallation	HaddamTimeLapsedifferential loss correction	single-endedforward channel	channel 3reverse channel	N/Adate	2011/06/21time	20:21:16forward acquisition time	30.00reverse acquisition time	0.00gamma	498.7831k internal	0.1779k external	0.1779temperature offset calibration	1.0074default loss term (dB/km)	0.3790temperature slope calibration	1.3530multiplexer offset coefficient	1.0000multiplexer slope coefficient	1.0000fibre end	0.00T internal ref (°C)	30.75T ext. ref 1 (°C)	22.65T ext. ref 2 (°C)	0.02length (m)	temperature (°C)	Stokes	anti-Stokes-747.200	800.000	-0.110	-0.460
-746.185	800.000	0.092	0.491
-745.171	440.170	-0.259	0.743
-744.156	447.723	-0.183	0.529
-743.142	-116.308	-0.195	0.047
-742.127	-200.000	0.066	0.782
-741.112	-182.363	-0.210	-0.005
-740.098	-106.791	-0.422	-0.122
-739.083	-70.599	-0.167	0.082
-738.069	-200.000	0.023	0.345
-737.054	117.980	0.081	0.130
-736.039	-35.517	-0.386	0.273
-735.025	-62.909	-0.163	0.088
-734.010	-7.410	-0.539	-0.476
-732.996	36.887	0.204	0.235
-731.981	-28.320	0.365	0.275
-730.966	-200.000	0.024	0.375
-729.952	32.513	-0.103	0.116
-728.937	166.662	-0.080	0.149
-727.923	-120.466	-0.413	0.091
-726.908	-30.639	0.215	0.159
-725.894	199.716	-0.209	-0.420
-724.879	-27.244	0.150	-0.114
-723.864	100.988	0.151	-0.230
-722.850	-200.000	0.109	-0.000
-721.835	-97.564	0.176	-0.059
-720.821	26.069	-0.043	0.047
-719.806	-93.508	-0.367	-0.132
-718.791	-171.751	0.362	0.015
-717.777	-190.398	-0.074	0.001
-716.762	292.291	0.182	-0.436
-715.748	168.303	-0.275	-0.513
-714.733	-200.000	0.004	-0.404
-713.718	-71.674	-0.097	-0.047
-712.704	-121.746	-0.541	0.116
-711.689	149.598	0.066	0.118
-710.675	587.614	-0.141	-0.455
-709.660	124.602	0.148	-0.244
-708.645	-136.468	0.240	-0.036
-707.631	800.000	-0.132	0.549
-706.616	-25.834	-0.073	0.056
-705.602	-168.308	0.034	0.002
-704.587	-117.968	-0.449	0.104
-703.572	-80.834	-0.297	-0.128
-702.558	-200.000	-0.001	-0.014
-701.543	7.661	-0.132	-0.129
-700.529	-85.000	-0.331	0.135
-699.514	121.377	0.275	-0.448
-698.499	717.884	-0.144	0.501
-697.485	123.758	0.096	-0.158
-696.470	189.632	-0.210	-0.412
-695.456	111.664	-0.291	-0.460
-694.441	-114.080	0.332	-0.083
-693.426	11.355	-0.190	0.189
-692.412	-200.000	0.013	0.536
-691.397	304.821	-0.097	0.236
-690.383	-22.011	-0.404	-0.320
-689.368	-4.774	-0.169	-0.152
-688.354	2.569	0.137	0.130
-687.339	-200.000	-0.009	-0.195
-686.324	-123.740	-0.456	-0.093
-685.310	164.793	-0.053	-0.097
-684.295	-139.193	0.254	0.035
-683.281	-200.000	0.005	0.445
-682.266	-89.455	-0.360	0.137
-681.251	-44.468	0.107	0.069
-680.237	-6.467	0.023	0.020
-679.222	167.563	0.152	-0.283
-678.208	-138.892	-0.508	0.071
-677.193	-117.140	-0.538	-0.127
-676.178	-111.157	0.170	-0.045
-675.164	800.000	-0.051	-0.254
-674.149	-200.000	-0.005	-0.225
-673.135	-59.044	0.476	-0.267
-672.120	187.388	0.049	-0.095
-671.105	-13.611	-0.125	0.106
-670.091	-133.463	0.450	0.073
-669.076	68.103	0.089	-0.120
-668.062	357.184	0.096	-0.252
-667.047	275.777	0.020	-0.048
-666.032	-200.000	0.012	0.408
-665.018	-25.878	-0.130	0.100
-664.003	800.000	0.145	0.585
-662.989	174.948	0.066	-0.124
-661.974	-54.128	0.580	-0.343
-660.959	83.866	-0.266	-0.378
-659.945	90.610	-0.242	-0.354
-658.930	-63.018	-0.265	-0.142
-657.916	-200.000	0.032	-0.497
-656.901	-200.000	0.403	0.001
-655.886	-87.287	0.038	0.015
-654.872	800.000	-0.019	0.095
-653.857	-200.000	-0.017	-0.285
-652.843	-63.884	-0.202	0.107
-651.828	211.421	-0.139	0.286
-650.814	-70.403	-0.210	0.103
-649.799	-149.049	0.570	0.059
-648.784	9.731	-0.043	0.042
-647.770	-65.812	0.157	-0.082
-646.755	-200.000	-0.023	-0.302
-645.741	800.000	0.078	-0.341
-644.726	-41.773	0.412	0.275
-643.711	-147.219	0.554	0.061
-642.697	-200.000	-0.001	0.246
-641.682	-167.511	-0.324	0.017
-640.668	-95.971	0.208	-0.072
-639.653	59.108	0.170	0.218
-638.638	136.307	-0.250	0.425
-637.624	800.000	-0.132	0.525
-636.609	128.882	-0.312	0.518
-635.595	-23.394	-0.249	0.194
-634.580	-200.000	-0.001	-0.129
-633.565	-35.401	0.085	0.060
-632.551	100.296	-0.074	-0.112
-631.536	-120.115	0.070	-0.016
-630.522	-200.000	-0.035	-0.730
-629.507	-82.490	0.042	-0.018
-628.492	-90.359	0.215	0.081
-627.478	-133.642	-0.490	-0.079
-626.463	290.827	0.190	-0.451
-625.449	48.020	0.167	-0.204
-624.434	-82.825	0.231	0.097
-623.419	-162.437	-0.170	0.011
-622.405	176.180	0.069	-0.131
-621.390	89.028	-0.084	-0.122
-620.376	-4.786	0.313	0.281
-619.361	-39.550	-0.308	0.209
-618.346	-136.939	-0.598	0.088
-617.332	-50.857	-0.137	0.083
-616.317	113.437	-0.113	-0.179
-615.303	175.878	0.129	-0.243
-614.288	-84.969	0.178	-0.072
-613.273	324.019	-0.187	-0.466
-612.259	519.842	-0.148	-0.454
-611.244	-126.986	-0.108	0.021
-610.230	-32.904	0.207	-0.150
-609.215	-81.599	0.350	-0.149
-608.201	-44.141	0.258	0.168
-607.186	-162.839	-0.518	-0.032
-606.171	-97.251	-0.291	-0.098
-605.157	-81.850	0.544	-0.230
-604.142	-200.000	-0.028	0.199
-603.128	-125.779	0.362	0.070
-602.113	97.156	0.269	-0.402
-601.098	3.254	-0.442	-0.418
-600.084	-74.078	0.127	0.060
-599.069	90.953	0.279	0.407
-598.055	231.446	0.145	-0.309
-597.040	216.489	-0.159	-0.329
-596.025	223.845	0.126	0.265
-595.011	-145.750	-0.230	0.026
-593.996	-126.737	0.130	-0.025
-592.982	111.388	0.238	0.373
-591.967	-91.561	0.340	0.125
-590.952	209.041	0.117	-0.239
-589.938	-54.001	-0.060	0.035
-588.923	-200.000	0.052	-0.345
-587.909	-134.969	-0.346	0.054
-586.894	-19.214	-0.199	-0.161
-585.879	-158.604	0.443	0.033
-584.865	-200.000	-0.018	0.468
-583.850	-200.000	0.033	0.538
-582.836	-85.216	-0.085	0.034
-581.821	37.276	0.296	-0.340
-580.806	61.361	-0.150	0.194
-579.792	-166.867	-0.239	0.013
-578.777	-157.706	0.497	-0.038
-577.763	154.650	0.038	0.068
-576.748	-45.512	-0.175	-0.113
-575.733	383.609	0.065	-0.174
-574.719	-150.334	-0.197	-0.019
-573.704	-41.418	-0.221	-0.148
-572.690	-33.795	-0.109	0.078
-571.675	423.761	0.153	-0.430
-570.661	-93.272	-0.567	-0.203
-569.646	-151.702	0.470	0.044
-568.631	-48.486	0.252	-0.157
-567.617	-180.202	-0.213	-0.006
-566.602	-75.773	-0.211	0.097
-565.588	-200.000	-0.021	0.526
-564.573	319.193	-0.269	0.665
-563.558	7.599	0.209	0.202
-562.544	-121.701	-0.324	-0.069
-561.529	1.175	-0.103	-0.095
-560.515	214.956	-0.109	0.225
-559.500	-27.423	0.213	-0.160
-558.485	45.289	0.031	-0.037
-557.471	66.244	0.055	-0.073
-556.456	50.201	-0.212	-0.260
-555.442	162.577	-0.254	0.464
-554.427	114.250	0.130	-0.206
-553.412	-51.384	-0.237	0.143
-552.398	-118.913	0.143	-0.032
-551.383	-17.010	-0.142	0.116
-550.369	-125.096	0.250	0.049
-549.354	493.264	0.167	-0.500
-548.339	-3.460	0.296	0.267
-547.325	564.896	0.035	-0.112
-546.310	-200.000	-0.013	-0.154
-545.296	243.236	-0.175	-0.382
-544.281	346.249	-0.215	-0.552
-543.266	602.650	-0.100	-0.325
-542.252	186.651	-0.072	0.139
-541.237	44.601	-0.256	-0.306
-540.223	-182.906	-0.546	0.012
-539.208	-48.955	-0.161	0.100
-538.193	-15.042	0.258	0.214
-537.179	-51.126	0.062	-0.038
-536.164	-200.000	-0.004	0.213
-535.150	263.937	-0.054	0.123
-534.135	284.366	0.353	0.827
-533.121	65.267	0.017	0.023
-532.106	-119.899	-0.203	0.045
-531.091	67.452	-0.143	-0.189
-530.077	-12.056	-0.274	-0.232
-529.062	-37.828	-0.219	-0.151
-528.048	-159.613	-0.134	0.009
-527.033	250.039	0.207	-0.458
-526.018	-119.396	0.213	-0.048
-525.004	-200.000	-0.017	-0.209
-523.989	104.505	0.272	-0.416
-522.975	506.686	-0.083	-0.252
-521.960	-200.000	-0.007	0.055
-520.945	-137.043	0.054	-0.008
-519.931	-25.662	-0.301	0.230
-518.916	-176.110	-0.350	0.012
-517.902	-56.319	-0.389	0.223
-516.887	-105.461	0.060	0.018
-515.872	-65.420	-0.335	-0.174
-514.858	-111.702	-0.368	0.096
-513.843	-75.844	-0.761	-0.348
-512.829	-30.711	0.260	0.190
-511.814	224.512	0.041	-0.087
-510.799	738.239	-0.148	0.516
-509.785	-54.020	-0.146	-0.086
-508.770	-82.833	-0.277	0.115
-507.756	-200.000	-0.003	0.066
-506.741	87.041	0.094	-0.135
-505.726	150.446	0.283	0.498
-504.712	-177.871	-0.225	-0.007
-503.697	99.509	0.147	-0.220
-502.683	-98.703	-0.242	-0.079
-501.668	540.699	-0.148	0.460
-500.653	-200.000	0.010	-0.122
-499.639	196.587	-0.323	0.639
-498.624	-200.000	0.019	0.183
-497.610	110.258	0.029	0.045
-496.595	86.364	0.177	0.252
-495.581	-81.380	0.472	-0.200
-494.566	-161.513	0.471	-0.031
-493.551	182.419	0.200	0.383
-492.537	800.000	0.050	-0.197
-491.522	124.739	-0.380	-0.620
-490.508	-30.493	0.171	-0.125
-489.493	-200.000	0.011	0.144
-488.478	-193.970	-0.387	-0.004
-487.464	800.000	-0.111	0.426
-486.449	-123.651	-0.550	-0.112
-485.435	-56.373	0.525	-0.301
-484.420	-55.758	0.226	-0.130
-483.405	-82.998	-0.294	0.122
-482.391	-23.927	0.045	-0.035
-481.376	19.796	0.430	-0.448
-480.362	-139.293	-0.167	-0.023
-479.347	455.483	-0.084	0.242
-478.332	-62.417	0.192	0.103
-477.318	-72.711	0.520	-0.247
-476.303	-200.000	-0.048	-0.379
-475.289	-200.000	0.027	0.187
-474.274	338.219	-0.158	-0.399
-473.259	-153.890	0.458	0.040
-472.245	-35.932	0.172	-0.120
-471.230	800.000	-0.156	-0.581
-470.216	-119.824	-0.470	0.104
-469.201	-75.353	0.050	0.023
-468.186	96.196	-0.175	0.259
-467.172	-150.693	-0.173	-0.017
-466.157	800.000	0.206	0.855
-465.143	-112.833	-0.202	-0.051
-464.128	91.265	-0.128	-0.186
-463.113	50.182	-0.208	-0.254
-462.099	-55.543	-0.321	-0.185
-461.084	-200.000	0.034	0.482
-460.070	39.041	0.016	-0.019
-459.055	-135.129	0.477	-0.074
-458.040	-116.498	0.507	-0.120
-457.026	-159.875	-0.550	-0.038
-456.011	-58.840	-0.078	0.043
-454.997	-45.978	0.264	-0.168
-453.982	84.296	-0.114	-0.161
-452.968	-119.712	-0.308	0.068
-451.953	-68.694	-0.432	-0.215
-450.938	33.827	0.321	-0.361
-449.924	157.181	-0.238	0.427
-448.909	800.000	0.081	-0.306
-447.895	-70.303	0.262	0.128
-446.880	268.995	0.150	0.341
-445.865	-200.000	-0.022	0.570
-444.851	118.516	0.194	0.309
-443.836	-200.000	-0.024	-0.178
-442.822	-39.856	-0.205	-0.138
-441.807	787.634	-0.056	-0.200
-440.792	-96.947	0.412	-0.139
-439.778	-117.816	0.366	-0.084
-438.763	126.168	-0.206	-0.337
-437.749	-149.295	0.323	0.033
-436.734	506.332	0.090	0.272
-435.719	-26.809	0.329	-0.248
-434.705	-124.717	-0.132	-0.026
-433.690	800.000	-0.017	0.082
-432.676	-50.164	0.454	0.276
-431.661	-88.123	0.276	-0.106
-430.646	304.280	-0.086	0.208
-429.632	-143.722	0.449	-0.054
-428.617	-110.309	0.387	-0.103
-427.603	-100.788	-0.526	0.166
-426.588	449.863	-0.056	-0.160
-425.573	2.298	0.115	-0.107
-424.559	1.752	0.514	-0.478
-423.544	-142.150	0.598	0.076
-422.530	-111.388	0.097	0.025
-421.515	-200.000	-0.017	0.359
-420.500	102.421	0.256	0.387
-419.486	-200.000	0.496	0.002
-418.471	291.262	-0.138	0.325
-417.457	649.066	-0.069	-0.228
-416.442	28.853	-0.259	-0.283
-415.428	-3.791	-0.050	-0.045
-414.413	800.000	0.087	-0.486
-413.398	40.566	-0.083	0.097
-412.384	-182.020	-0.457	-0.011
-411.369	-124.587	0.543	0.108
-410.355	-151.914	0.329	-0.031
-409.340	17.077	0.105	-0.108
-408.325	-183.691	0.292	-0.006
-407.311	800.000	-0.079	-0.363
-406.296	800.000	0.077	-0.358
-405.282	800.000	-0.051	0.274
-404.267	-84.841	-0.398	-0.160
-403.252	-67.674	0.291	0.146
-402.238	-21.384	0.175	-0.137
-401.223	-127.717	-0.249	-0.046
-400.209	-44.449	-0.434	0.279
-399.194	-200.000	0.036	0.251
-398.179	-141.918	0.409	-0.052
-397.165	12.123	0.494	0.490
-396.150	-76.595	0.224	0.101
-395.136	800.000	-0.107	0.408
-394.121	-176.953	-0.659	0.021
-393.106	259.463	0.184	0.411
-392.092	-141.479	0.171	0.022
-391.077	-111.391	-0.400	0.104
-390.063	303.053	-0.092	0.221
-389.048	800.000	-0.008	0.043
-388.033	77.725	0.107	0.147
-387.019	-4.251	0.285	0.254
-386.004	-42.247	-0.293	0.192
-384.990	-149.028	0.094	-0.010
-383.975	-172.983	0.087	0.003
-382.960	800.000	0.056	-0.235
-381.946	-157.395	0.180	0.014
-380.931	81.034	-0.117	-0.164
-379.917	140.580	0.261	0.446
-378.902	-95.176	-0.123	0.043
-377.888	52.588	0.244	-0.301
-376.873	-60.414	-0.300	0.164
-375.858	800.000	-0.073	-0.264
-374.844	-73.033	0.295	0.139
-373.829	-97.401	0.368	-0.123
-372.815	-187.642	0.546	0.009
-371.800	412.414	0.103	0.282
-370.785	-200.000	-0.035	0.318
-369.771	-83.855	0.297	0.121
-368.756	85.667	0.138	-0.196
-367.742	5.981	0.221	0.210
-366.727	800.000	-0.068	-0.386
-365.712	242.118	-0.131	0.282
-364.698	315.188	0.139	-0.340
-363.683	-98.366	-0.434	-0.143
-362.669	-131.200	-0.913	0.155
-361.654	-82.511	0.245	0.102
-360.639	-188.359	0.205	-0.003
-359.625	-40.312	-0.078	-0.052
-358.610	-77.522	-0.285	-0.127
-357.596	-70.951	-0.223	-0.108
-356.581	-200.000	0.005	-0.048
-355.566	139.920	0.148	0.252
-354.552	-144.489	-0.375	0.044
-353.537	115.738	0.181	-0.285
-352.523	91.827	-0.062	0.090
-351.508	-171.145	0.221	-0.009
-350.493	283.361	0.204	-0.473
-349.479	-21.548	0.131	-0.102
-348.464	800.000	-0.099	0.402
-347.450	283.764	0.053	0.123
-346.435	443.292	-0.128	0.362
-345.420	63.940	0.150	0.194
-344.406	-23.549	-0.266	-0.205
-343.391	-58.291	0.305	0.170
-342.377	-200.000	0.019	-0.217
-341.362	221.383	-0.159	0.330
-340.348	-19.054	0.118	-0.094
-339.333	800.000	0.064	-0.300
-338.318	-45.692	-0.130	-0.083
-337.304	-28.194	-0.160	0.119
-336.289	266.329	-0.149	0.336
-335.275	115.658	-0.084	-0.132
-334.260	-95.932	-0.327	0.111
-333.245	-172.938	-0.452	0.018
-332.231	-26.601	-0.093	0.070
-331.216	-32.781	-0.061	0.043
-330.202	56.208	-0.148	0.185
-329.187	35.004	0.275	-0.310
-328.172	-120.290	0.338	0.074
-327.158	-2.732	0.313	-0.281
-326.143	800.000	-0.069	0.347
-325.129	800.000	0.048	-0.243
-324.114	486.870	-0.099	-0.293
-323.099	611.209	-0.097	-0.314
-322.085	800.000	0.081	-0.331
-321.070	-99.740	-0.167	0.053
-320.056	-105.715	-0.107	0.031
-319.041	800.000	0.096	0.386
-318.026	-74.266	0.335	0.155
-317.012	-132.871	-0.295	0.048
-315.997	-123.430	0.261	-0.053
-314.983	-134.465	0.338	0.053
-313.968	800.000	0.062	-0.226
-312.953	-200.000	-0.034	0.385
-311.939	10.290	-0.157	0.153
-310.924	34.266	0.034	-0.039
-309.910	136.418	0.266	-0.447
-308.895	-25.154	-0.480	-0.365
-307.880	-92.473	-0.616	-0.221
-306.866	800.000	0.016	-0.080
-305.851	-76.266	-0.387	-0.175
-304.837	800.000	-0.083	0.417
-303.822	800.000	0.039	0.196
-302.807	-117.604	-0.296	0.068
-301.793	-54.938	-0.462	0.267
-300.778	-29.196	-0.190	0.139
-299.764	355.387	0.110	0.284
-298.749	-200.000	-0.035	0.268
-297.735	-200.000	0.013	0.405
-296.720	-168.099	0.357	0.018
-295.705	-100.042	0.179	-0.057
-294.691	-200.000	-0.009	-0.304
-293.676	43.896	0.189	0.222
-292.662	-17.419	-0.331	-0.267
-291.647	-24.860	0.105	0.080
-290.632	308.276	-0.104	-0.250
-289.618	75.427	0.208	0.282
-288.603	657.288	-0.093	0.308
-287.589	-51.780	-0.313	0.187
-286.574	-60.361	-0.282	0.154
-285.559	159.831	0.151	0.271
-284.545	-61.899	0.169	0.091
-283.530	260.726	0.157	0.350
-282.516	30.546	-0.196	0.215
-281.501	49.412	-0.214	0.259
-280.486	-164.871	0.466	-0.026
-279.472	-8.706	-0.248	0.214
-278.457	346.700	-0.248	-0.628
-277.443	-200.000	0.025	-0.598
-276.428	800.000	0.128	0.495
-275.413	-12.073	0.087	0.073
-274.399	-115.184	-0.571	0.138
-273.384	-200.000	-0.005	-0.061
-272.370	-200.000	0.023	0.174
-271.355	-177.519	0.247	0.008
-270.340	-63.247	0.060	-0.032
-269.326	-133.978	-0.277	0.044
-268.311	-200.000	-0.003	0.211
-267.297	-47.241	-0.153	0.095
-266.282	-72.611	-0.318	-0.150
-265.267	4.677	-0.118	-0.111
-264.253	-105.739	0.446	-0.129
-263.238	-118.127	-0.098	-0.022
-262.224	156.528	-0.329	0.585
-261.209	-115.833	-0.308	-0.073
-260.195	243.023	-0.269	0.581
-259.180	54.142	0.051	0.063
-258.165	-10.195	0.251	0.213
-257.151	140.960	0.260	0.441
-256.136	215.682	-0.071	0.145
-255.122	-107.341	0.347	0.097
-254.107	-124.430	0.330	-0.065
-253.092	-13.669	0.277	-0.230
-252.078	-200.000	-0.006	-0.457
-251.063	-102.774	0.323	0.098
-250.049	-42.299	-0.182	0.119
-249.034	-115.640	-0.337	0.080
-248.019	-200.000	0.028	0.178
-247.005	-143.921	-0.370	0.044
-245.990	-9.091	0.323	-0.277
-244.976	-159.956	0.353	0.024
-243.961	800.000	-0.092	0.445
-242.946	-200.000	-0.045	-0.362
-241.932	-200.000	0.054	0.331
-240.917	54.040	-0.058	-0.071
-239.903	-200.000	0.044	-0.469
-238.888	-16.211	0.021	-0.017
-237.873	-177.035	0.398	-0.013
-236.859	651.845	-0.111	-0.368
-235.844	800.000	0.052	0.188
-234.830	-83.266	-0.541	-0.221
-233.815	341.172	-0.175	-0.440
-232.800	170.396	0.327	0.602
-231.786	81.301	-0.204	-0.283
-230.771	-141.877	-0.221	0.028
-229.757	156.845	0.101	-0.179
-228.742	800.000	-0.123	-0.493
-227.727	-39.708	-0.612	-0.409
-226.713	-119.756	0.139	0.031
-225.698	-102.581	0.148	0.045
-224.684	72.713	-0.089	0.120
-223.669	-61.006	0.389	0.210
-222.655	236.800	0.137	-0.292
-221.640	43.560	0.127	-0.149
-220.625	-39.658	0.284	-0.190
-219.611	-200.000	0.004	0.075
-218.596	-122.283	0.819	0.170
-217.582	-58.574	0.031	0.017
-216.567	-41.071	0.166	0.110
-215.552	651.668	-0.170	0.561
-214.538	-4.602	-0.084	0.074
-213.523	118.857	-0.107	0.170
-212.509	-200.000	0.003	-0.625
-211.494	334.783	0.175	-0.436
-210.479	800.000	0.065	-0.331
-209.465	-57.896	-0.364	-0.203
-208.450	197.515	0.090	0.176
-207.436	165.002	0.028	0.050
-206.421	-60.858	-0.464	0.250
-205.406	-48.610	0.065	-0.040
-204.392	167.346	0.138	-0.251
-203.377	638.665	0.067	0.218
-202.363	39.148	0.178	0.204
-201.348	658.389	0.096	-0.318
-200.333	-125.617	-0.377	-0.073
-199.319	-70.948	-0.358	-0.172
-198.304	50.260	-0.193	0.233
-197.290	-200.000	0.015	0.273
-196.275	203.816	-0.026	0.052
-195.260	-0.017	-0.264	0.240
-194.246	-84.334	-0.429	0.173
-193.231	-200.000	0.052	-0.435
-192.217	105.394	-0.281	0.426
-191.202	70.989	-0.200	-0.266
-190.187	-200.000	0.020	-0.151
-189.173	-200.000	0.042	-0.363
-188.158	-200.000	0.026	-0.332
-187.144	-68.735	0.278	0.137
-186.129	92.600	-0.251	0.363
-185.114	-200.000	0.339	-0.002
-184.100	-155.445	0.565	0.046
-183.085	463.428	0.160	-0.459
-182.071	-83.978	-0.087	-0.035
-181.056	-93.103	0.631	-0.224
-180.042	-97.612	0.576	-0.190
-179.027	197.358	-0.135	-0.264
-178.012	-52.508	0.106	-0.063
-176.998	219.633	0.196	0.402
-175.983	-88.949	-0.601	-0.226
-174.969	311.231	-0.093	0.224
-173.954	-42.167	0.254	0.165
-172.939	-200.000	0.039	0.231
-171.925	-91.455	-0.505	0.183
-170.910	-140.957	-0.115	-0.015
-169.896	552.945	0.077	-0.239
-168.881	141.594	0.120	-0.203
-167.866	-128.980	0.176	-0.031
-166.852	400.042	-0.070	-0.190
-165.837	-11.893	-0.244	-0.204
-164.823	126.999	-0.191	0.310
-163.808	41.116	0.252	-0.291
-162.793	34.614	0.063	0.070
-161.779	140.176	0.140	0.236
-160.764	-200.000	-0.045	-0.391
-159.750	-73.870	-0.338	-0.156
-158.735	-102.746	-0.224	-0.068
-157.720	-200.000	-0.038	-0.725
-156.706	71.605	-0.154	0.205
-155.691	198.804	0.229	0.449
-154.677	-112.580	0.067	-0.017
-153.662	-52.478	-0.031	0.018
-152.647	256.452	-0.160	-0.352
-151.633	-119.515	-0.140	0.031
-150.618	-200.000	-0.002	0.731
-149.604	430.396	0.202	0.560
-148.589	-76.878	0.257	0.114
-147.574	-96.336	-0.737	0.248
-146.560	-200.000	-0.024	0.369
-145.545	184.117	-0.188	-0.356
-144.531	-200.000	-0.021	0.184
-143.516	179.028	-0.075	0.141
-142.502	-60.580	-0.362	0.196
-141.487	318.499	-0.091	-0.221
-140.472	18.782	0.512	-0.523
-139.458	800.000	-0.028	-0.108
-138.443	-25.854	-0.135	-0.101
-137.429	-200.000	-0.040	-0.333
-136.414	-109.007	0.315	0.085
-135.399	-200.000	-0.358	-0.002
-134.385	-147.639	0.086	-0.009
-133.370	-159.192	0.500	0.035
-132.356	231.260	0.179	0.375
-131.341	-200.000	-0.016	-0.149
-130.326	61.060	0.067	0.085
-129.312	-166.818	-0.469	0.024
-128.297	144.750	-0.171	0.292
-127.283	800.000	-0.065	-0.288
-126.268	-20.806	-0.058	-0.046
-125.253	1.336	-0.380	-0.348
-124.239	800.000	-0.031	0.169
-123.224	189.020	0.396	-0.759
-122.210	752.805	-0.083	0.288
