DTS Sentinel unit serial number:	SN409020Multiplexer serial number:	ORYXHardware model number:	OX4-SRSoftware version number:	ORYX F/W v3.00 Oryx Data Collector v3.7.2.0data status	okinstallation	HaddamTimeLapsedifferential loss correction	single-endedforward channel	channel 3reverse channel	N/Adate	2011/06/21time	17:31:16forward acquisition time	30.00reverse acquisition time	0.00gamma	498.7831k internal	0.1820k external	0.1820temperature offset calibration	1.0074default loss term (dB/km)	0.3790temperature slope calibration	1.3530multiplexer offset coefficient	1.0000multiplexer slope coefficient	1.0000fibre end	0.00T internal ref (°C)	34.25T ext. ref 1 (°C)	29.48T ext. ref 2 (°C)	0.26length (m)	temperature (°C)	Stokes	anti-Stokes-747.200	38.610	0.389	-0.444
-746.185	197.250	0.168	0.329
-745.171	-195.106	-0.520	0.005
-744.156	56.918	0.282	0.351
-743.142	75.094	-0.252	-0.340
-742.127	-69.532	0.465	0.227
-741.112	-114.069	0.327	0.080
-740.098	24.878	0.636	0.673
-739.083	236.461	-0.238	0.506
-738.069	25.806	0.445	0.474
-737.054	-98.860	-0.291	-0.094
-736.039	32.594	-0.225	0.249
-735.025	308.211	0.078	-0.186
-734.010	169.169	-0.252	-0.461
-732.996	29.152	-0.312	-0.339
-731.981	-29.108	0.400	-0.292
-730.966	41.154	-0.130	-0.150
-729.952	-71.655	0.369	-0.175
-728.937	-81.787	0.175	0.073
-727.923	-172.748	-0.575	0.023
-726.908	-200.000	0.016	0.199
-725.894	-200.000	0.021	0.192
-724.879	800.000	0.001	-0.005
-723.864	-78.364	0.182	0.079
-722.850	-22.929	0.240	-0.184
-721.835	-70.557	0.299	-0.144
-720.821	-99.338	-0.239	-0.077
-719.806	312.235	-0.036	0.086
-718.791	98.811	0.118	-0.175
-717.777	107.746	-0.120	0.183
-716.762	313.962	-0.033	-0.081
-715.748	800.000	-0.116	0.542
-714.733	-97.502	0.176	-0.058
-713.718	281.998	0.120	-0.276
-712.704	-200.000	0.034	-0.242
-711.689	34.475	-0.152	-0.170
-710.675	373.557	-0.104	0.272
-709.660	-21.879	-0.081	0.063
-708.645	-147.998	0.148	0.015
-707.631	-200.000	-0.023	0.143
-706.616	-186.277	-0.419	-0.008
-705.602	102.036	0.172	-0.257
-704.587	-45.930	0.173	-0.109
-703.572	800.000	0.058	-0.301
-702.558	-50.937	0.257	0.153
-701.543	-84.667	0.343	0.137
-700.529	-200.000	0.002	0.027
-699.514	-66.420	-0.299	-0.151
-698.499	-135.769	-0.364	0.054
-697.485	6.922	0.142	-0.135
-696.470	565.779	0.029	-0.090
-695.456	58.745	-0.117	-0.147
-694.441	800.000	-0.013	-0.048
-693.426	285.550	-0.082	-0.189
-692.412	65.761	-0.358	0.463
-691.397	165.059	-0.324	0.584
-690.383	-200.000	-0.011	-0.083
-689.368	8.014	-0.070	-0.067
-688.354	7.621	0.285	0.272
-687.339	-135.263	0.767	-0.116
-686.324	207.448	0.027	-0.054
-685.310	-70.070	0.352	-0.170
-684.295	29.085	0.149	-0.162
-683.281	-105.008	-0.131	-0.038
-682.266	-4.917	0.094	-0.082
-681.251	-76.686	-0.424	0.189
-680.237	622.062	0.061	0.197
-679.222	21.538	0.244	-0.253
-678.208	-91.192	0.361	-0.131
-677.193	-191.787	0.389	-0.005
-676.178	-200.000	-0.035	0.351
-675.164	210.033	-0.142	-0.285
-674.149	21.222	-0.085	-0.088
-673.135	-200.000	-0.010	-0.074
-672.120	-105.653	0.159	0.046
-671.105	-47.343	-0.222	-0.137
-670.091	-200.000	0.006	0.099
-669.076	70.041	-0.206	0.271
-668.062	-80.844	-0.079	-0.033
-667.047	262.772	-0.070	-0.155
-666.032	-10.490	0.048	0.041
-665.018	-52.740	-0.114	-0.067
-664.003	695.367	-0.172	-0.579
-662.989	14.033	-0.185	0.184
-661.974	-100.869	-0.230	0.072
-660.959	-200.000	-0.023	-0.219
-659.945	239.703	0.257	-0.546
-658.930	-26.805	-0.154	-0.114
-657.916	-100.919	0.403	0.125
-656.901	-109.301	0.317	-0.085
-655.886	800.000	0.054	-0.231
-654.872	-27.395	0.106	-0.078
-653.857	800.000	-0.073	-0.282
-652.843	16.143	0.214	-0.214
-651.828	141.367	0.073	0.124
-650.814	-69.999	-0.247	0.119
-649.799	-26.271	0.350	0.261
-648.784	16.952	-0.204	0.206
-647.770	800.000	0.007	0.037
-646.755	-96.372	0.273	-0.091
-645.741	-152.497	0.550	-0.050
-644.726	-10.084	0.183	0.154
-643.711	639.175	-0.080	0.260
-642.697	-6.120	-0.182	0.158
-641.682	483.583	-0.094	0.275
-640.668	800.000	0.063	0.261
-639.653	-70.614	0.127	0.061
-638.638	595.593	0.199	0.631
-637.624	-114.402	-0.372	0.090
-636.609	67.676	0.176	-0.229
-635.595	-200.000	0.010	0.283
-634.580	-200.000	-0.045	-0.277
-633.565	2.529	-0.365	-0.336
-632.551	-125.936	-0.352	-0.067
-631.536	34.351	-0.222	-0.246
-630.522	-123.251	0.625	0.126
-629.507	-162.335	0.240	-0.015
-628.492	54.347	0.178	0.218
-627.478	-51.978	0.051	0.030
-626.463	13.374	0.216	-0.213
-625.449	800.000	-0.126	-0.592
-624.434	-161.035	-0.328	-0.022
-623.419	711.388	0.111	-0.375
-622.405	-27.526	-0.105	0.077
-621.390	204.512	0.074	-0.146
-620.376	655.950	-0.036	-0.119
-619.361	234.455	0.083	0.174
-618.346	-115.228	-0.534	-0.127
-617.332	-137.540	-0.242	-0.034
-616.317	412.713	-0.155	-0.422
-615.303	6.246	0.101	0.095
-614.288	-85.987	-0.374	-0.146
-613.273	-200.000	0.030	-0.187
-612.259	-147.261	-0.606	0.065
-611.244	-51.667	-0.315	0.186
-610.230	232.736	0.129	0.271
-609.215	-200.000	-0.028	0.208
-608.201	-172.742	-0.413	0.016
-607.186	-49.250	0.294	-0.178
-606.171	-200.000	0.053	-0.479
-605.157	-138.607	-0.283	0.039
-604.142	800.000	-0.115	-0.426
-603.128	-25.634	-0.292	0.219
-602.113	93.161	0.069	0.099
-601.098	-167.450	-0.296	-0.015
-600.084	30.740	0.203	0.221
-599.069	179.677	0.188	0.350
-598.055	500.842	-0.054	0.161
-597.040	-40.215	-0.387	-0.256
-596.025	-39.186	0.341	-0.227
-595.011	-76.101	0.409	-0.183
-593.996	45.661	0.231	-0.271
-592.982	-3.463	0.217	-0.192
-591.967	-172.152	0.238	0.010
-590.952	-78.813	0.181	-0.078
-589.938	234.176	0.153	-0.322
-588.923	-100.516	-0.439	-0.137
-587.909	329.689	-0.035	-0.087
-586.894	-147.289	0.160	0.017
-585.879	-34.025	0.397	-0.277
-584.865	-91.654	0.142	0.051
-583.850	-133.148	0.185	-0.029
-582.836	-139.771	0.169	-0.023
-581.821	113.039	0.205	-0.317
-580.806	800.000	0.086	-0.324
-579.792	-108.771	0.090	0.024
-578.777	-59.752	-0.321	0.174
-577.763	14.215	-0.315	-0.312
-576.748	800.000	-0.138	0.617
-575.733	445.626	-0.158	0.444
-574.719	30.564	0.115	0.125
-573.704	-200.000	0.035	0.467
-572.690	-21.474	0.455	0.351
-571.675	-200.000	-0.027	0.552
-570.661	-70.270	0.093	-0.045
-569.646	-147.890	-0.464	-0.049
-568.631	-94.189	-0.369	-0.128
-567.617	-124.786	0.132	0.026
-566.602	800.000	-0.148	-0.630
-565.588	56.510	-0.277	-0.342
-564.573	-108.460	0.498	-0.135
-563.558	-57.065	-0.097	-0.054
-562.544	-146.982	-0.304	0.033
-561.529	431.652	-0.113	-0.312
-560.515	-2.412	0.525	0.466
-559.500	800.000	0.101	0.447
-558.485	-34.725	0.185	0.128
-557.471	-137.416	-0.193	0.028
-556.456	89.295	-0.145	-0.206
-555.442	-99.150	0.521	-0.166
-554.427	194.655	0.020	-0.039
-553.412	-21.028	-0.278	-0.215
-552.398	-100.729	0.248	0.077
-551.383	-78.429	-0.290	-0.125
-550.369	800.000	-0.098	0.387
-549.354	113.592	-0.354	0.547
-548.339	-45.650	-0.391	0.245
-547.325	63.276	-0.398	-0.507
-546.310	38.992	-0.453	-0.513
-545.296	-103.013	-0.098	-0.029
-544.281	-110.858	-0.187	-0.049
-543.266	-116.145	-0.352	-0.082
-542.252	-200.000	0.068	-0.499
-541.237	-46.299	0.417	0.259
-540.223	164.895	0.138	0.247
-539.208	-68.196	0.293	-0.144
-538.193	141.489	-0.103	0.174
-537.179	-115.966	0.180	-0.042
-536.164	-57.299	0.456	0.253
-535.150	125.607	0.157	-0.252
-534.135	-56.206	0.455	-0.256
-533.121	-21.372	-0.182	-0.140
-532.106	800.000	0.094	0.353
-531.091	58.565	0.100	-0.124
-530.077	-68.239	-0.325	0.160
-529.062	-78.939	0.028	-0.012
-528.048	-17.029	0.228	0.182
-527.033	274.400	-0.046	-0.104
-526.018	-90.839	-0.511	-0.186
-525.004	-8.564	0.122	0.104
-523.989	6.987	-0.109	0.103
-522.975	-22.033	-0.270	0.207
-521.960	-123.214	-0.191	-0.038
-520.945	-200.000	0.090	0.545
-519.931	-46.182	-0.226	0.141
-518.916	-200.000	0.038	-0.498
-517.902	-29.781	-0.177	-0.127
-516.887	-200.000	0.038	0.267
-515.872	-200.000	0.057	0.366
-514.858	-95.955	-0.414	0.139
-513.843	574.126	0.215	-0.668
-512.829	-131.847	0.287	-0.047
-511.814	-97.384	-0.215	-0.070
-510.799	-70.548	-0.491	0.235
-509.785	-200.000	0.005	0.233
-508.770	-200.000	0.001	-0.206
-507.756	260.195	-0.058	-0.127
-506.741	127.734	0.089	0.143
-505.726	-200.000	-0.065	0.391
-504.712	20.725	-0.272	-0.279
-503.697	357.402	-0.179	0.455
-502.683	-200.000	-0.004	0.209
-501.668	800.000	0.063	-0.238
-500.653	106.719	-0.148	0.222
-499.639	-180.347	-0.452	-0.012
-498.624	-200.000	0.067	-0.383
-497.610	-200.000	-0.022	-0.417
-496.595	-71.366	0.232	0.110
-495.581	-28.939	-0.088	-0.064
-494.566	800.000	-0.078	-0.306
-493.551	436.074	-0.045	0.125
-492.537	800.000	0.120	0.452
-491.522	-47.621	0.258	0.158
-490.508	12.721	-0.119	0.116
-489.493	-200.000	0.005	0.255
-488.478	-123.194	0.490	-0.098
-487.464	-112.446	0.203	0.051
-486.449	-142.703	0.422	0.052
-485.435	85.874	-0.220	0.307
-484.420	-148.983	-0.075	-0.008
-483.405	-200.000	-0.019	0.293
-482.391	-172.386	0.474	0.019
-481.376	-129.787	0.215	-0.037
-480.362	-17.121	-0.299	-0.238
-479.347	372.703	-0.099	0.256
-478.332	-104.150	-0.257	-0.075
-477.318	-13.899	0.114	-0.093
-476.303	800.000	0.062	0.267
-475.289	-59.373	-0.167	-0.090
-474.274	113.292	0.331	-0.509
-473.259	204.297	0.082	0.161
-472.245	-30.747	0.217	0.155
-471.230	-104.783	-0.287	-0.083
-470.216	-200.000	0.021	0.179
-469.201	-65.693	0.398	0.201
-468.186	-67.024	-0.479	-0.238
-467.172	56.621	-0.169	0.208
-466.157	17.161	-0.161	0.161
-465.143	105.714	-0.182	-0.273
-464.128	-162.743	0.335	-0.020
-463.113	-59.722	0.037	0.020
-462.099	51.831	0.201	-0.242
-461.084	-177.619	-0.454	-0.014
-460.070	29.830	-0.026	-0.028
-459.055	800.000	-0.107	0.377
-458.040	43.268	-0.135	0.155
-457.026	800.000	0.084	0.309
-456.011	-68.126	-0.626	-0.307
-454.997	707.548	0.030	-0.101
-453.982	-6.158	-0.039	-0.034
-452.968	-200.000	0.001	0.234
-451.953	800.000	0.018	-0.082
-450.938	-72.967	-0.124	-0.057
-449.924	278.644	0.090	-0.203
-448.909	28.954	-0.301	-0.322
-447.895	800.000	0.136	-0.483
-446.880	800.000	0.013	-0.056
-445.865	-90.877	0.392	-0.142
-444.851	-23.160	0.270	-0.205
-443.836	-10.050	-0.222	-0.186
-442.822	-17.699	-0.117	0.093
-441.807	-149.892	-0.447	-0.044
-440.792	628.664	0.034	-0.109
-439.778	72.623	-0.050	-0.066
-438.763	-153.807	-0.528	0.045
-437.749	-73.732	-0.093	0.042
-436.734	-200.000	-0.017	-0.193
-435.719	-175.539	0.347	0.012
-434.705	-101.636	-0.421	-0.128
-433.690	49.044	0.413	-0.490
-432.676	-82.528	-0.222	-0.090
-431.661	-84.919	-0.174	0.069
-430.646	-102.444	0.254	-0.076
-429.632	-124.458	-0.230	-0.045
-428.617	326.118	0.257	-0.625
-427.603	507.405	0.181	-0.532
-426.588	-200.000	-0.061	0.360
-425.573	145.698	0.129	0.218
-424.559	-44.018	-0.086	0.055
-423.544	800.000	0.084	0.418
-422.530	-68.723	-0.044	0.021
-421.515	295.025	0.015	-0.034
-420.500	44.688	0.283	-0.329
-419.486	-117.208	0.386	0.088
-418.471	606.182	0.065	0.206
-417.457	33.637	0.250	-0.275
-416.442	-200.000	0.013	-0.078
-415.428	177.236	0.082	-0.151
-414.413	-200.000	0.031	-0.284
-413.398	148.521	-0.014	0.024
-412.384	-200.000	0.033	0.500
-411.369	439.638	-0.123	0.340
-410.355	-200.000	0.021	-0.117
-409.340	-164.100	0.160	-0.009
-408.325	-75.062	-0.387	-0.174
-407.311	-200.000	-0.855	0.002
-406.296	429.900	-0.174	-0.477
-405.282	-56.159	0.243	-0.136
-404.267	800.000	0.052	0.184
-403.252	-150.256	-0.238	-0.023
-402.238	-49.163	-0.570	0.343
-401.223	250.718	0.170	-0.365
-400.209	187.677	-0.226	0.426
-399.194	-200.000	-0.026	-0.366
-398.179	800.000	-0.096	0.409
-397.165	79.567	-0.131	0.178
-396.150	-165.320	0.157	0.009
-395.136	-200.000	0.011	0.319
-394.121	-152.850	-0.329	0.029
-393.106	24.962	0.184	0.192
-392.092	43.143	-0.286	0.329
-391.077	-122.744	-0.220	0.044
-390.063	800.000	-0.066	-0.237
-389.048	-131.306	-0.380	0.063
-388.033	-180.383	-0.204	0.005
-387.019	-141.643	-0.088	-0.011
-386.004	-200.000	-0.024	-0.173
-384.990	12.586	0.190	-0.185
-383.975	257.629	-0.107	-0.234
-382.960	-65.891	-0.145	0.073
-381.946	800.000	0.079	0.315
-380.931	-34.730	-0.285	-0.196
-379.917	-200.000	-0.017	-0.392
-378.902	27.336	0.319	-0.337
-377.888	92.689	0.311	-0.443
-376.873	-109.776	0.367	-0.096
-375.858	-148.604	0.269	0.027
-374.844	800.000	-0.081	0.318
-373.829	160.218	-0.214	-0.378
-372.815	-200.000	0.014	0.197
-371.800	162.301	-0.093	-0.164
-370.785	-56.742	0.060	-0.034
-369.771	-116.446	0.592	-0.137
-368.756	7.886	0.234	-0.221
-367.742	56.451	0.178	-0.218
-366.727	51.510	-0.266	0.319
-365.712	-32.573	0.027	-0.019
-364.698	544.592	-0.047	0.143
-363.683	64.134	0.240	-0.304
-362.669	-102.049	-0.363	-0.109
-361.654	-110.950	-0.290	-0.075
-360.639	160.268	-0.207	0.365
-359.625	264.512	0.115	0.254
-358.610	362.677	-0.147	0.372
-357.596	6.226	-0.107	0.099
-356.581	-200.000	-0.003	0.092
-355.566	-200.000	0.013	0.383
-354.552	-71.334	0.263	-0.124
-353.537	218.937	0.144	-0.292
-352.523	-5.777	-0.304	0.262
-351.508	216.253	0.274	0.550
-350.493	-200.000	0.086	0.506
-349.479	782.203	-0.054	-0.188
-348.464	-33.638	0.055	-0.038
-347.450	-53.331	0.272	-0.157
-346.435	325.671	-0.077	-0.185
-345.420	-57.321	0.108	-0.059
-344.406	80.500	0.171	-0.232
-343.391	519.190	0.188	-0.558
-342.377	587.328	0.147	0.459
-341.362	-200.000	-0.013	0.347
-340.348	194.555	0.089	-0.170
-339.333	96.550	-0.209	-0.302
-338.318	-120.837	0.246	0.052
-337.304	230.127	-0.059	0.121
-336.289	37.355	-0.158	0.176
-335.275	-26.068	-0.299	0.221
-334.260	-14.414	-0.189	0.153
-333.245	143.667	-0.106	0.177
-332.231	-106.351	0.159	-0.044
-331.216	338.472	-0.072	0.176
-330.202	49.720	-0.347	0.412
-329.187	182.783	0.052	-0.096
-328.172	-49.573	0.215	0.129
-327.158	535.467	-0.064	0.193
-326.143	-200.000	-0.002	-0.146
-325.129	-82.940	-0.570	-0.230
-324.114	88.204	0.309	0.431
-323.099	479.116	0.050	0.143
-322.085	-200.000	-0.032	0.183
-321.070	-114.959	-0.089	0.021
-320.056	36.945	-0.234	-0.260
-319.041	-200.000	-0.019	0.126
-318.026	-149.667	0.389	-0.038
-317.012	-106.155	0.609	0.171
-315.997	-81.882	0.175	0.071
-314.983	-40.419	-0.568	-0.370
-313.968	800.000	-0.151	-0.587
-312.953	-200.000	0.136	-0.000
-311.939	264.290	-0.092	-0.203
-310.924	51.804	0.131	-0.157
-309.910	-87.860	-0.303	0.114
-308.895	80.391	-0.127	0.172
-307.880	-44.940	-0.372	0.232
-306.866	-170.039	-0.142	0.006
-305.851	-156.158	-0.255	0.020
-304.837	-35.395	-0.321	0.218
-303.822	-167.101	-0.422	0.021
-302.807	800.000	-0.207	0.724
-301.793	-132.501	-0.347	0.056
-300.778	-178.306	0.330	0.010
-299.764	485.104	-0.111	-0.320
-298.749	40.767	-0.236	-0.268
-297.735	35.794	-0.210	0.232
-296.720	800.000	0.052	-0.200
-295.705	-7.994	-0.391	0.331
-294.691	19.839	0.390	0.395
-293.676	-11.671	0.389	0.321
-292.662	-176.480	-0.626	-0.020
-291.647	-161.214	0.228	-0.015
-290.632	129.682	-0.131	-0.211
-289.618	66.257	-0.099	-0.126
-288.603	-11.862	0.207	-0.170
-287.589	-200.000	0.016	-0.090
-286.574	279.248	0.169	0.380
-285.559	-200.000	0.044	0.271
-284.545	-78.304	0.077	-0.033
-283.530	485.968	-0.156	-0.450
-282.516	-131.823	-0.389	-0.063
-281.501	800.000	0.056	-0.267
-280.486	-6.289	0.076	0.065
-279.472	-117.108	0.517	0.117
-278.457	-200.000	-0.001	0.085
-277.443	800.000	-0.072	-0.328
-276.428	34.570	0.106	-0.116
-275.413	-128.059	0.413	0.074
-274.399	1.416	0.068	0.062
-273.384	-99.997	-0.451	-0.140
-272.370	-164.719	-0.435	-0.024
-271.355	-39.520	0.232	0.152
-270.340	33.000	0.121	-0.132
-269.326	-0.109	0.213	0.190
-268.311	84.588	0.236	0.325
-267.297	22.628	-0.242	-0.249
-266.282	-51.758	-0.123	-0.071
-265.267	-49.440	0.196	-0.117
-264.253	389.570	0.190	0.497
-263.238	132.719	0.102	0.166
-262.224	-111.986	0.455	0.114
-261.209	194.978	-0.101	0.193
-260.195	-200.000	-0.016	-0.486
-259.180	-140.098	0.670	0.087
-258.165	518.670	0.090	-0.267
-257.151	800.000	-0.035	0.146
-256.136	-200.000	0.061	-0.370
-255.122	159.574	-0.279	0.489
-254.107	-19.527	0.195	-0.151
-253.092	-9.958	-0.212	0.177
-252.078	-200.000	-0.020	0.495
-251.063	800.000	0.147	0.686
-250.049	-50.131	-0.266	-0.158
-249.034	411.211	0.133	0.355
-248.019	-114.409	0.361	0.086
-247.005	-18.793	-0.334	-0.261
-245.990	250.977	0.172	0.369
-244.976	-40.166	-0.030	0.019
-243.961	-23.161	0.283	-0.213
-242.946	14.086	0.103	-0.100
-241.932	-200.000	0.082	-0.529
-240.917	-112.380	0.372	0.093
-239.903	-181.583	-0.297	-0.007
-238.888	244.623	0.140	-0.296
-237.873	-56.223	0.538	0.299
-236.859	800.000	0.080	0.417
-235.844	-104.679	-0.626	0.180
-234.830	800.000	-0.013	0.069
-233.815	238.237	-0.163	0.340
-232.800	134.187	0.198	0.322
-231.786	-77.130	0.521	-0.226
-230.771	-200.000	-0.009	0.525
-229.757	19.777	0.215	0.216
-228.742	-5.986	0.143	0.122
-227.727	-91.867	-0.275	-0.097
-226.713	14.840	0.090	-0.088
-225.698	-140.684	-0.053	0.007
-224.684	800.000	-0.103	0.377
-223.669	-29.641	0.286	-0.204
-222.655	121.066	0.157	0.245
-221.640	-96.177	0.448	0.148
-220.625	44.010	-0.169	0.194
-219.611	96.486	-0.258	-0.370
-218.596	-161.376	0.330	-0.021
-217.582	136.591	-0.123	-0.201
-216.567	-111.594	-0.074	0.019
-215.552	-50.322	0.288	0.170
-214.538	3.879	0.196	-0.179
-213.523	-200.000	0.030	0.357
-212.509	-59.778	-0.143	0.076
-211.494	112.440	0.158	0.240
-210.479	429.499	0.029	0.078
-209.465	-55.638	0.230	-0.129
-208.450	495.198	0.074	0.215
-207.436	13.571	-0.120	-0.117
-206.421	800.000	-0.034	-0.132
-205.406	103.144	0.071	-0.104
-204.392	320.428	-0.155	-0.371
-203.377	61.379	-0.167	0.207
-202.363	-117.814	-0.225	0.050
-201.348	183.044	0.148	0.273
-200.333	-174.965	-0.201	-0.007
-199.319	8.282	-0.281	-0.264
-198.304	-137.914	0.264	0.037
-197.290	-200.000	0.014	-0.404
-196.275	-200.000	-0.052	-0.385
-195.260	-200.000	-0.037	-0.355
-194.246	188.680	-0.096	0.180
-193.231	173.396	0.028	-0.051
-192.217	267.151	-0.199	-0.437
-191.202	-126.584	0.140	-0.026
-190.187	691.266	0.108	-0.355
-189.173	-65.277	0.266	-0.133
-188.158	-5.490	0.178	0.153
-187.144	-44.859	0.892	-0.554
-186.129	348.892	-0.117	-0.291
-185.114	-96.016	-0.209	-0.069
-184.100	129.040	-0.213	-0.341
-183.085	-67.894	0.477	-0.232
-182.071	15.048	-0.122	0.120
-181.056	285.195	-0.255	0.577
-180.042	-81.639	0.292	0.119
-179.027	-114.648	0.160	-0.038
-178.012	-200.000	-0.011	-0.314
-176.998	-200.000	0.026	0.207
-175.983	73.183	0.268	-0.351
-174.969	11.074	0.080	-0.076
-173.954	166.010	0.218	-0.386
-172.939	131.109	0.178	-0.286
-171.925	-47.937	0.318	0.192
-170.910	-60.423	0.385	0.204
-169.896	-18.441	0.149	0.116
-168.881	-37.540	-0.122	-0.081
-167.866	-200.000	0.025	-0.163
-166.852	-155.871	0.212	0.017
-165.837	800.000	0.088	0.342
-164.823	-64.447	0.252	-0.128
-163.808	139.344	0.207	0.342
-162.793	499.362	-0.092	0.265
-161.779	52.198	-0.271	-0.323
-160.764	54.651	-0.261	-0.315
-159.750	180.390	0.214	-0.394
-158.735	800.000	0.057	-0.274
-157.720	-200.000	0.003	-0.137
-156.706	800.000	-0.057	-0.292
-155.691	-200.000	0.018	0.465
-154.677	-91.255	0.345	0.123
-153.662	280.988	-0.160	-0.359
-152.647	-13.540	-0.126	0.102
-151.633	6.990	0.083	0.077
-150.618	686.816	-0.051	-0.166
-149.604	50.439	-0.176	-0.207
-148.589	-41.516	-0.491	-0.315
-147.574	-200.000	-0.044	-0.315
-146.560	-76.664	0.185	0.081
-145.545	-94.536	-0.306	-0.104
-144.531	-15.663	-0.237	0.188
-143.516	100.782	-0.078	-0.114
-142.502	27.549	-0.062	-0.065
-141.487	-200.000	0.040	0.468
-140.472	521.785	0.081	0.237
-139.458	72.201	0.230	0.299
-138.443	109.601	0.133	-0.199
-137.429	224.110	0.118	0.240
-136.414	-50.916	-0.299	-0.175
-135.399	-79.054	0.388	-0.164
-134.385	-200.000	0.223	0.000
-133.370	-60.893	-0.074	0.039
-132.356	223.036	-0.108	-0.217
-131.341	-84.605	0.093	0.037
-130.326	-53.693	0.413	-0.235
-129.312	-60.738	0.045	0.024
-128.297	-36.170	0.165	0.111
-127.283	215.492	-0.178	-0.354
-126.268	73.965	0.244	0.320
-125.253	48.550	0.265	0.310
-124.239	171.219	-0.045	-0.081
-123.224	800.000	-0.116	-0.454
-122.210	172.791	-0.240	0.432
-121.195	-69.483	-0.613	0.292
