DTS Sentinel unit serial number:	SN409020Multiplexer serial number:	ORYXHardware model number:	OX4-SRSoftware version number:	ORYX F/W v3.00 Oryx Data Collector v3.7.2.0data status	okinstallation	HaddamTimeLapsedifferential loss correction	single-endedforward channel	channel 3reverse channel	N/Adate	2011/06/22time	10:06:17forward acquisition time	30.00reverse acquisition time	0.00gamma	498.7831k internal	0.1811k external	0.1811temperature offset calibration	1.0074default loss term (dB/km)	0.3790temperature slope calibration	1.3530multiplexer offset coefficient	1.0000multiplexer slope coefficient	1.0000fibre end	0.00T internal ref (°C)	29.19T ext. ref 1 (°C)	26.36T ext. ref 2 (°C)	0.21length (m)	temperature (°C)	Stokes	anti-Stokes-747.200	800.000	-0.060	-0.215
-746.185	13.105	-0.429	0.426
-745.171	524.127	0.192	-0.584
-744.156	-32.544	0.279	0.199
-743.142	-15.099	0.052	-0.043
-742.127	-160.697	0.538	-0.036
-741.112	-200.000	0.012	-0.361
-740.098	209.436	-0.194	0.391
-739.083	-116.496	-0.629	0.148
-738.069	159.565	0.270	0.484
-737.054	-85.827	0.107	-0.042
-736.039	95.699	-0.088	0.129
-735.025	-69.944	-0.148	0.072
-734.010	-85.367	-0.216	-0.086
-732.996	-200.000	-0.017	0.291
-731.981	309.642	0.153	-0.368
-730.966	-200.000	-0.071	0.514
-729.952	-18.964	-0.213	-0.170
-728.937	-200.000	0.028	0.328
-727.923	415.046	0.193	0.530
-726.908	512.156	0.125	0.375
-725.894	800.000	-0.051	0.234
-724.879	-79.266	-0.337	-0.146
-723.864	-200.000	0.026	-0.575
-722.850	60.264	0.671	-0.852
-721.835	800.000	-0.037	0.136
-720.821	-67.458	-0.554	-0.278
-719.806	-188.637	0.431	-0.007
-718.791	-200.000	-0.010	-0.344
-717.777	-66.658	0.362	-0.183
-716.762	19.109	0.254	-0.261
-715.748	-22.797	-0.198	0.153
-714.733	-153.416	0.403	0.035
-713.718	227.804	-0.075	-0.157
-712.704	-89.190	-0.068	0.026
-711.689	40.857	-0.247	-0.286
-710.675	281.145	-0.064	-0.147
-709.660	-200.000	0.076	0.566
-708.645	-101.718	0.111	-0.034
-707.631	-2.725	-0.400	0.358
-706.616	-200.000	-0.023	-0.163
-705.602	-46.683	0.296	-0.185
-704.587	-24.013	-0.672	-0.514
-703.572	-51.501	-0.233	0.139
-702.558	2.405	0.164	-0.152
-701.543	505.380	0.044	0.130
-700.529	-200.000	0.054	-0.339
-699.514	-20.672	0.131	0.103
-698.499	-84.238	0.330	-0.133
-697.485	-67.279	0.281	0.141
-696.470	22.743	0.240	-0.252
-695.456	550.416	0.181	0.560
-694.441	288.721	0.183	-0.426
-693.426	-200.000	0.027	-0.440
-692.412	-54.992	0.185	-0.106
-691.397	-74.806	0.057	-0.026
-690.383	-174.846	-0.086	-0.003
-689.368	-200.000	0.014	-0.228
-688.354	31.914	-0.475	-0.525
-687.339	-31.629	0.448	0.321
-686.324	-55.594	-0.288	0.165
-685.310	156.331	0.185	0.328
-684.295	375.599	-0.108	-0.284
-683.281	113.198	0.270	0.421
-682.266	-200.000	0.012	-0.361
-681.251	-200.000	-0.061	-0.565
-680.237	-173.864	-0.622	-0.023
-679.222	-120.603	-0.372	-0.080
-678.208	773.619	-0.145	-0.510
-677.193	800.000	-0.071	-0.295
-676.178	188.505	0.063	-0.120
-675.164	800.000	-0.091	0.374
-674.149	-70.102	0.391	-0.190
-673.135	2.131	-0.180	0.166
-672.120	-131.307	-0.243	-0.041
-671.105	467.449	-0.076	-0.220
-670.091	-136.812	-0.414	0.060
-669.076	80.720	-0.205	-0.283
-668.062	116.906	-0.121	-0.190
-667.047	-79.461	-0.076	-0.033
-666.032	-200.000	-0.005	-0.483
-665.018	2.187	0.413	0.382
-664.003	-200.000	0.004	0.333
-662.989	-142.251	0.197	-0.025
-661.974	-200.000	0.041	0.261
-660.959	292.078	-0.264	0.618
-659.945	66.403	0.141	0.183
-658.930	-89.391	0.760	-0.285
-657.916	-160.657	-0.310	0.021
-656.901	147.851	0.090	-0.156
-655.886	-56.966	-0.284	0.160
-654.872	145.434	-0.373	-0.640
-653.857	59.923	-0.264	-0.334
-652.843	-106.499	0.197	-0.056
-651.828	-68.652	-0.315	-0.155
-650.814	255.180	0.099	0.218
-649.799	69.906	0.260	-0.344
-648.784	385.112	0.170	0.451
-647.770	-200.000	-0.058	-0.434
-646.755	-12.963	0.125	-0.104
-645.741	302.638	0.126	-0.300
-644.726	31.707	0.112	0.123
-643.711	60.354	-0.289	0.366
-642.697	-18.879	0.327	-0.260
-641.682	146.183	-0.147	0.252
-640.668	-29.831	-0.116	0.084
-639.653	-140.083	0.431	0.057
-638.638	-49.730	0.586	0.355
-637.624	312.149	-0.167	0.402
-636.609	34.066	-0.238	0.266
-635.595	-110.176	-0.104	-0.028
-634.580	800.000	0.041	-0.190
-633.565	-186.604	-0.245	0.004
-632.551	159.199	-0.185	-0.330
-631.536	170.236	0.094	-0.173
-630.522	35.062	0.088	-0.099
-629.507	376.913	-0.039	-0.103
-628.492	127.391	-0.297	0.483
-627.478	-75.747	0.307	-0.139
-626.463	230.718	-0.363	0.763
-625.449	-120.672	0.259	-0.056
-624.434	-152.434	-0.428	0.039
-623.419	-200.000	0.020	-0.495
-622.405	-184.509	0.239	-0.005
-621.390	440.571	-0.038	0.105
-620.376	-170.763	-0.215	0.009
-619.361	246.465	0.059	-0.127
-618.346	-106.822	-0.401	-0.113
-617.332	-200.000	-0.012	-0.466
-616.317	-123.583	0.297	0.060
-615.303	-122.945	0.363	0.074
-614.288	19.899	0.036	-0.037
-613.273	18.913	0.262	0.268
-612.259	-108.423	0.335	-0.092
-611.244	-117.858	-0.225	-0.051
-610.230	133.910	0.285	0.472
-609.215	534.533	-0.035	-0.106
-608.201	207.018	0.191	0.381
-607.186	-172.122	0.429	-0.017
-606.171	515.359	-0.123	0.368
-605.157	-43.895	0.176	0.113
-604.142	-133.906	-0.970	-0.152
-603.128	-161.959	-0.711	0.045
-602.113	-159.063	-0.237	0.017
-601.098	49.069	-0.132	0.159
-600.084	-200.000	-0.004	-0.073
-599.069	544.641	0.133	0.409
-598.055	-45.838	0.134	-0.084
-597.040	170.181	0.100	0.183
-596.025	-52.373	0.240	-0.141
-595.011	18.964	-0.286	-0.292
-593.996	120.133	-0.203	-0.322
-592.982	237.979	0.212	-0.450
-591.967	-200.000	0.021	0.157
-590.952	73.281	-0.292	0.390
-589.938	-1.453	0.142	0.128
-588.923	-25.518	0.159	0.120
-587.909	-69.875	-0.196	0.095
-586.894	-19.427	0.248	0.196
-585.879	-55.529	0.625	0.356
-584.865	24.423	-0.200	-0.211
-583.850	-95.054	-0.337	0.115
-582.836	724.580	-0.026	-0.089
-581.821	-37.945	-0.155	0.105
-580.806	-96.798	-0.115	-0.038
-579.792	13.097	0.252	-0.249
-578.777	-118.859	-0.227	0.050
-577.763	-200.000	-0.060	0.403
-576.748	-81.705	-0.496	-0.206
-575.733	-46.854	0.155	0.096
-574.719	129.998	-0.132	-0.216
-573.704	-97.133	0.503	-0.167
-572.690	-56.849	-0.139	0.078
-571.675	-51.309	0.291	-0.173
-570.661	-200.000	-0.043	0.327
-569.646	191.702	-0.103	0.198
-568.631	663.070	-0.046	0.152
-567.617	11.557	0.268	0.262
-566.602	-153.269	0.413	-0.036
-565.588	28.775	0.330	0.356
-564.573	27.509	0.062	-0.066
-563.558	-146.192	0.343	-0.038
-562.544	342.593	0.109	0.273
-561.529	-200.000	0.030	0.387
-560.515	330.381	-0.193	0.476
-559.500	-70.145	-0.402	0.194
-558.485	43.346	0.061	-0.071
-557.471	-138.556	0.286	-0.040
-556.456	33.291	0.231	0.256
-555.442	-84.103	0.169	-0.068
-554.427	-56.128	-0.082	0.046
-553.412	392.297	-0.088	0.235
-552.398	-107.376	-0.365	0.102
-551.383	-109.129	-0.170	-0.046
-550.369	71.800	-0.058	-0.077
-549.354	227.478	0.255	0.531
-548.339	-55.375	0.158	-0.090
-547.325	410.814	-0.068	0.186
-546.310	105.490	-0.195	0.294
-545.296	2.531	-0.249	0.229
-544.281	86.984	-0.281	0.397
-543.266	161.928	-0.025	-0.045
-542.252	648.282	-0.128	-0.418
-541.237	74.022	0.101	-0.136
-540.223	737.034	0.193	-0.662
-539.208	800.000	0.046	0.193
-538.193	79.826	0.191	0.262
-537.179	-69.433	-0.390	-0.190
-536.164	-29.641	0.234	0.170
-535.150	45.787	0.043	0.050
-534.135	409.590	-0.130	0.352
-533.121	-16.929	0.080	-0.064
-532.106	-12.751	0.200	0.166
-531.091	23.485	-0.236	-0.247
-530.077	-200.000	0.050	0.562
-529.062	-160.568	-0.530	0.035
-528.048	-200.000	-0.022	-0.451
-527.033	-41.535	-0.244	-0.160
-526.018	-156.154	-0.326	-0.026
-525.004	259.720	0.066	0.145
-523.989	800.000	0.086	-0.365
-522.975	-145.707	0.454	0.051
-521.960	399.199	-0.103	0.276
-520.945	-59.572	-0.290	-0.158
-519.931	-25.609	0.163	0.122
-518.916	42.916	-0.319	-0.371
-517.902	75.871	0.361	-0.486
-516.887	-200.000	0.060	-0.372
-515.872	-200.000	-0.023	-0.161
-514.858	-26.680	-0.393	0.292
-513.843	54.444	0.013	-0.015
-512.829	800.000	-0.064	-0.316
-511.814	800.000	-0.008	-0.042
-510.799	-200.000	-0.039	-0.408
-509.785	105.545	0.209	-0.314
-508.770	800.000	-0.066	-0.243
-507.756	-170.522	-0.104	0.005
-506.741	-130.232	0.528	0.090
-505.726	-5.457	0.525	-0.458
-504.712	-124.585	0.124	0.024
-503.697	-125.807	-0.402	-0.077
-502.683	547.517	-0.142	-0.436
-501.668	33.642	0.120	-0.133
-500.653	639.261	-0.099	0.323
-499.639	35.921	-0.129	0.145
-498.624	-135.771	-0.546	-0.081
-497.610	-10.260	0.259	-0.218
-496.595	336.954	-0.103	-0.256
-495.581	-200.000	0.007	-0.210
-494.566	297.566	0.121	-0.284
-493.551	-98.391	0.557	-0.180
-492.537	101.766	0.134	0.199
-491.522	-200.000	0.050	0.354
-490.508	-56.572	-0.246	0.138
-489.493	-200.000	-0.013	-0.261
-488.478	-154.032	0.175	-0.015
-487.464	496.847	-0.171	0.502
-486.449	-200.000	-0.038	-0.503
-485.435	7.977	0.062	-0.059
-484.420	-2.843	0.231	0.205
-483.405	-89.960	0.101	-0.037
-482.391	-160.295	-0.069	0.005
-481.376	492.610	0.166	-0.485
-480.362	88.255	0.177	-0.250
-479.347	93.057	0.039	0.056
-478.332	73.412	-0.256	-0.340
-477.318	30.598	-0.304	-0.331
-476.303	186.320	-0.077	-0.146
-475.289	92.426	-0.337	0.484
-474.274	336.531	0.218	0.539
-473.259	-170.402	-0.130	-0.006
-472.245	7.946	-0.153	-0.145
-471.230	-109.704	-0.112	0.030
-470.216	800.000	0.084	0.396
-469.201	-137.119	0.316	-0.045
-468.186	-131.060	0.077	-0.013
-467.172	-108.503	0.301	0.082
-466.157	-90.245	-0.216	0.079
-465.143	-43.732	0.331	0.211
-464.128	800.000	0.139	-0.512
-463.113	-153.999	-0.099	0.008
-462.099	60.662	-0.205	-0.258
-461.084	10.622	0.137	-0.132
-460.070	21.232	-0.104	-0.107
-459.055	-12.713	0.215	-0.178
-458.040	-29.039	0.026	-0.019
-457.026	-200.000	0.006	0.056
-456.011	-151.520	0.276	0.026
-454.997	-3.688	-0.063	-0.055
-453.982	-13.264	-0.125	-0.103
-452.968	-6.950	-0.289	0.249
-451.953	-19.962	0.052	-0.041
-450.938	-36.335	0.276	0.188
-449.924	-27.146	-0.151	0.111
-448.909	-128.026	-0.189	0.034
-447.895	-200.000	0.038	-0.504
-446.880	-71.174	0.238	-0.113
-445.865	89.619	-0.313	-0.444
-444.851	-65.985	0.148	-0.075
-443.836	193.951	-0.083	-0.160
-442.822	-200.000	-0.025	0.550
-441.807	-61.949	-0.412	-0.218
-440.792	-200.000	-0.064	-0.532
-439.778	27.233	0.181	0.193
-438.763	-173.403	0.452	-0.017
-437.749	-34.681	0.223	-0.154
-436.734	-200.000	0.019	-0.109
-435.719	-200.000	0.012	0.190
-434.705	83.142	0.161	0.222
-433.690	-122.658	0.263	-0.054
-432.676	117.656	-0.340	-0.531
-431.661	-200.000	-0.031	0.538
-430.646	76.498	0.327	0.440
-429.632	325.542	0.291	0.708
-428.617	-105.671	0.355	0.101
-427.603	-152.663	0.595	0.053
-426.588	-39.256	0.595	-0.395
-425.573	113.985	-0.145	-0.223
-424.559	29.540	0.193	0.208
-423.544	46.969	-0.186	-0.219
-422.530	-103.533	-0.124	-0.037
-421.515	800.000	-0.041	-0.149
-420.500	-200.000	-0.017	-0.097
-419.486	-200.000	-0.017	-0.283
-418.471	-88.091	0.097	-0.037
-417.457	-38.744	-0.370	-0.247
-416.442	-73.361	-0.405	-0.187
-415.428	-49.498	-0.187	-0.113
-414.413	-62.248	0.290	0.153
-413.398	33.414	0.255	-0.281
-412.384	153.248	-0.168	-0.292
-411.369	454.864	0.090	0.255
-410.355	800.000	-0.017	-0.084
-409.340	-10.008	0.140	-0.118
-408.325	-154.283	-0.274	0.023
-407.311	-33.183	-0.153	0.107
-406.296	-89.705	0.441	0.163
-405.282	143.276	0.155	-0.261
-404.267	96.191	-0.207	-0.300
-403.252	-168.785	-0.145	-0.007
-402.238	4.929	-0.209	-0.195
-401.223	302.623	0.140	-0.329
-400.209	800.000	0.018	-0.092
-399.194	-136.566	-0.196	-0.028
-398.179	-159.170	0.050	-0.004
-397.165	293.608	-0.138	-0.319
-396.150	311.660	-0.158	-0.376
-395.136	289.500	-0.178	0.411
-394.121	29.211	-0.220	-0.237
-393.106	-71.248	0.188	0.089
-392.092	-200.000	-0.055	0.469
-391.077	-132.822	0.322	0.051
-390.063	579.846	0.023	0.072
-389.048	-200.000	-0.007	-0.092
-388.033	539.781	-0.073	-0.222
-387.019	134.808	-0.113	-0.186
-386.004	-200.000	-0.016	0.331
-384.990	-14.894	0.118	0.096
-383.975	-88.534	-0.386	-0.145
-382.960	-31.052	0.094	0.067
-381.946	-172.701	-0.416	0.016
-380.931	-36.381	0.198	0.135
-379.917	-10.757	0.196	-0.163
-378.902	38.531	0.183	0.206
-377.888	-80.503	0.358	0.150
-376.873	-200.000	-0.015	-0.135
-375.858	-109.292	-0.364	0.097
-374.844	-115.981	0.366	0.086
-373.829	623.387	-0.278	0.890
-372.815	-200.000	0.060	0.471
-371.800	-200.000	-0.035	0.402
-370.785	-46.811	-0.095	-0.059
-369.771	-172.759	0.108	-0.004
-368.756	-45.992	0.137	-0.085
-367.742	-105.408	0.357	-0.102
-366.727	117.810	0.246	-0.384
-365.712	-61.991	-0.124	-0.065
-364.698	-200.000	0.033	-0.413
-363.683	800.000	0.013	-0.055
-362.669	800.000	0.043	-0.160
-361.654	-87.224	0.135	-0.052
-360.639	128.605	0.203	0.328
-359.625	-84.652	0.425	0.169
-358.610	-47.174	-0.161	0.099
-357.596	-171.367	-0.568	0.024
-356.581	243.935	-0.110	-0.234
-355.566	-154.872	0.491	-0.040
-354.552	346.695	-0.061	-0.151
-353.537	10.308	0.297	-0.285
-352.523	126.085	-0.145	-0.233
-351.508	-200.000	-0.028	-0.211
-350.493	-73.193	0.555	0.256
-349.479	-85.497	-0.113	-0.044
-348.464	-143.398	0.446	-0.053
-347.450	16.526	-0.143	-0.143
-346.435	-200.000	0.005	-0.397
-345.420	385.122	0.146	-0.383
-344.406	-200.000	-0.021	0.202
-343.391	-134.884	0.426	-0.064
-342.377	406.163	0.097	-0.260
-341.362	701.102	-0.084	-0.283
-340.348	35.546	-0.146	-0.162
-339.333	-200.000	-0.027	-0.225
-338.318	800.000	0.019	0.094
-337.304	89.950	0.268	-0.379
-336.289	217.345	0.133	-0.269
-335.275	-62.236	-0.271	-0.142
-334.260	-200.000	0.036	-0.335
-333.245	-43.194	0.049	0.031
-332.231	-112.572	0.175	-0.044
-331.216	27.055	0.190	-0.201
-330.202	-140.996	-0.376	0.048
-329.187	-14.168	0.351	0.286
-328.172	-8.965	-0.047	0.040
-327.158	292.694	0.262	0.606
-326.143	-55.886	-0.094	0.053
-325.129	727.796	0.052	0.178
-324.114	-30.887	-0.359	0.256
-323.099	-175.594	0.424	-0.014
-322.085	-200.000	0.037	0.441
-321.070	-45.271	0.205	-0.128
-320.056	-11.417	-0.253	-0.210
-319.041	-136.407	-0.575	0.084
-318.026	800.000	-0.035	-0.135
-317.012	-33.148	-0.519	-0.362
-315.997	-200.000	-0.030	-0.360
-314.983	-200.000	-0.011	-0.529
-313.968	0.782	-0.301	-0.272
-312.953	-200.000	0.011	-0.134
-311.939	78.715	-0.191	0.258
-310.924	-200.000	-0.033	0.442
-309.910	-125.301	-0.210	-0.040
-308.895	-171.933	-0.332	-0.013
-307.880	97.754	-0.268	-0.390
-306.866	-200.000	-0.066	-0.417
-305.851	-130.098	0.355	-0.061
-304.837	89.475	0.129	-0.182
-303.822	-200.000	0.069	0.433
-302.807	-14.969	-0.234	0.189
-301.793	800.000	0.090	0.435
-300.778	-27.961	-0.110	-0.080
-299.764	-38.268	-0.527	0.351
-298.749	-120.635	-0.172	-0.036
-297.735	-14.676	-0.221	0.179
-296.720	-126.644	-0.438	-0.081
-295.705	-20.377	-0.158	0.122
-294.691	-74.179	0.195	0.089
-293.676	21.557	0.309	0.317
-292.662	-200.000	-0.029	0.562
-291.647	275.560	-0.055	-0.123
-290.632	684.708	-0.070	0.231
-289.618	-121.085	-0.442	-0.093
-288.603	157.680	-0.192	-0.335
-287.589	-100.737	-0.196	-0.061
-286.574	-6.369	-0.223	-0.191
-285.559	800.000	-0.041	-0.180
-284.545	-200.000	0.042	-0.262
-283.530	412.025	-0.041	0.109
-282.516	-53.947	-0.306	-0.176
-281.501	-91.245	0.757	-0.272
-280.486	113.104	0.158	-0.242
-279.472	138.044	0.128	0.212
-278.457	-77.519	0.289	0.126
-277.443	54.049	-0.216	-0.262
-276.428	-90.236	-0.332	0.121
-275.413	800.000	-0.049	0.194
-274.399	45.338	0.165	0.192
-273.384	292.056	0.264	0.608
-272.370	-200.000	0.035	0.355
-271.355	47.189	-0.108	-0.126
-270.340	190.962	-0.151	0.287
-269.326	85.341	-0.132	0.183
-268.311	-86.442	-0.607	0.234
-267.297	-200.000	0.022	-0.212
-266.282	-97.431	0.546	0.178
-265.267	13.810	0.125	0.122
-264.253	155.874	0.060	-0.104
-263.238	446.945	0.098	-0.272
-262.224	-179.202	-0.254	0.007
-261.209	-17.537	0.262	-0.207
-260.195	-200.000	-0.015	-0.099
-259.180	63.865	-0.196	0.249
-258.165	-153.867	0.423	0.036
-257.151	190.736	-0.186	0.354
-256.136	-126.744	0.145	0.027
-255.122	-1.494	-0.297	-0.263
-254.107	-200.000	0.044	-0.345
-253.092	-47.678	0.292	0.178
-252.078	-74.475	-0.314	-0.142
-251.063	-200.000	0.003	0.156
-250.049	-200.000	-0.034	0.386
-249.034	-98.944	0.389	-0.124
-248.019	-67.288	-0.453	0.223
-247.005	-186.558	-0.324	-0.006
-245.990	800.000	0.152	-0.580
-244.976	800.000	0.102	-0.505
-243.961	67.307	0.273	-0.351
-242.946	-27.426	-0.233	0.170
-241.932	-64.478	0.590	0.301
-240.917	-200.000	-0.346	0.001
-239.903	-116.854	-0.325	-0.074
-238.888	274.358	-0.162	0.363
-237.873	-200.000	0.009	0.273
-236.859	-170.126	0.279	0.012
-235.844	-89.704	0.288	0.106
-234.830	-45.071	0.181	-0.113
-233.815	534.026	-0.089	0.266
-232.800	522.221	-0.092	-0.273
-231.786	130.647	0.085	-0.138
-230.771	160.131	0.188	-0.331
-229.757	481.563	0.114	0.327
-228.742	800.000	0.065	-0.314
-227.727	-86.179	0.397	-0.153
-226.713	791.654	0.165	0.576
-225.698	36.091	-0.165	0.183
-224.684	-200.000	0.032	-0.368
-223.669	-115.977	0.326	0.076
-222.655	-168.164	0.169	0.008
-221.640	-46.979	-0.902	0.553
-220.625	19.366	-0.042	-0.042
-219.611	40.867	0.139	-0.158
-218.596	13.880	-0.279	-0.273
-217.582	-35.376	-0.164	0.112
-216.567	130.743	-0.129	-0.208
-215.552	-200.000	0.009	0.076
-214.538	-108.237	0.246	0.066
-213.523	-44.979	-0.460	0.287
-212.509	139.642	0.092	-0.153
-211.494	31.527	0.203	0.220
-210.479	-115.185	0.416	-0.098
-209.465	28.227	-0.507	0.538
-208.450	-200.000	-0.040	0.255
-207.436	114.268	-0.085	0.131
-206.421	-200.000	0.007	0.318
-205.406	-200.000	0.037	0.243
-204.392	-125.867	0.496	0.093
-203.377	-59.195	0.220	0.119
-202.363	-45.394	-0.097	-0.060
-201.348	-200.000	0.031	0.373
-200.333	-116.707	-0.181	0.042
-199.319	215.029	0.043	0.086
-198.304	-109.409	0.834	-0.220
-197.290	373.609	0.156	0.402
-196.275	745.253	-0.057	0.196
-195.260	39.330	-0.124	-0.140
-194.246	-53.716	0.292	0.167
-193.231	-82.677	0.346	-0.140
-192.217	-94.523	-0.240	0.082
-191.202	-127.210	-0.851	-0.155
-190.187	-57.427	-0.137	0.075
-189.173	-200.000	-0.044	-0.305
-188.158	318.834	-0.199	0.476
-187.144	261.529	0.096	-0.209
-186.129	800.000	0.059	-0.246
-185.114	-200.000	0.030	0.389
-184.100	-125.776	0.334	0.063
-183.085	93.291	-0.265	0.378
-182.071	800.000	-0.055	-0.276
-181.056	-53.766	-0.089	0.051
-180.042	3.324	0.047	-0.043
-179.027	225.950	-0.103	-0.211
-178.012	-27.853	0.077	-0.056
-176.998	112.632	0.465	0.709
-175.983	162.343	-0.160	0.283
-174.969	-44.287	-0.450	-0.282
-173.954	-161.573	-0.079	-0.005
-172.939	-54.139	0.270	-0.154
-171.925	31.868	-0.123	-0.133
-170.910	-158.765	-0.243	0.017
-169.896	-200.000	0.061	-0.504
-168.881	-157.183	0.317	-0.024
-167.866	152.796	-0.156	0.268
-166.852	-112.682	-0.328	0.081
-165.837	742.923	0.066	0.225
-164.823	113.265	-0.016	-0.024
-163.808	-159.427	-0.297	0.020
-162.793	178.596	-0.036	-0.066
-161.779	-138.738	-0.200	-0.027
-160.764	21.220	-0.320	-0.326
-159.750	-96.078	-0.212	0.070
-158.735	800.000	-0.034	-0.137
-157.720	-79.007	-0.131	-0.056
-156.706	800.000	-0.149	-0.581
-155.691	-16.398	-0.284	-0.226
-154.677	-123.750	0.298	0.059
-153.662	800.000	-0.137	0.555
-152.647	-66.280	-0.248	-0.124
-151.633	196.066	0.087	-0.166
-150.618	158.816	-0.054	0.095
-149.604	369.748	0.094	0.239
-148.589	420.501	-0.159	-0.430
-147.574	7.098	-0.290	-0.271
-146.560	-27.988	-0.332	-0.240
-145.545	0.793	-0.142	-0.127
-144.531	-200.000	0.006	0.376
-143.516	-11.009	0.165	-0.136
-142.502	-200.000	-0.013	-0.239
-141.487	-44.344	-0.169	-0.106
-140.472	-8.774	0.099	0.083
-139.458	-200.000	-0.062	-0.402
-138.443	-104.212	-0.579	-0.168
-137.429	-200.000	0.015	-0.345
-136.414	-111.073	0.135	0.034
-135.399	-52.578	-0.184	-0.106
-134.385	-71.008	-0.300	0.141
-133.370	104.144	0.181	-0.268
-132.356	49.571	-0.183	-0.217
-131.341	138.815	0.171	0.283
-130.326	16.584	0.204	-0.202
-129.312	-142.365	0.162	-0.020
-128.297	-195.204	0.385	-0.004
-127.283	-121.302	0.277	-0.057
-126.268	121.276	-0.163	-0.255
-125.253	494.674	0.118	-0.341
-124.239	-104.036	-0.300	0.087
-123.224	-175.535	-0.170	-0.006
