DTS Sentinel unit serial number:	SN409020Multiplexer serial number:	ORYXHardware model number:	OX4-SRSoftware version number:	ORYX F/W v3.00 Oryx Data Collector v3.7.2.0data status	okinstallation	HaddamTimeLapsedifferential loss correction	single-endedforward channel	channel 3reverse channel	N/Adate	2011/06/21time	23:01:17forward acquisition time	30.00reverse acquisition time	0.00gamma	498.7831k internal	0.1754k external	0.1754temperature offset calibration	1.0074default loss term (dB/km)	0.3790temperature slope calibration	1.3530multiplexer offset coefficient	1.0000multiplexer slope coefficient	1.0000fibre end	0.00T internal ref (°C)	23.50T ext. ref 1 (°C)	19.25T ext. ref 2 (°C)	0.05length (m)	temperature (°C)	Stokes	anti-Stokes-747.200	44.033	0.089	0.108
-746.185	106.244	0.335	0.528
-745.171	238.996	0.173	-0.383
-744.156	-140.775	-0.360	-0.049
-743.142	242.864	0.129	0.287
-742.127	-200.000	0.019	0.260
-741.112	21.297	0.317	-0.341
-740.098	-68.528	-0.739	0.378
-739.083	15.013	-0.333	-0.345
-738.069	800.000	0.019	0.079
-737.054	-32.604	0.117	-0.087
-736.039	-200.000	0.005	-0.243
-735.025	-4.610	0.425	0.388
-734.010	800.000	0.028	0.144
-732.996	-193.064	-0.561	-0.006
-731.981	-42.357	-0.299	0.202
-730.966	-200.000	-0.044	-0.287
-729.952	-41.204	-0.494	-0.337
-728.937	-149.396	-0.300	0.031
-727.923	-151.366	-0.133	0.013
-726.908	-123.680	-0.178	0.037
-725.894	-164.505	-0.374	-0.022
-724.879	-17.441	0.242	0.201
-723.864	123.794	0.162	-0.271
-722.850	-179.586	0.264	-0.007
-721.835	-130.085	-0.425	-0.076
-720.821	-200.000	-0.071	-0.557
-719.806	-113.972	-0.337	0.086
-718.791	65.088	-0.270	-0.361
-717.777	-71.897	-0.290	0.142
-716.762	-66.685	-0.261	0.137
-715.748	-116.238	0.480	-0.117
-714.733	-147.250	-0.361	-0.040
-713.718	-59.931	-0.160	-0.090
-712.704	746.408	0.199	0.715
-711.689	-56.762	-0.039	0.023
-710.675	-146.680	-0.423	-0.048
-709.660	119.167	-0.143	-0.235
-708.645	-53.981	-0.236	-0.142
-707.631	-88.368	-0.137	0.054
-706.616	167.518	-0.383	0.723
-705.602	-83.888	0.281	0.118
-704.587	-141.560	-0.383	-0.051
-703.572	-186.202	-0.166	-0.003
-702.558	444.720	-0.123	-0.360
-701.543	324.564	-0.186	-0.472
-700.529	-55.555	0.199	-0.118
-699.514	-130.496	-0.278	-0.049
-698.499	-56.984	-0.337	0.196
-697.485	-69.842	0.269	0.136
-696.470	-139.189	0.110	-0.016
-695.456	-81.777	-0.326	-0.141
-694.441	156.775	0.184	-0.337
-693.426	-46.104	0.158	0.102
-692.412	225.728	-0.121	-0.260
-691.397	-200.000	-0.014	0.168
-690.383	800.000	-0.082	-0.348
-689.368	-146.679	0.220	-0.025
-688.354	-73.058	-0.255	-0.123
-687.339	253.896	0.060	-0.137
-686.324	-74.059	-0.183	-0.087
-685.310	-14.923	-0.281	-0.238
-684.295	51.429	-0.222	-0.279
-683.281	45.559	0.279	-0.341
-682.266	-200.000	-0.086	-0.535
-681.251	-13.522	0.120	-0.103
-680.237	-16.337	-0.139	-0.117
-679.222	-200.000	-0.073	-0.586
-678.208	-129.949	-0.377	-0.068
-677.193	800.000	0.059	0.252
-676.178	-200.000	-0.032	0.343
-675.164	-25.035	-0.182	0.143
-674.149	-200.000	-0.022	-0.184
-673.135	-123.985	0.486	0.100
-672.120	-142.890	0.549	-0.070
-671.105	-38.896	0.500	0.348
-670.091	453.639	0.131	-0.385
-669.076	-147.400	-0.144	-0.016
-668.062	537.307	-0.053	-0.167
-667.047	185.964	-0.056	-0.111
-666.032	-106.915	-0.090	0.026
-665.018	-100.436	-0.106	-0.035
-664.003	-63.166	-0.640	0.348
-662.989	433.053	-0.044	-0.126
-661.974	-200.000	-0.001	-0.162
-660.959	-88.446	0.145	-0.057
-659.945	281.730	-0.049	0.117
-658.930	-145.919	0.094	0.011
-657.916	297.130	0.083	0.202
-656.901	-200.000	-0.560	-0.002
-655.886	381.202	0.029	0.078
-654.872	52.480	-0.067	-0.084
-653.857	382.803	-0.139	-0.380
-652.843	-98.967	-0.276	0.092
-651.828	44.902	0.243	0.296
-650.814	-26.048	-0.484	-0.375
-649.799	-200.000	-0.004	0.094
-648.784	-193.784	-0.121	-0.001
-647.770	-200.000	0.009	-0.433
-646.755	199.570	-0.168	-0.341
-645.741	15.718	0.233	0.242
-644.726	-72.413	-0.352	0.171
-643.711	43.405	-0.102	-0.123
-642.697	-101.721	0.404	0.128
-641.682	-200.000	0.078	-0.610
-640.668	9.229	0.131	0.130
-639.653	-188.697	-0.336	-0.005
-638.638	-200.000	-0.008	-0.228
-637.624	-80.028	-0.265	0.117
-636.609	-176.300	-0.287	0.010
-635.595	141.670	0.387	-0.679
-634.580	-120.358	-0.344	-0.077
-633.565	-46.001	-0.253	0.164
-632.551	-89.029	-0.173	0.067
-631.536	-113.251	-0.618	0.159
-630.522	55.081	0.341	0.435
-629.507	-5.820	-0.452	0.409
-628.492	-144.111	-0.334	-0.041
-627.478	-79.699	-0.136	0.060
-626.463	-64.158	-0.649	0.348
-625.449	-14.260	-0.280	-0.238
-624.434	137.034	-0.218	-0.377
-623.419	119.766	-0.142	-0.232
-622.405	24.409	-0.276	-0.301
-621.390	-61.685	0.460	-0.254
-620.376	89.989	-0.374	0.553
-619.361	-106.256	0.205	-0.060
-618.346	-139.139	-0.580	0.082
-617.332	685.207	0.108	-0.375
-616.317	-184.619	0.047	-0.001
-615.303	78.533	-0.052	-0.074
-614.288	196.215	-0.070	-0.141
-613.273	-200.000	0.005	0.135
-612.259	463.478	-0.167	0.495
-611.244	261.621	-0.163	0.375
-610.230	42.819	-0.101	0.121
-609.215	800.000	0.058	-0.274
-608.201	148.576	0.078	-0.140
-607.186	-145.007	-0.363	-0.043
-606.171	180.651	0.192	-0.372
-605.157	25.991	0.034	0.037
-604.142	-81.942	0.392	0.168
-603.128	-200.000	-0.005	-0.548
-602.113	-155.704	-0.822	0.069
-601.098	593.543	0.082	0.268
-600.084	228.721	-0.132	0.285
-599.069	-162.389	-0.226	0.015
-598.055	-79.880	0.238	0.105
-597.040	86.242	0.212	0.309
-596.025	290.964	-0.047	0.114
-595.011	414.191	0.098	0.276
-593.996	11.866	-0.101	-0.102
-592.982	-67.336	0.135	-0.070
-591.967	800.000	-0.050	0.228
-590.952	-48.023	-0.141	0.090
-589.938	195.456	0.220	0.442
-588.923	-57.502	-0.606	0.349
-587.909	-200.000	-0.011	-0.123
-586.894	-146.699	0.521	-0.059
-585.879	-152.557	0.654	-0.061
-584.865	1.249	-0.263	0.248
-583.850	-200.000	-0.001	0.082
-582.836	-200.000	-0.034	0.445
-581.821	-135.116	0.368	-0.058
-580.806	394.688	-0.061	-0.169
-579.792	800.000	0.052	0.253
-578.777	-44.226	-0.435	-0.287
-577.763	-200.000	0.011	0.142
-576.748	45.011	0.270	-0.328
-575.733	-46.256	-0.281	-0.182
-574.719	800.000	-0.057	-0.278
-573.704	49.326	0.367	-0.455
-572.690	800.000	0.128	-0.543
-571.675	-12.984	-0.114	0.097
-570.661	90.099	0.140	0.207
-569.646	-33.410	-0.313	-0.228
-568.631	800.000	0.047	-0.187
-567.617	800.000	-0.030	-0.128
-566.602	-17.266	0.007	-0.006
-565.588	-200.000	0.007	0.544
-564.573	-146.050	-0.604	0.069
-563.558	-48.262	0.220	-0.139
-562.544	232.582	0.049	0.106
-561.529	-40.234	0.354	-0.242
-560.515	800.000	-0.033	-0.180
-559.500	173.891	-0.271	-0.517
-558.485	292.152	0.149	-0.359
-557.471	-61.098	0.129	0.072
-556.456	-11.635	-0.139	0.121
-555.442	158.121	0.096	0.176
-554.427	37.663	0.067	0.078
-553.412	9.007	-0.128	-0.127
-552.398	22.346	0.191	0.205
-551.383	189.243	-0.155	-0.306
-550.369	-84.501	0.105	0.043
-549.354	42.457	-0.436	-0.522
-548.339	-116.712	-0.366	-0.088
-547.325	-115.439	-0.120	-0.029
-546.310	-200.000	0.062	0.418
-545.296	131.072	0.184	-0.311
-544.281	800.000	0.086	-0.421
-543.266	-161.458	0.310	-0.021
-542.252	266.969	0.150	-0.347
-541.237	800.000	-0.094	0.374
-540.223	-30.898	-0.465	-0.345
-539.208	126.752	0.234	-0.391
-538.193	13.367	0.170	-0.174
-537.179	92.753	-0.085	0.127
-536.164	-200.000	0.006	0.171
-535.150	-142.960	-0.131	0.016
-534.135	-142.901	0.392	-0.049
-533.121	-4.252	0.158	-0.143
-532.106	-47.848	-0.404	-0.257
-531.091	-200.000	0.024	-0.344
-530.077	1.093	0.062	0.059
-529.062	-200.000	0.003	-0.030
-528.048	112.621	0.094	0.150
-527.033	800.000	-0.064	0.295
-526.018	800.000	0.054	-0.254
-525.004	-8.210	-0.120	0.106
-523.989	-52.797	0.225	0.136
-522.975	-135.934	0.539	0.083
-521.960	60.093	-0.194	0.253
-520.945	153.774	-0.058	0.104
-519.931	6.683	-0.191	0.187
-518.916	-70.526	0.325	0.161
-517.902	171.007	-0.199	-0.377
-516.887	-200.000	0.006	0.099
-515.872	-29.408	0.386	0.290
-514.858	-139.347	-0.180	-0.025
-513.843	56.850	0.285	0.366
-512.829	-200.000	-0.036	0.225
-511.814	-72.717	0.371	0.179
-510.799	605.952	-0.071	0.235
-509.785	800.000	0.080	-0.408
-508.770	-116.748	-0.448	-0.107
-507.756	-136.310	-0.179	-0.027
-506.741	-156.934	0.270	0.021
-505.726	295.563	-0.143	-0.345
-504.712	-76.472	-0.191	-0.088
-503.697	-167.877	0.529	-0.027
-502.683	37.175	0.106	0.123
-501.668	134.349	-0.216	-0.368
-500.653	64.579	0.205	-0.272
-499.639	617.024	0.121	0.401
-498.624	-64.084	-0.175	-0.094
-497.610	13.475	0.251	0.256
-496.595	-152.072	-0.440	0.042
-495.581	800.000	0.088	-0.477
-494.566	250.216	-0.038	-0.084
-493.551	-24.591	-0.057	-0.045
-492.537	-107.055	-0.342	0.099
-491.522	-61.465	-0.307	0.169
-490.508	-103.044	0.265	-0.082
-489.493	127.413	0.086	0.144
-488.478	-104.724	0.325	-0.098
-487.464	-200.000	-0.014	-0.223
-486.449	800.000	-0.096	-0.390
-485.435	-29.509	-0.586	0.439
-484.420	146.490	0.218	0.385
-483.405	800.000	0.031	-0.158
-482.391	454.382	0.032	-0.093
-481.376	800.000	0.033	-0.170
-480.362	589.333	-0.105	-0.343
-479.347	69.358	-0.385	-0.520
-478.332	-136.480	0.329	-0.050
-477.318	241.877	-0.087	-0.191
-476.303	-90.819	0.143	-0.054
-475.289	94.638	-0.235	0.351
-474.274	215.078	-0.077	0.162
-473.259	-200.000	0.059	0.679
-472.245	42.072	0.241	0.287
-471.230	-98.430	-0.102	0.034
-470.216	118.742	-0.218	-0.354
-469.201	404.741	-0.117	-0.326
-468.186	205.765	-0.033	0.068
-467.172	33.588	0.204	-0.233
-466.157	-85.646	-0.290	0.118
-465.143	73.111	-0.109	-0.150
-464.128	4.211	0.290	-0.278
-463.113	-200.000	0.015	-0.086
-462.099	192.898	0.126	0.250
-461.084	432.544	-0.159	0.454
-460.070	-176.648	-0.314	-0.010
-459.055	-164.956	0.701	0.040
-458.040	-154.591	0.168	-0.014
-457.026	-2.855	0.416	0.381
-456.011	-173.468	0.406	-0.016
-454.997	242.783	-0.197	0.434
-453.982	-10.659	-0.145	-0.126
-452.968	-156.999	0.236	-0.019
-451.953	-200.000	-0.827	-0.001
-450.938	-200.000	-0.000	0.452
-449.924	320.522	-0.124	0.311
-448.909	800.000	-0.096	0.377
-447.895	-200.000	0.016	0.324
-446.880	-200.000	-0.002	-0.320
-445.865	38.364	-0.363	-0.424
-444.851	257.463	0.072	-0.163
-443.836	-18.973	-0.086	0.070
-442.822	121.116	-0.324	-0.530
-441.807	117.263	0.140	-0.226
-440.792	5.902	-0.402	-0.390
-439.778	56.394	-0.183	-0.233
-438.763	135.970	-0.116	0.199
-437.749	-200.000	-0.043	-0.444
-436.734	-200.000	0.016	-0.254
-435.719	347.441	-0.261	-0.676
-434.705	800.000	-0.122	-0.465
-433.690	-60.181	-0.366	-0.204
-432.676	544.871	-0.073	0.230
-431.661	-62.871	-0.192	-0.104
-430.646	6.349	0.144	0.140
-429.632	-195.088	0.135	-0.001
-428.617	34.729	0.174	0.199
-427.603	18.225	-0.572	-0.598
-426.588	-10.551	-0.339	0.294
-425.573	191.489	0.279	0.552
-424.559	59.147	0.047	0.060
-423.544	-31.343	-0.342	-0.252
-422.530	265.094	-0.135	-0.309
-421.515	-87.100	-0.164	-0.065
-420.500	-105.402	-0.119	0.035
-419.486	-200.000	-0.012	0.270
-418.471	-71.038	-0.266	0.131
-417.457	153.102	-0.281	0.505
-416.442	-200.000	-0.034	0.214
-415.428	-14.936	-0.233	-0.195
-414.413	-200.000	0.141	-0.860
-413.398	35.394	0.225	-0.258
-412.384	-83.002	0.305	-0.128
-411.369	68.317	0.210	0.282
-410.355	800.000	-0.047	-0.198
-409.340	-200.000	0.019	-0.542
-408.325	-125.243	0.176	0.035
-407.311	188.660	-0.297	0.584
-406.296	-120.076	-0.299	0.066
-405.282	800.000	-0.067	0.317
-404.267	-34.010	0.332	-0.239
-403.252	-200.000	0.002	-0.234
-402.238	74.234	0.074	0.102
-401.223	605.270	0.029	-0.095
-400.209	-200.000	-0.038	-0.370
-399.194	-48.631	-0.225	0.141
-398.179	69.154	-0.258	-0.348
-397.165	442.179	0.142	-0.408
-396.150	-137.516	-0.206	0.030
-395.136	-56.787	0.217	-0.125
-394.121	-109.903	-0.224	0.061
-393.106	302.553	-0.166	-0.404
-392.092	141.590	0.111	-0.193
-391.077	-76.366	0.146	0.067
-390.063	14.878	-0.476	-0.487
-389.048	143.777	-0.052	0.091
-388.033	-75.423	0.230	0.107
-387.019	-93.477	-0.317	-0.114
-386.004	-112.975	-0.363	0.093
-384.990	-65.050	-0.170	-0.090
-383.975	85.087	0.302	0.433
-382.960	309.834	-0.080	0.197
-381.946	-54.125	-0.419	-0.249
-380.931	-200.000	-0.050	0.305
-379.917	-178.341	-0.388	0.012
-378.902	56.903	0.099	0.126
-377.888	95.079	0.249	0.371
-376.873	3.734	0.336	0.321
-375.858	36.853	0.224	0.259
-374.844	-77.774	0.347	0.156
-373.829	-96.061	-0.315	0.109
-372.815	800.000	-0.058	0.234
-371.800	199.443	0.081	-0.164
-370.785	78.289	0.228	-0.319
-369.771	-31.452	-0.152	-0.111
-368.756	-47.311	0.449	-0.285
-367.742	-140.785	-0.756	-0.101
-366.727	72.838	-0.061	0.084
-365.712	551.803	0.193	-0.608
-364.698	467.151	0.147	-0.431
-363.683	175.332	0.099	0.188
-362.669	441.796	-0.109	0.312
-361.654	-200.000	-0.005	0.471
-360.639	-109.919	0.089	-0.024
-359.625	800.000	0.069	0.352
-358.610	-49.914	-0.450	0.278
-357.596	-118.911	-0.364	-0.083
-356.581	26.872	-0.131	0.144
-355.566	-158.364	0.217	0.016
-354.552	-139.575	-0.388	0.054
-353.537	-200.000	0.012	0.592
-352.523	-118.796	0.246	0.056
-351.508	-111.839	0.236	0.062
-350.493	431.885	0.106	0.302
-349.479	800.000	-0.022	0.103
-348.464	-200.000	-0.040	0.280
-347.450	-31.114	-0.175	0.129
-346.435	-73.385	-0.445	0.212
-345.420	-129.335	0.267	0.048
-344.406	637.796	0.049	0.163
-343.391	-85.240	0.235	-0.095
-342.377	-200.000	0.040	-0.302
-341.362	103.160	-0.222	0.341
-340.348	-94.371	0.035	0.012
-339.333	349.902	0.066	-0.172
-338.318	159.366	0.124	0.226
-337.304	800.000	0.114	0.447
-336.289	697.472	-0.157	0.540
-335.275	-64.300	0.200	-0.106
-334.260	-200.000	-0.047	-0.305
-333.245	-123.860	0.528	0.108
-332.231	-139.280	0.545	-0.076
-331.216	-194.932	-0.309	-0.003
-330.202	-51.696	0.067	-0.041
-329.187	-13.086	-0.139	0.118
-328.172	-200.000	-0.026	-0.181
-327.158	-26.156	-0.115	-0.088
-326.143	785.070	0.111	-0.400
-325.129	200.084	-0.046	-0.093
-324.114	-176.619	-0.180	0.006
-323.099	138.943	-0.176	0.303
-322.085	-115.354	-0.440	-0.108
-321.070	-79.263	0.324	0.143
-320.056	93.809	-0.196	0.290
-319.041	-115.793	0.278	0.067
-318.026	3.426	0.205	-0.194
-317.012	-72.260	-0.370	-0.178
-315.997	-37.409	-0.288	-0.200
-314.983	-173.090	0.344	-0.014
-313.968	-35.806	0.143	-0.100
-312.953	192.843	-0.338	-0.669
-311.939	-97.300	-0.441	-0.149
-310.924	52.844	0.128	-0.160
-309.910	65.940	-0.087	0.115
-308.895	14.535	-0.100	0.102
-307.880	800.000	0.030	0.113
-306.866	-148.117	-0.252	-0.027
-305.851	-173.155	-0.306	0.012
-304.837	800.000	-0.146	0.778
-303.822	-78.097	-0.489	0.219
-302.807	18.741	-0.353	-0.369
-301.793	74.647	-0.198	-0.272
-300.778	-94.632	0.391	0.138
-299.764	800.000	0.052	0.224
-298.749	239.410	-0.153	-0.332
-297.735	-95.813	0.080	-0.028
-296.720	800.000	0.109	0.415
-295.705	-157.703	0.370	0.028
-294.691	-26.027	-0.298	0.228
-293.676	-48.942	0.244	0.152
-292.662	-163.002	0.380	-0.024
-291.647	-200.000	-0.040	-0.302
-290.632	-73.868	0.243	0.115
-289.618	-52.532	0.220	0.132
-288.603	-200.000	-0.014	-0.207
-287.589	285.926	0.269	0.635
-286.574	-44.494	0.337	-0.219
-285.559	-184.907	-0.253	-0.005
-284.545	-8.014	-0.190	-0.167
-283.530	628.891	0.034	-0.112
-282.516	-104.389	-0.353	0.106
-281.501	-200.000	0.012	-0.104
-280.486	106.725	0.170	0.263
-279.472	126.848	0.157	-0.259
-278.457	-152.874	0.551	0.050
-277.443	-195.218	0.655	-0.006
-276.428	-148.482	-0.590	-0.062
-275.413	-81.622	-0.285	0.121
-274.399	-107.518	0.299	-0.085
-273.384	216.838	-0.109	0.226
-272.370	107.033	0.121	-0.187
-271.355	-93.467	0.511	0.183
-270.340	-72.301	-0.216	-0.104
-269.326	-143.046	0.782	0.097
-268.311	-103.535	0.376	0.114
-267.297	6.277	-0.357	-0.345
-266.282	372.112	-0.192	0.509
-265.267	-122.698	0.388	0.081
-264.253	116.671	-0.126	0.201
-263.238	188.692	-0.045	0.087
-262.224	-106.065	0.152	-0.044
-261.209	20.691	-0.089	-0.093
-260.195	404.864	-0.140	0.387
-259.180	-70.739	-0.286	0.140
-258.165	68.261	0.226	-0.301
-257.151	3.237	0.384	-0.363
-256.136	-4.346	-0.216	-0.194
-255.122	-1.782	0.286	0.262
-254.107	-152.926	0.438	0.040
-253.092	-134.651	0.153	0.024
-252.078	50.227	-0.191	-0.234
-251.063	611.091	0.284	0.930
-250.049	-108.510	0.175	0.049
-249.034	-100.482	-0.382	-0.122
-248.019	800.000	0.052	0.249
-247.005	53.319	0.083	-0.104
-245.990	-33.333	0.321	-0.230
-244.976	-173.682	0.362	-0.014
-243.961	-66.005	0.541	-0.280
-242.946	-73.569	-0.113	0.054
-241.932	-180.066	-0.302	0.008
-240.917	800.000	-0.092	-0.517
-239.903	-200.000	-0.039	0.364
-238.888	338.556	0.083	0.210
-237.873	-200.000	0.022	-0.196
-236.859	-49.847	-0.089	0.055
-235.844	-200.000	-0.017	0.402
-234.830	-83.443	0.216	0.090
-233.815	531.974	-0.082	0.255
-232.800	800.000	-0.074	0.267
-231.786	-71.853	0.566	0.273
-230.771	202.010	-0.081	-0.164
-229.757	355.326	0.141	-0.367
-228.742	800.000	-0.047	-0.233
-227.727	-200.000	0.009	0.284
-226.713	-60.892	0.324	0.178
-225.698	-86.432	-0.292	0.116
-224.684	50.096	0.338	-0.415
-223.669	-200.000	0.250	-0.001
-222.655	-75.356	-0.260	0.120
-221.640	195.926	0.277	-0.550
-220.625	-97.245	-0.100	0.034
-219.611	138.302	0.141	0.241
-218.596	402.772	0.052	0.144
-217.582	47.512	-0.112	0.136
-216.567	10.876	-0.202	-0.201
-215.552	-110.819	0.605	0.161
-214.538	-155.977	0.444	-0.036
-213.523	-200.000	-0.004	0.399
-212.509	-158.255	0.335	0.025
-211.494	-44.213	0.305	-0.198
-210.479	-99.965	0.358	-0.115
-209.465	-129.016	0.106	0.019
-208.450	733.551	-0.037	0.130
-207.436	-0.771	-0.123	0.113
-206.421	97.541	0.102	0.153
-205.406	54.265	0.224	0.280
-204.392	-200.000	-0.046	0.472
-203.377	-93.020	0.290	0.105
-202.363	-200.000	-0.020	-0.698
-201.348	253.792	-0.129	-0.287
-200.333	-129.289	0.293	0.053
-199.319	-144.612	0.169	-0.020
-198.304	3.517	0.217	-0.205
-197.290	30.820	0.158	-0.176
-196.275	202.653	0.177	-0.355
-195.260	-200.000	0.010	0.153
-194.246	-117.732	0.515	0.119
-193.231	57.443	0.255	-0.324
-192.217	-73.348	-0.307	-0.145
-191.202	-130.489	-0.113	-0.020
-190.187	404.768	0.088	0.241
-189.173	68.225	0.165	0.220
-188.158	-70.304	0.334	-0.164
-187.144	62.234	-0.147	0.190
-186.129	-81.456	0.235	0.100
-185.114	-86.985	0.529	-0.208
-184.100	-63.966	0.161	0.085
-183.085	-91.712	0.115	-0.042
-182.071	197.896	0.048	0.095
-181.056	328.412	0.176	0.441
-180.042	800.000	-0.009	-0.040
-179.027	-59.504	0.208	-0.116
-178.012	516.869	0.040	0.123
-176.998	116.186	-0.248	0.394
-175.983	62.941	-0.157	0.203
-174.969	-134.552	-0.126	-0.020
-173.954	-100.925	-0.332	0.105
-172.939	-200.000	-0.061	-0.495
-171.925	-200.000	0.008	-0.391
-170.910	450.310	0.048	0.137
-169.896	-55.053	0.568	-0.331
-168.881	236.090	0.023	-0.049
-167.866	416.498	-0.094	-0.263
-166.852	49.179	-0.334	0.407
-165.837	-172.459	0.081	0.003
-164.823	-141.350	-0.349	0.045
-163.808	222.971	0.119	0.250
-162.793	-137.503	0.428	-0.062
-161.779	-51.502	0.556	0.336
-160.764	800.000	-0.107	-0.429
-159.750	255.025	-0.131	-0.292
-158.735	-86.551	-0.100	-0.040
-157.720	420.094	-0.157	0.437
-156.706	167.245	0.106	0.196
-155.691	83.680	-0.078	0.110
-154.677	-132.813	-0.197	-0.032
-153.662	261.701	0.119	0.267
-152.647	-200.000	-0.008	0.154
-151.633	800.000	-0.034	-0.192
-150.618	-174.486	0.485	-0.018
-149.604	32.268	0.191	0.214
-148.589	-54.882	-0.178	0.104
-147.574	800.000	-0.049	0.258
-146.560	-70.999	-0.363	0.176
-145.545	411.211	-0.148	-0.410
-144.531	-56.814	-0.350	-0.200
-143.516	-63.136	-0.154	-0.082
-142.502	-139.400	0.505	0.069
-141.487	224.486	-0.110	-0.231
-140.472	-200.000	0.008	0.176
-139.458	-200.000	0.069	0.762
-138.443	32.294	0.031	0.035
-137.429	-200.000	0.016	-0.224
-136.414	-74.281	-0.348	0.162
-135.399	291.243	-0.085	0.200
-134.385	-96.184	0.197	0.067
-133.370	-171.197	0.318	-0.014
-132.356	-128.371	-0.592	-0.108
-131.341	800.000	-0.045	-0.189
-130.326	800.000	0.074	-0.364
-129.312	-66.545	-0.145	-0.074
-128.297	-70.891	0.130	-0.063
-127.283	178.424	0.162	0.307
-126.268	-200.000	-0.332	0.002
-125.253	52.061	-0.077	-0.095
-124.239	-120.891	-0.278	0.060
-123.224	-133.390	-0.766	0.124
-122.210	-143.636	-0.524	0.064
