DTS Sentinel unit serial number:	SN409020Multiplexer serial number:	ORYXHardware model number:	OX4-SRSoftware version number:	ORYX F/W v3.00 Oryx Data Collector v3.7.2.0data status	okinstallation	HaddamTimeLapsedifferential loss correction	single-endedforward channel	channel 3reverse channel	N/Adate	2011/06/22time	10:36:17forward acquisition time	30.00reverse acquisition time	0.00gamma	498.7831k internal	0.1811k external	0.1811temperature offset calibration	1.0074default loss term (dB/km)	0.3790temperature slope calibration	1.3530multiplexer offset coefficient	1.0000multiplexer slope coefficient	1.0000fibre end	0.00T internal ref (°C)	30.25T ext. ref 1 (°C)	25.73T ext. ref 2 (°C)	-0.05length (m)	temperature (°C)	Stokes	anti-Stokes-747.200	258.772	-0.303	0.674
-746.185	-174.754	-0.308	0.011
-745.171	257.119	0.177	-0.393
-744.156	-85.741	-0.349	0.139
-743.142	-86.418	0.037	0.015
-742.127	-14.278	-0.115	0.095
-741.112	136.976	0.112	0.188
-740.098	7.450	0.290	0.278
-739.083	-139.046	0.813	0.112
-738.069	-149.527	0.250	0.025
-737.054	-105.238	-0.141	0.041
-736.039	45.310	0.019	-0.023
-735.025	509.843	-0.202	0.605
-734.010	57.927	0.204	0.256
-732.996	26.106	-0.152	-0.163
-731.981	-200.000	-0.010	-0.328
-730.966	374.254	-0.103	-0.269
-729.952	-181.104	-0.106	-0.003
-728.937	43.029	-0.067	0.078
-727.923	60.861	0.304	0.387
-726.908	-82.838	0.495	-0.204
-725.894	44.829	-0.147	-0.174
-724.879	126.980	-0.225	-0.367
-723.864	-44.736	-0.204	-0.130
-722.850	48.665	0.080	0.096
-721.835	35.042	0.170	-0.191
-720.821	6.240	0.135	0.128
-719.806	-1.044	-0.168	-0.152
-718.791	48.945	0.045	0.054
-717.777	-200.000	0.005	-0.151
-716.762	99.843	-0.038	0.056
-715.748	82.970	-0.092	-0.129
-714.733	106.367	0.054	-0.083
-713.718	-142.582	-0.581	-0.072
-712.704	126.844	-0.251	-0.409
-711.689	-191.021	0.502	0.007
-710.675	-22.232	0.580	-0.451
-709.660	32.497	0.059	0.066
-708.645	-65.279	-0.164	-0.084
-707.631	-3.041	0.296	-0.265
-706.616	24.192	-0.106	-0.112
-705.602	-26.858	-0.080	-0.060
-704.587	12.420	-0.147	0.145
-703.572	-200.000	0.012	-0.200
-702.558	282.479	0.066	0.153
-701.543	98.297	0.174	0.258
-700.529	152.751	0.226	0.397
-699.514	800.000	0.104	0.370
-698.499	-142.091	-0.322	-0.041
-697.485	-200.000	-0.007	0.346
-696.470	72.047	-0.173	0.231
-695.456	75.959	-0.156	-0.212
-694.441	-145.686	-0.077	0.009
-693.426	111.256	-0.181	-0.280
-692.412	-92.403	-0.408	0.146
-691.397	-100.665	-0.192	-0.060
-690.383	-2.187	-0.245	-0.220
-689.368	250.590	-0.231	-0.506
-688.354	-79.606	-0.258	0.111
-687.339	-132.605	-0.080	0.013
-686.324	-83.095	0.050	-0.021
-685.310	-175.273	0.255	0.009
-684.295	800.000	-0.054	-0.285
-683.281	-174.906	0.280	-0.010
-682.266	529.226	-0.107	0.326
-681.251	-132.813	-0.599	0.097
-680.237	106.269	0.209	-0.318
-679.222	-56.071	-0.405	-0.230
-678.208	-84.399	-0.352	-0.142
-677.193	-69.974	0.097	-0.047
-676.178	-200.000	-0.017	-0.181
-675.164	160.863	0.376	0.675
-674.149	-51.360	-0.609	0.364
-673.135	125.358	0.180	-0.292
-672.120	-200.000	-0.013	0.173
-671.105	-44.535	-0.166	-0.106
-670.091	-86.829	-0.169	0.066
-669.076	50.217	-0.103	0.125
-668.062	-200.000	-0.030	0.385
-667.047	-89.919	-0.208	0.077
-666.032	250.808	-0.052	-0.113
-665.018	254.609	0.149	0.328
-664.003	-107.217	-0.134	0.038
-662.989	800.000	0.091	0.414
-661.974	96.423	0.149	-0.219
-660.959	135.215	-0.167	0.279
-659.945	38.112	-0.099	-0.113
-658.930	248.982	0.111	0.242
-657.916	-137.564	-0.249	-0.036
-656.901	-142.917	-0.433	0.053
-655.886	-79.510	0.128	0.055
-654.872	-200.000	-0.031	0.378
-653.857	314.039	0.065	-0.156
-652.843	36.621	-0.318	0.359
-651.828	-200.000	-0.052	-0.350
-650.814	-152.851	-0.481	0.043
-649.799	-112.284	-0.327	-0.083
-648.784	-131.459	-0.358	-0.060
-647.770	119.704	0.233	-0.369
-646.755	-200.000	0.002	0.061
-645.741	-177.018	0.590	0.019
-644.726	7.672	0.310	0.296
-643.711	-200.000	-0.008	-0.401
-642.697	-73.055	0.266	-0.124
-641.682	324.469	-0.064	0.156
-640.668	800.000	0.106	-0.546
-639.653	135.579	-0.152	-0.253
-638.638	-124.991	-0.269	-0.052
-637.624	-50.184	-0.413	-0.249
-636.609	170.544	0.178	-0.327
-635.595	404.280	0.126	0.341
-634.580	-165.423	-0.608	0.034
-633.565	78.249	-0.094	-0.128
-632.551	508.622	0.149	-0.443
-631.536	-64.620	-0.166	-0.086
-630.522	800.000	0.033	-0.170
-629.507	-21.696	0.057	-0.044
-628.492	-145.143	0.425	0.049
-627.478	-155.482	-0.341	-0.028
-626.463	-200.000	-0.093	-0.617
-625.449	-170.645	-0.192	-0.008
-624.434	-67.627	-0.285	-0.142
-623.419	-25.613	-0.240	0.181
-622.405	37.947	-0.283	0.322
-621.390	800.000	-0.101	0.442
-620.376	-47.989	0.375	-0.231
-619.361	-181.064	0.451	-0.011
-618.346	-106.056	0.192	-0.055
-617.332	-200.000	0.004	-0.190
-616.317	51.260	0.051	-0.062
-615.303	63.144	-0.432	-0.554
-614.288	-173.061	0.412	0.016
-613.273	-200.000	-0.016	-0.109
-612.259	-105.359	-0.298	0.086
-611.244	-200.000	0.033	-0.376
-610.230	-200.000	-0.036	-0.346
-609.215	-61.571	0.164	-0.087
-608.201	356.689	0.213	-0.546
-607.186	3.244	-0.106	-0.099
-606.171	-52.895	0.108	0.064
-605.157	-8.567	0.269	-0.231
-604.142	-200.000	0.025	-0.451
-603.128	45.163	0.280	-0.330
-602.113	-173.169	-0.081	0.003
-601.098	-50.917	0.402	-0.241
-600.084	359.591	0.157	-0.403
-599.069	235.394	0.028	-0.058
-598.055	559.749	-0.143	-0.443
-597.040	15.750	-0.167	-0.167
-596.025	2.846	0.210	-0.195
-595.011	135.260	-0.106	0.177
-593.996	16.661	-0.242	0.244
-592.982	198.768	-0.103	0.201
-591.967	22.694	-0.377	0.394
-590.952	250.752	-0.169	0.368
-589.938	-200.000	0.047	-0.577
-588.923	359.847	0.129	0.331
-587.909	-200.000	0.620	0.001
-586.894	36.672	0.143	0.161
-585.879	-94.198	-0.356	0.124
-584.865	115.894	-0.128	0.200
-583.850	-50.159	0.391	0.236
-582.836	18.224	-0.329	0.335
-581.821	-85.408	-0.079	0.031
-580.806	-74.065	-0.360	0.166
-579.792	17.277	0.200	0.203
-578.777	-67.632	-0.539	0.268
-577.763	47.234	0.148	0.176
-576.748	637.837	-0.011	-0.037
-575.733	90.200	0.280	-0.401
-574.719	-163.743	0.382	0.023
-573.704	-95.741	-0.169	-0.057
-572.690	111.694	0.157	0.242
-571.675	27.628	-0.033	0.035
-570.661	22.387	-0.245	0.255
-569.646	80.499	0.301	0.414
-568.631	-8.009	0.232	-0.200
-567.617	110.828	0.173	-0.265
-566.602	113.090	-0.098	-0.153
-565.588	-111.532	0.320	-0.082
-564.573	-121.094	0.582	0.123
-563.558	-82.533	0.307	0.126
-562.544	800.000	0.102	-0.480
-561.529	-63.178	0.261	0.137
-560.515	-75.597	0.119	-0.054
-559.500	-41.237	-0.254	-0.166
-558.485	17.501	0.051	0.052
-557.471	38.122	-0.288	-0.326
-556.456	175.538	-0.137	-0.254
-555.442	-21.213	-0.214	-0.167
-554.427	-76.617	-0.189	-0.084
-553.412	-110.209	0.282	-0.074
-552.398	-200.000	0.011	-0.319
-551.383	13.479	0.113	0.112
-550.369	-119.099	-0.485	-0.107
-549.354	-89.555	0.152	0.057
-548.339	-200.000	0.002	0.227
-547.325	39.383	-0.300	-0.343
-546.310	-136.575	-0.207	0.030
-545.296	-113.256	-0.229	-0.057
-544.281	275.414	-0.070	-0.160
-543.266	224.718	-0.181	-0.375
-542.252	-77.021	0.198	0.087
-541.237	490.573	-0.086	-0.253
-540.223	-79.554	-0.507	-0.217
-539.208	87.125	0.180	-0.254
-538.193	-108.268	-0.372	-0.102
-537.179	-57.356	-0.431	0.241
-536.164	-122.252	-0.249	-0.051
-535.150	109.930	-0.325	-0.497
-534.135	252.507	-0.135	0.294
-533.121	58.870	-0.479	0.600
-532.106	113.227	0.075	0.117
-531.091	-200.000	0.043	-0.272
-530.077	-200.000	0.043	-0.612
-529.062	-45.524	0.108	-0.068
-528.048	-18.593	-0.218	-0.173
-527.033	88.696	-0.273	-0.387
-526.018	-200.000	0.093	0.624
-525.004	-136.230	0.493	0.073
-523.989	-142.226	-0.149	0.019
-522.975	-200.000	-0.048	0.385
-521.960	250.368	0.052	0.113
-520.945	17.164	0.077	-0.078
-519.931	80.500	-0.174	0.239
-518.916	-200.000	-0.047	-0.277
-517.902	800.000	0.091	-0.354
-516.887	4.017	-0.387	0.360
-515.872	-113.706	-0.282	0.070
-514.858	59.196	-0.115	-0.144
-513.843	800.000	0.034	-0.168
-512.829	77.268	0.192	0.261
-511.814	144.648	-0.111	-0.189
-510.799	-22.597	-0.114	0.088
-509.785	23.076	0.107	-0.112
-508.770	57.841	-0.207	0.259
-507.756	-130.984	0.191	0.032
-506.741	169.036	-0.117	-0.213
-505.726	74.602	0.118	-0.159
-504.712	-200.000	0.008	0.318
-503.697	-96.894	-0.194	0.064
-502.683	387.636	0.128	0.337
-501.668	-13.397	-0.119	-0.098
-500.653	-200.000	0.064	-0.382
-499.639	72.083	-0.175	0.232
-498.624	-75.176	0.432	-0.195
-497.610	-96.955	0.277	-0.092
-496.595	782.843	-0.044	-0.155
-495.581	800.000	-0.033	-0.132
-494.566	1.002	-0.135	-0.123
-493.551	-66.766	0.254	0.127
-492.537	-38.315	0.158	0.106
-491.522	17.939	0.385	0.390
-490.508	151.166	-0.237	0.411
-489.493	363.546	0.015	-0.038
-488.478	77.329	0.183	0.247
-487.464	-200.000	0.008	-0.144
-486.449	-9.831	-0.145	0.122
-485.435	-200.000	-0.046	-0.394
-484.420	-9.289	-0.123	0.104
-483.405	-18.081	0.286	-0.228
-482.391	4.975	-0.165	0.154
-481.376	-84.713	-0.015	0.006
-480.362	-116.570	-0.271	-0.063
-479.347	-47.145	0.462	-0.285
-478.332	-123.314	0.350	0.070
-477.318	-93.272	0.253	0.089
-476.303	64.611	0.343	-0.440
-475.289	82.306	-0.068	0.093
-474.274	-106.945	-0.512	0.143
-473.259	-78.447	-0.446	0.193
-472.245	-83.801	0.192	0.077
-471.230	5.092	-0.106	0.099
-470.216	-88.554	0.603	0.227
-469.201	111.230	-0.063	0.096
-468.186	107.436	-0.175	0.266
-467.172	-200.000	-0.022	-0.597
-466.157	-38.383	0.212	-0.143
-465.143	-15.787	0.247	0.200
-464.128	449.937	-0.184	0.519
-463.113	-147.822	0.437	0.046
-462.099	800.000	0.067	0.308
-461.084	139.913	-0.240	-0.402
-460.070	87.726	0.135	0.190
-459.055	-50.440	-0.224	-0.134
-458.040	-74.320	-0.207	-0.095
-457.026	-70.878	-0.086	0.041
-456.011	45.826	-0.301	0.354
-454.997	-127.078	-0.307	0.057
-453.982	-74.852	-0.093	0.042
-452.968	-106.513	0.158	0.045
-451.953	-139.644	0.604	0.081
-450.938	-179.568	0.092	0.002
-449.924	18.326	-0.255	-0.258
-448.909	-32.058	0.095	0.068
-447.895	-107.682	-0.091	-0.025
-446.880	-92.683	-0.177	0.062
-445.865	470.802	0.181	0.521
-444.851	13.748	-0.317	-0.313
-443.836	-114.852	-0.412	0.099
-442.822	-161.030	-0.157	-0.010
-441.807	-129.078	0.119	-0.021
-440.792	618.730	0.005	-0.016
-439.778	-92.569	0.175	0.062
-438.763	-200.000	0.009	-0.091
-437.749	-55.133	0.397	-0.226
-436.734	66.941	-0.069	0.089
-435.719	25.954	0.191	-0.202
-434.705	-104.245	0.502	0.147
-433.690	-44.821	-0.608	0.383
-432.676	-30.278	-0.374	0.269
-431.661	-150.168	0.081	-0.008
-430.646	-19.379	-0.430	-0.337
-429.632	-115.388	-0.347	0.082
-428.617	-172.058	0.302	0.012
-427.603	-15.191	0.390	0.316
-426.588	-200.000	0.061	0.398
-425.573	-15.882	-0.352	0.284
-424.559	-9.937	-0.160	-0.135
-423.544	-93.272	0.533	0.187
-422.530	-113.367	0.433	-0.107
-421.515	-22.687	-0.194	-0.149
-420.500	38.794	0.286	0.324
-419.486	-42.058	0.591	0.383
-418.471	8.387	0.237	0.226
-417.457	8.596	0.185	-0.176
-416.442	184.075	0.359	0.675
-415.428	176.213	0.139	0.256
-414.413	-16.737	0.154	0.123
-413.398	-154.059	0.213	-0.018
-412.384	432.675	-0.013	0.035
-411.369	-114.232	-0.393	0.095
-410.355	-6.561	-0.094	-0.081
-409.340	-113.047	0.364	0.090
-408.325	-72.630	0.240	-0.112
-407.311	505.781	0.125	-0.368
-406.296	800.000	-0.077	0.301
-405.282	15.097	-0.338	0.335
-404.267	172.125	0.227	0.415
-403.252	206.012	0.290	0.574
-402.238	-19.656	0.056	-0.044
-401.223	434.194	0.202	0.560
-400.209	-69.178	-0.399	0.193
-399.194	-167.408	-0.213	0.011
-398.179	-108.976	0.368	-0.099
-397.165	119.857	0.299	-0.470
-396.150	294.686	0.048	-0.112
-395.136	163.335	0.099	0.177
-394.121	-46.414	0.380	-0.236
-393.106	800.000	-0.041	-0.171
-392.092	104.651	0.145	-0.216
-391.077	77.094	0.079	-0.107
-390.063	-30.794	0.379	-0.271
-389.048	167.365	0.274	-0.495
-388.033	-104.698	-0.427	-0.124
-387.019	-76.985	-0.303	0.133
-386.004	800.000	-0.106	0.502
-384.990	-142.991	-0.393	-0.048
-383.975	-82.185	0.618	0.254
-382.960	-48.536	-0.270	0.164
-381.946	51.839	-0.056	-0.067
-380.931	-182.599	-0.724	0.016
-379.917	-138.735	-0.417	0.057
-378.902	39.434	-0.048	-0.054
-377.888	-78.412	-0.200	0.086
-376.873	-200.000	-0.032	0.248
-375.858	51.016	-0.172	0.207
-374.844	-200.000	-0.016	0.406
-373.829	-1.324	-0.371	-0.332
-372.815	-40.904	-0.246	-0.161
-371.800	-181.944	-0.312	-0.007
-370.785	-51.617	-0.075	-0.044
-369.771	-200.000	-0.017	-0.205
-368.756	-66.872	0.147	0.073
-367.742	623.892	0.155	0.496
-366.727	-86.197	-0.289	-0.112
-365.712	-88.692	0.459	-0.172
-364.698	73.383	-0.326	0.433
-363.683	89.782	0.236	0.334
-362.669	261.551	-0.102	0.225
-361.654	-164.968	-0.348	-0.019
-360.639	163.158	0.221	0.394
-359.625	100.696	-0.251	0.370
-358.610	404.212	-0.077	-0.205
-357.596	-145.582	0.500	-0.056
-356.581	800.000	0.115	-0.423
-355.566	461.088	0.096	-0.271
-354.552	-21.227	0.281	0.217
-353.537	-200.000	-0.021	-0.516
-352.523	-54.820	-0.392	0.223
-351.508	188.566	-0.055	0.105
-350.493	164.424	0.090	-0.161
-349.479	-52.914	-0.125	0.073
-348.464	-200.000	0.066	-0.419
-347.450	552.896	-0.118	0.361
-346.435	31.536	0.034	0.037
-345.420	0.060	0.281	-0.253
-344.406	184.902	-0.057	-0.107
-343.391	31.502	0.202	-0.220
-342.377	449.378	0.104	-0.292
-341.362	-170.662	0.551	0.024
-340.348	800.000	-0.023	0.086
-339.333	-185.898	-0.115	-0.002
-338.318	238.469	0.212	0.447
-337.304	-116.558	0.180	-0.042
-336.289	-200.000	-0.010	-0.396
-335.275	-40.205	0.179	0.118
-334.260	236.715	0.189	-0.396
-333.245	-81.961	-0.192	0.079
-332.231	102.400	0.185	0.274
-331.216	210.761	0.094	-0.187
-330.202	800.000	-0.013	0.067
-329.187	-188.795	0.216	-0.003
-328.172	620.356	-0.066	0.210
-327.158	-18.411	0.175	0.138
-326.143	163.290	0.086	-0.154
-325.129	270.024	-0.053	-0.119
-324.114	-146.803	-0.347	-0.037
-323.099	-101.813	-0.366	0.111
-322.085	-68.289	0.352	-0.172
-321.070	209.536	-0.114	0.227
-320.056	-200.000	-0.010	-0.152
-319.041	-28.390	-0.176	0.128
-318.026	-200.000	0.021	0.153
-317.012	58.579	-0.193	0.239
-315.997	540.791	-0.131	0.395
-314.983	470.126	-0.067	-0.190
-313.968	-102.075	-0.325	0.098
-312.953	-4.172	0.190	0.166
-311.939	800.000	0.031	-0.142
-310.924	-28.052	0.234	0.171
-309.910	-200.000	0.007	-0.246
-308.895	800.000	0.081	0.364
-307.880	-52.788	-0.281	0.163
-306.866	-146.642	0.048	-0.005
-305.851	171.843	-0.078	-0.142
-304.837	141.415	0.032	-0.053
-303.822	-88.031	0.465	0.175
-302.807	117.772	-0.254	-0.395
-301.793	-21.903	0.566	0.433
-300.778	800.000	0.029	0.125
-299.764	-103.825	-0.266	-0.078
-298.749	-12.741	0.103	0.085
-297.735	430.319	-0.062	-0.171
-296.720	-47.175	0.307	-0.188
-295.705	-53.302	0.485	-0.280
-294.691	-112.036	0.192	0.048
-293.676	-39.365	0.433	0.286
-292.662	88.913	-0.464	0.652
-291.647	-20.461	-0.516	0.400
-290.632	91.027	-0.275	0.389
-289.618	-131.150	-0.413	0.069
-288.603	68.650	-0.106	-0.138
-287.589	79.897	0.223	0.303
-286.574	-30.455	0.410	-0.293
-285.559	-66.652	-0.360	-0.179
-284.545	-45.527	0.424	-0.264
-283.530	134.480	-0.284	0.465
-282.516	-21.777	0.049	0.037
-281.501	91.393	-0.253	0.359
-280.486	-89.712	0.305	-0.112
-279.472	-107.627	0.147	-0.040
-278.457	-53.182	0.358	0.207
-277.443	-79.388	0.117	-0.050
-276.428	-159.579	0.390	-0.027
-275.413	-148.936	-0.412	-0.041
-274.399	-107.593	-0.730	0.200
-273.384	-105.970	-0.442	0.125
-272.370	93.215	-0.246	0.351
-271.355	-200.000	-0.061	0.356
-270.340	-10.600	-0.138	-0.115
-269.326	7.387	-0.340	0.320
-268.311	-3.442	0.088	0.077
-267.297	167.312	-0.206	-0.369
-266.282	-66.172	-0.173	-0.086
-265.267	163.525	-0.090	-0.159
-264.253	46.286	0.187	0.219
-263.238	-97.146	-0.376	-0.123
-262.224	349.873	-0.189	-0.473
-261.209	-200.000	-0.004	-0.163
-260.195	8.087	-0.213	-0.201
-259.180	-122.980	0.063	-0.013
-258.165	-200.000	-0.017	-0.163
-257.151	-145.691	-0.494	-0.055
-256.136	-16.684	-0.393	-0.313
-255.122	-125.700	-0.275	-0.052
-254.107	150.895	-0.166	0.285
-253.092	50.529	0.146	-0.174
-252.078	310.151	0.033	0.078
-251.063	1.837	-0.214	-0.194
-250.049	-200.000	0.001	0.146
-249.034	66.055	0.300	-0.384
-248.019	-30.908	-0.320	-0.227
-247.005	-119.541	-0.392	0.085
-245.990	-97.721	0.725	0.235
-244.976	-43.270	-0.145	-0.092
-243.961	427.924	-0.027	0.074
-242.946	19.081	0.495	-0.500
-241.932	-12.985	0.102	-0.084
-240.917	-74.290	-0.385	-0.174
-239.903	61.405	-0.124	-0.155
-238.888	-100.726	0.165	0.051
-237.873	623.760	-0.034	-0.108
-236.859	678.502	0.132	-0.434
-235.844	24.249	-0.091	-0.094
-234.830	800.000	-0.121	0.462
-233.815	87.029	0.123	-0.172
-232.800	-11.254	0.265	0.220
-231.786	-90.864	0.402	-0.145
-230.771	-178.695	0.297	-0.008
-229.757	-200.000	-0.059	0.360
-228.742	-126.344	0.698	0.130
-227.727	800.000	0.035	-0.192
-226.713	-49.612	0.323	0.193
-225.698	58.294	0.232	-0.287
-224.684	-45.035	0.404	0.253
-223.669	-27.334	0.222	0.163
-222.655	-83.914	0.369	-0.147
-221.640	-27.349	-0.129	0.094
-220.625	10.033	-0.071	0.068
-219.611	13.289	-0.225	0.219
-218.596	800.000	0.119	0.441
-217.582	29.534	-0.104	0.111
-216.567	-63.317	-0.448	0.231
-215.552	-200.000	-0.015	0.161
-214.538	45.082	0.160	-0.186
-213.523	-19.469	-0.250	-0.195
-212.509	42.174	-0.055	0.063
-211.494	-45.441	-0.295	0.183
-210.479	193.369	0.137	-0.261
-209.465	-200.000	-0.008	0.407
-208.450	276.922	-0.115	0.259
-207.436	-50.758	-0.336	-0.198
-206.421	230.948	-0.287	0.593
-205.406	124.318	-0.120	0.190
-204.392	800.000	0.049	0.221
-203.377	19.360	-0.183	-0.185
-202.363	-131.542	-0.610	-0.100
-201.348	490.870	-0.133	0.386
-200.333	-200.000	0.033	-0.328
-199.319	-200.000	-0.103	-0.654
-198.304	-72.983	0.395	-0.182
-197.290	-10.277	0.419	0.349
-196.275	800.000	-0.071	0.293
-195.260	83.123	-0.024	0.033
-194.246	-125.710	-0.180	-0.034
-193.231	-48.388	0.091	0.055
-192.217	800.000	-0.069	-0.343
-191.202	-10.212	0.165	0.137
-190.187	9.735	0.313	-0.298
-189.173	-63.626	0.367	0.189
-188.158	-33.411	-0.250	-0.173
-187.144	-88.511	-0.654	-0.244
-186.129	287.630	0.153	0.349
-185.114	690.828	-0.088	-0.292
-184.100	478.727	0.008	0.022
-183.085	-69.059	0.086	0.041
-182.071	-175.110	0.202	-0.007
-181.056	-200.000	-0.026	-0.521
-180.042	-31.185	0.173	0.122
-179.027	196.141	0.142	0.273
-178.012	675.153	0.129	-0.423
-176.998	-200.000	-0.007	0.126
-175.983	146.108	0.211	-0.357
-174.969	120.680	0.210	-0.329
-173.954	-108.744	0.242	-0.065
-172.939	76.730	-0.162	0.216
-171.925	111.412	0.044	-0.066
-170.910	-67.800	-0.245	0.120
-169.896	-58.807	-0.285	-0.154
-168.881	232.997	-0.136	-0.282
-167.866	-100.938	-0.313	-0.096
-166.852	591.537	-0.133	-0.414
-165.837	-200.000	0.313	0.000
-164.823	-194.697	0.185	-0.002
-163.808	-145.112	0.764	-0.086
-162.793	120.047	-0.184	0.287
-161.779	-109.604	-0.274	0.072
-160.764	389.061	-0.048	0.127
-159.750	-16.518	-0.146	-0.116
-158.735	-57.326	0.438	-0.241
-157.720	-107.506	-0.079	-0.022
-156.706	250.364	0.049	0.106
-155.691	-27.470	-0.267	-0.194
-154.677	266.095	0.115	0.252
-153.662	-76.712	0.250	-0.109
-152.647	-143.024	0.271	0.033
-151.633	12.034	-0.332	0.320
-150.618	-187.397	0.347	-0.006
-149.604	-50.466	-0.343	0.203
-148.589	800.000	0.043	0.221
-147.574	-123.151	0.275	-0.055
-146.560	-200.000	0.070	0.397
-145.545	-41.956	-0.192	-0.123
-144.531	800.000	0.040	-0.194
-143.516	-200.000	-0.020	0.120
-142.502	-9.070	-0.121	0.101
-141.487	-121.376	-0.240	0.050
-140.472	-81.835	-0.278	0.114
-139.458	785.895	-0.110	-0.381
-138.443	-113.191	-0.368	0.090
-137.429	-13.674	0.216	0.175
-136.414	-200.000	-0.048	-0.343
-135.399	-89.724	-0.329	0.120
-134.385	74.848	-0.247	-0.326
-133.370	-28.393	0.085	0.061
-132.356	81.065	-0.097	-0.132
-131.341	-171.715	-0.393	0.016
-130.326	228.259	-0.216	0.443
-129.312	258.570	0.005	0.011
-128.297	679.062	-0.026	-0.087
-127.283	-148.336	-0.402	0.041
-126.268	128.557	0.255	0.408
-125.253	-140.212	0.131	0.017
-124.239	709.502	-0.044	-0.148
-123.224	39.783	-0.288	0.324
-122.210	-55.283	0.115	-0.064
-121.195	212.500	-0.202	0.401
-120.180	-20.124	0.523	0.403
