DTS Sentinel unit serial number:	SN409020Multiplexer serial number:	ORYXHardware model number:	OX4-SRSoftware version number:	ORYX F/W v3.00 Oryx Data Collector v3.7.2.0data status	okinstallation	HaddamTimeLapsedifferential loss correction	single-endedforward channel	channel 3reverse channel	N/Adate	2011/06/22time	03:16:17forward acquisition time	30.00reverse acquisition time	0.00gamma	498.7831k internal	0.1751k external	0.1751temperature offset calibration	1.0074default loss term (dB/km)	0.3790temperature slope calibration	1.3530multiplexer offset coefficient	1.0000multiplexer slope coefficient	1.0000fibre end	0.00T internal ref (°C)	22.31T ext. ref 1 (°C)	17.68T ext. ref 2 (°C)	0.06length (m)	temperature (°C)	Stokes	anti-Stokes-747.200	-200.000	0.010	-0.333
-746.185	-23.003	0.180	0.144
-745.171	85.929	-0.154	-0.225
-744.156	-44.168	0.165	0.110
-743.142	-61.532	-0.131	0.073
-742.127	1.680	0.130	-0.125
-741.112	800.000	0.076	-0.288
-740.098	65.761	-0.117	0.158
-739.083	214.447	-0.164	0.346
-738.069	-3.570	-0.354	0.327
-737.054	-127.934	-0.245	0.046
-736.039	-110.109	0.266	-0.073
-735.025	-94.222	0.388	-0.140
-734.010	135.392	-0.316	-0.548
-732.996	-57.662	-0.116	-0.067
-731.981	800.000	0.051	-0.236
-730.966	-167.814	-0.480	-0.025
-729.952	800.000	0.069	0.339
-728.937	54.471	-0.147	-0.189
-727.923	90.515	0.234	0.349
-726.908	64.529	-0.240	0.321
-725.894	800.000	-0.088	-0.438
-724.879	-65.678	0.424	-0.225
-723.864	-43.621	0.073	-0.049
-722.850	-96.482	0.163	-0.057
-721.835	-9.119	0.097	-0.086
-720.821	594.390	-0.148	0.487
-719.806	89.461	-0.231	-0.343
-718.791	104.019	0.224	-0.350
-717.777	-161.924	0.179	-0.012
-716.762	40.754	-0.371	-0.444
-715.748	273.458	0.102	0.240
-714.733	280.598	-0.051	0.122
-713.718	-129.294	-0.509	0.093
-712.704	-200.000	-0.048	0.338
-711.689	-200.000	-0.014	-0.156
-710.675	-55.611	-0.212	-0.126
-709.660	-82.052	-0.168	-0.072
-708.645	-171.397	-0.177	0.008
-707.631	-120.532	-0.643	0.144
-706.616	431.508	0.192	-0.554
-705.602	800.000	-0.126	-0.727
-704.587	162.454	-0.052	-0.097
-703.572	173.350	-0.053	-0.102
-702.558	-117.243	0.320	0.077
-701.543	-185.610	-0.092	0.002
-700.529	-146.234	0.129	-0.015
-699.514	31.890	-0.127	-0.145
-698.499	800.000	0.093	-0.394
-697.485	151.707	0.188	0.340
-696.470	171.574	-0.185	0.353
-695.456	-200.000	0.425	0.002
-694.441	-24.086	0.284	0.224
-693.426	173.082	0.292	0.559
-692.412	-200.000	-0.002	0.415
-691.397	-41.313	-0.435	0.296
-690.383	-40.393	-0.454	0.312
-689.368	188.588	0.114	-0.226
-688.354	139.006	-0.200	0.350
-687.339	-75.498	0.184	-0.086
-686.324	-193.955	0.455	0.005
-685.310	-114.971	0.273	0.068
-684.295	63.003	0.356	0.473
-683.281	-191.936	0.066	0.001
-682.266	452.968	-0.086	-0.254
-681.251	-22.635	-0.308	-0.246
-680.237	-94.483	0.146	0.053
-679.222	22.216	-0.214	-0.232
-678.208	136.475	-0.032	0.055
-677.193	-142.410	-0.339	-0.044
-676.178	156.367	0.052	-0.096
-675.164	424.931	-0.056	-0.161
-674.149	-58.513	-0.335	-0.192
-673.135	-170.060	-0.472	0.022
-672.120	-37.169	0.116	0.082
-671.105	-102.679	0.318	-0.100
-670.091	-32.928	0.263	0.193
-669.076	22.017	0.300	-0.324
-668.062	19.140	-0.200	-0.213
-667.047	635.716	0.082	0.277
-666.032	124.941	0.131	0.220
-665.018	-200.000	0.009	-0.205
-664.003	-85.882	0.317	-0.129
-662.989	97.050	-0.187	0.284
-661.974	-200.000	0.021	0.245
-660.959	47.130	-0.311	-0.384
-659.945	147.073	0.123	0.219
-658.930	-129.536	0.433	0.079
-657.916	-200.000	-0.075	-0.000
-656.901	-55.645	0.124	0.073
-655.886	-81.085	0.548	-0.239
-654.872	-107.841	-0.383	0.110
-653.857	-96.228	0.100	0.035
-652.843	-137.301	-0.252	0.038
-651.828	19.719	-0.313	0.334
-650.814	-37.686	-0.134	0.094
-649.799	570.131	-0.095	0.309
-648.784	-94.856	-0.295	0.105
-647.770	133.114	-0.204	-0.349
-646.755	-200.000	0.072	0.441
-645.741	800.000	0.046	-0.172
-644.726	800.000	0.047	0.178
-643.711	79.316	0.021	0.030
-642.697	-131.007	-0.348	0.061
-641.682	99.519	0.248	0.381
-640.668	766.495	0.152	-0.549
-639.653	-42.225	-0.520	-0.350
-638.638	-44.407	0.086	-0.057
-637.624	-151.448	-0.381	-0.037
-636.609	30.405	0.345	-0.390
-635.595	-66.394	-0.281	0.147
-634.580	-94.692	0.408	0.146
-633.565	334.608	-0.212	-0.546
-632.551	-200.000	-0.008	0.112
-631.536	170.306	-0.251	0.476
-630.522	-48.398	-0.024	0.015
-629.507	-2.101	0.121	0.112
-628.492	-57.549	-0.116	0.067
-627.478	174.742	0.044	0.084
-626.463	-48.796	0.842	0.532
-625.449	-66.949	0.423	0.220
-624.434	141.009	-0.182	-0.319
-623.419	126.848	-0.183	-0.307
-622.405	338.550	0.264	-0.683
-621.390	126.524	0.037	-0.063
-620.376	-7.507	-0.196	0.175
-619.361	136.879	0.047	0.081
-618.346	-78.786	-0.533	0.239
-617.332	800.000	-0.198	-0.870
-616.317	-92.227	0.503	0.187
-615.303	193.436	-0.131	-0.262
-614.288	-102.512	-0.429	-0.135
-613.273	-200.000	0.008	-0.071
-612.259	196.599	0.210	-0.424
-611.244	-63.762	0.549	-0.296
-610.230	-109.684	-0.290	-0.080
-609.215	245.909	0.153	-0.342
-608.201	-71.878	-0.175	-0.086
-607.186	-96.820	0.112	-0.039
-606.171	-50.592	0.121	0.075
-605.157	-72.445	0.269	0.131
-604.142	479.612	-0.069	-0.206
-603.128	-63.293	0.513	-0.278
-602.113	-200.000	-0.045	-0.296
-601.098	-113.105	-0.225	-0.058
-600.084	-200.000	0.054	0.544
-599.069	230.186	0.088	-0.190
-598.055	-74.274	0.260	0.124
-597.040	-46.781	-0.407	0.262
-596.025	-125.565	-0.145	0.029
-595.011	-159.135	0.406	-0.030
-593.996	159.789	0.172	-0.317
-592.982	-171.000	-0.310	-0.014
-591.967	800.000	0.074	0.277
-590.952	-68.437	0.313	-0.160
-589.938	-111.093	-0.133	-0.036
-588.923	-121.009	0.491	0.108
-587.909	-200.000	-0.054	-0.499
-586.894	-110.368	-0.446	-0.122
-585.879	165.105	-0.219	0.410
-584.865	-200.000	-0.015	0.432
-583.850	-151.158	-0.025	-0.002
-582.836	-88.284	-0.320	-0.126
-581.821	81.372	0.327	-0.468
-580.806	236.626	-0.162	0.356
-579.792	-71.807	0.274	0.134
-578.777	172.583	-0.102	-0.193
-577.763	-200.000	-0.033	-0.633
-576.748	-182.338	0.111	-0.003
-575.733	62.539	-0.181	0.239
-574.719	254.949	-0.084	-0.190
-573.704	-86.815	-0.073	0.029
-572.690	-165.509	-0.551	0.031
-571.675	-134.153	-0.442	0.071
-570.661	-35.553	-0.191	0.136
-569.646	5.829	0.154	0.150
-568.631	-91.157	-0.389	-0.146
-567.617	800.000	-0.046	-0.184
-566.602	-138.393	-0.429	0.062
-565.588	-114.754	0.083	-0.021
-564.573	-200.000	-0.058	-0.366
-563.558	243.742	0.070	-0.155
-562.544	-63.338	0.355	0.192
-561.529	98.981	-0.147	0.224
-560.515	-82.362	0.098	-0.042
-559.500	-200.000	0.008	-0.065
-558.485	374.851	-0.060	-0.162
-557.471	113.733	0.146	0.235
-556.456	135.962	0.243	-0.419
-555.442	-200.000	-0.015	-0.206
-554.427	-133.045	0.351	0.058
-553.412	-185.168	0.295	0.006
-552.398	40.938	0.397	0.472
-551.383	-85.142	0.442	-0.182
-550.369	-151.027	0.433	0.042
-549.354	-57.717	-0.169	0.097
-548.339	-131.687	0.251	-0.043
-547.325	-161.561	-0.158	-0.011
-546.310	140.332	0.115	0.201
-545.296	-150.181	-0.694	0.070
-544.281	-153.415	-0.144	0.013
-543.266	-57.023	-0.064	-0.037
-542.252	91.508	0.057	0.084
-541.237	-77.183	0.273	0.125
-540.223	-54.341	0.209	0.125
-539.208	-200.000	0.033	-0.194
-538.193	-200.000	0.013	-0.076
-537.179	-54.284	0.387	0.231
-536.164	-6.438	-0.037	-0.033
-535.150	-71.933	0.180	0.088
-534.135	-115.496	0.409	0.101
-533.121	209.517	0.008	-0.017
-532.106	-103.128	-0.240	0.074
-531.091	36.812	-0.144	0.167
-530.077	410.329	0.069	0.194
-529.062	-52.264	0.121	0.073
-528.048	487.096	-0.117	0.353
-527.033	-169.623	0.259	0.012
-526.018	-121.262	0.457	0.100
-525.004	-108.831	-0.296	0.083
-523.989	-82.094	0.506	0.217
-522.975	146.627	0.137	0.244
-521.960	-32.081	-0.264	-0.194
-520.945	245.058	0.165	0.367
-519.931	-70.275	-0.151	0.075
-518.916	83.257	-0.223	-0.321
-517.902	80.726	-0.160	0.227
-516.887	-69.814	0.035	0.017
-515.872	73.849	0.129	-0.178
-514.858	190.085	0.193	0.382
-513.843	-102.401	-0.118	-0.037
-512.829	85.773	-0.216	0.313
-511.814	800.000	-0.086	-0.496
-510.799	357.204	-0.124	0.328
-509.785	-200.000	-0.068	0.531
-508.770	-200.000	-0.012	0.103
-507.756	-110.460	-0.513	0.139
-506.741	-3.554	0.233	0.213
-505.726	800.000	-0.088	-0.367
-504.712	-142.820	0.368	0.047
-503.697	-116.246	0.119	-0.029
-502.683	-104.399	0.053	-0.016
-501.668	-127.135	-0.643	-0.123
-500.653	-89.603	-0.500	-0.192
-499.639	-122.039	-0.567	0.122
-498.624	-68.152	-0.133	-0.068
-497.610	193.894	0.188	0.375
-496.595	-158.808	0.113	-0.008
-495.581	-92.501	0.214	0.079
-494.566	31.609	0.237	-0.268
-493.551	19.706	-0.151	-0.160
-492.537	165.410	-0.160	0.298
-491.522	-36.229	0.422	0.299
-490.508	434.340	-0.102	-0.292
-489.493	103.251	-0.142	0.220
-488.478	-118.393	0.236	-0.055
-487.464	-127.933	0.246	-0.046
-486.449	-36.554	0.138	0.097
-485.435	291.938	-0.039	-0.094
-484.420	-34.894	0.229	-0.164
-483.405	-41.920	-0.076	0.051
-482.391	-14.591	0.109	0.092
-481.376	16.611	0.267	-0.278
-480.362	-200.000	0.000	0.219
-479.347	322.183	0.065	-0.164
-478.332	411.652	0.052	-0.147
-477.318	-89.940	-0.170	0.065
-476.303	94.510	-0.039	-0.058
-475.289	-200.000	0.004	0.057
-474.274	-200.000	-0.081	0.557
-473.259	143.256	-0.148	0.260
-472.245	119.973	0.219	-0.358
-471.230	-200.000	-0.018	-0.242
-470.216	107.532	-0.072	0.112
-469.201	44.412	0.112	0.135
-468.186	-6.662	-0.357	0.319
-467.172	-200.000	0.035	-0.234
-466.157	-152.114	0.524	-0.049
-465.143	218.064	0.049	-0.103
-464.128	132.296	-0.115	-0.195
-463.113	21.584	-0.112	-0.120
-462.099	-200.000	0.013	0.208
-461.084	-116.827	-0.320	0.076
-460.070	-113.278	0.040	-0.010
-459.055	800.000	-0.077	-0.308
-458.040	127.316	-0.035	-0.058
-457.026	-200.000	0.005	-0.346
-456.011	-200.000	0.010	0.524
-454.997	-200.000	0.004	0.518
-453.982	-190.210	-0.186	0.003
-452.968	-20.269	0.097	0.078
-451.953	-155.866	-0.383	-0.032
-450.938	132.976	0.109	-0.185
-449.924	103.167	0.413	0.636
-448.909	-71.404	0.138	0.067
-447.895	44.775	0.362	-0.438
-446.880	27.522	0.183	-0.203
-445.865	-125.367	0.584	0.116
-444.851	674.178	0.099	-0.340
-443.836	-61.223	-0.338	0.186
-442.822	-200.000	-0.028	-0.297
-441.807	94.444	-0.171	-0.255
-440.792	-200.000	-0.016	0.133
-439.778	-82.661	0.265	-0.112
-438.763	320.562	0.158	0.395
-437.749	151.238	-0.097	-0.173
-436.734	-119.082	0.305	0.069
-435.719	98.277	0.389	-0.590
-434.705	-181.528	-0.537	0.013
-433.690	32.093	-0.191	-0.216
-432.676	-19.709	-0.069	-0.056
-431.661	-154.448	0.313	-0.027
-430.646	-70.947	-0.345	-0.170
-429.632	-41.106	-0.259	-0.175
-428.617	-42.039	-0.126	0.084
-427.603	205.851	0.184	-0.377
-426.588	-44.242	0.265	-0.174
-425.573	64.210	-0.058	-0.077
-424.559	-69.036	0.088	-0.044
-423.544	-200.000	0.021	-0.298
-422.530	-45.830	0.110	0.071
-421.515	-200.000	-0.012	-0.483
-420.500	320.867	-0.202	-0.506
-419.486	-148.247	0.293	0.031
-418.471	-56.225	-0.325	-0.189
-417.457	12.427	-0.149	-0.151
-416.442	180.294	-0.100	0.193
-415.428	-62.250	0.254	-0.138
-414.413	800.000	-0.012	-0.063
-413.398	219.812	-0.068	-0.144
-412.384	-60.858	-0.303	0.168
-411.369	-75.994	0.348	-0.161
-410.355	-151.341	0.566	0.055
-409.340	9.961	-0.145	0.144
-408.325	35.306	0.449	0.516
-407.311	22.851	0.178	-0.191
-406.296	-138.249	-0.493	0.071
-405.282	-94.113	-0.359	-0.128
-404.267	-200.000	0.007	-0.424
-403.252	-200.000	0.021	0.353
-402.238	5.671	-0.019	0.018
-401.223	84.412	0.094	0.135
-400.209	487.817	-0.156	-0.470
-399.194	34.361	0.142	0.163
-398.179	-26.134	0.273	-0.210
-397.165	-200.000	0.023	0.180
-396.150	241.688	0.118	0.258
-395.136	-8.175	0.427	-0.376
-394.121	-56.435	0.354	-0.205
-393.106	-200.000	-0.038	-0.452
-392.092	4.592	-0.503	0.484
-391.077	-113.184	-0.377	-0.097
-390.063	153.728	0.112	0.202
-389.048	74.584	0.331	0.457
-388.033	-200.000	-0.051	0.342
-387.019	-92.453	0.335	0.123
-386.004	-14.449	0.638	0.537
-384.990	-200.000	0.014	0.288
-383.975	18.080	-0.147	0.153
-382.960	-15.956	-0.129	0.107
-381.946	156.033	0.052	0.094
-380.931	80.629	-0.298	-0.422
-379.917	-34.256	-0.567	-0.407
-378.902	34.064	-0.204	-0.232
-377.888	-176.660	-0.284	0.009
-376.873	800.000	0.135	-0.532
-375.858	-123.084	0.728	-0.152
-374.844	33.569	0.301	0.342
-373.829	-200.000	0.059	0.558
-372.815	-7.588	-0.480	0.424
-371.800	-128.559	-0.161	-0.030
-370.785	-33.068	0.424	0.307
-369.771	-168.038	0.189	0.010
-368.756	-23.892	0.249	-0.195
-367.742	-169.090	0.176	-0.008
-366.727	-164.073	-0.394	0.024
-365.712	576.662	0.154	-0.495
-364.698	460.281	0.230	-0.675
-363.683	-130.291	-0.428	0.075
-362.669	134.280	-0.026	0.043
-361.654	-129.064	-0.360	0.065
-360.639	477.543	-0.199	0.591
-359.625	3.056	-0.480	0.457
-358.610	-24.978	-0.331	0.257
-357.596	-134.936	0.312	0.049
-356.581	15.407	-0.227	0.233
-355.566	-114.148	0.527	0.132
-354.552	-140.311	0.588	-0.080
-353.537	800.000	-0.078	-0.345
-352.523	29.138	-0.037	0.041
-351.508	-200.000	0.023	0.641
-350.493	146.060	0.107	0.188
-349.479	-101.200	-0.485	-0.154
-348.464	-62.822	-0.305	-0.165
-347.450	-43.772	0.296	-0.194
-346.435	-5.754	-0.256	-0.229
-345.420	800.000	0.083	-0.408
-344.406	-200.000	0.007	0.143
-343.391	-72.028	-0.345	-0.167
-342.377	497.107	0.172	-0.521
-341.362	133.450	-0.324	-0.548
-340.348	12.611	-0.200	-0.202
-339.333	-99.268	-0.053	0.017
-338.318	312.967	-0.102	-0.252
-337.304	-116.693	0.489	-0.116
-336.289	-200.000	0.068	-0.611
-335.275	-108.273	0.153	-0.043
-334.260	-1.948	0.117	-0.107
-333.245	513.064	-0.091	-0.280
-332.231	-167.655	-0.158	0.008
-331.216	-111.657	-0.394	0.104
-330.202	-200.000	-0.006	-0.177
-329.187	-66.836	-0.564	-0.290
-328.172	-200.000	-0.054	-0.494
-327.158	-75.717	0.048	0.022
-326.143	280.433	-0.045	0.104
-325.129	255.718	-0.004	-0.010
-324.114	-200.000	-0.002	-0.351
-323.099	-132.325	0.363	-0.061
-322.085	-200.000	-0.065	0.558
-321.070	354.133	0.170	0.442
-320.056	-41.360	-0.459	0.308
-319.041	-84.724	-0.246	-0.101
-318.026	-152.740	-0.214	-0.020
-317.012	12.314	-0.228	0.229
-315.997	-200.000	0.027	0.163
-314.983	-136.396	0.665	-0.100
-313.968	-13.558	0.151	-0.127
-312.953	-200.000	-0.078	0.502
-311.939	59.229	-0.288	0.371
-310.924	385.453	0.036	0.096
-309.910	-1.769	-0.156	0.144
-308.895	-120.294	-0.051	0.011
-307.880	118.559	-0.202	0.326
-306.866	-123.653	0.270	0.055
-305.851	-100.730	-0.721	-0.231
-304.837	-57.715	-0.298	0.170
-303.822	-24.861	-0.287	0.223
-302.807	32.247	0.203	-0.229
-301.793	-47.700	0.232	0.146
-300.778	-200.000	-0.083	0.536
-299.764	-161.430	0.169	-0.011
-298.749	60.748	-0.186	-0.241
-297.735	20.365	0.308	0.325
-296.720	174.669	-0.176	-0.334
-295.705	-32.549	0.374	-0.271
-294.691	-71.542	-0.252	-0.123
-293.676	260.494	-0.226	0.512
-292.662	360.392	0.061	0.159
-291.647	800.000	-0.011	-0.047
-290.632	-13.241	-0.416	0.352
-289.618	-64.561	-0.183	-0.096
-288.603	-62.593	-0.104	-0.056
-287.589	-142.920	-0.468	-0.059
-286.574	800.000	0.115	0.434
-285.559	236.545	0.053	0.114
-284.545	-200.000	0.467	0.003
-283.530	-183.253	0.822	0.018
-282.516	-200.000	0.047	0.398
-281.501	-200.000	-0.004	-0.073
-280.486	278.534	0.184	-0.430
-279.472	-152.536	0.152	0.014
-278.457	-78.532	-0.149	0.066
-277.443	-200.000	0.016	-0.490
-276.428	117.837	-0.188	-0.303
-275.413	229.969	-0.029	0.062
-274.399	-11.779	-0.215	0.184
-273.384	-8.745	0.077	0.067
-272.370	150.535	-0.228	0.405
-271.355	-104.222	-0.252	0.076
-270.340	-57.437	0.379	0.216
-269.326	-69.749	-0.093	-0.046
-268.311	-85.294	0.445	0.180
-267.297	52.206	-0.126	0.157
-266.282	56.490	0.121	0.153
-265.267	-168.184	0.291	0.014
-264.253	-200.000	0.064	-0.578
-263.238	34.171	0.222	0.252
-262.224	94.014	0.245	-0.363
-261.209	-200.000	0.000	0.067
-260.195	-108.523	0.415	-0.115
-259.180	493.151	0.165	-0.497
-258.165	-41.859	0.298	0.199
-257.151	463.243	-0.102	0.298
-256.136	71.311	-0.281	0.380
-255.122	616.511	0.082	0.268
-254.107	-40.246	0.371	0.251
-253.092	800.000	-0.008	-0.041
-252.078	-165.606	-0.039	-0.002
-251.063	-105.372	-0.472	0.139
-250.049	-200.000	-0.013	0.093
-249.034	716.374	-0.138	-0.479
-248.019	168.306	-0.277	-0.515
-247.005	-200.000	-0.022	-0.173
-245.990	-143.237	0.380	0.047
-244.976	-95.073	0.521	0.182
-243.961	756.738	-0.061	0.218
-242.946	-52.962	0.458	0.274
-241.932	-79.485	0.216	0.095
-240.917	-0.182	-0.303	-0.281
-239.903	80.771	0.085	-0.119
-238.888	21.542	-0.215	0.228
-237.873	-133.413	-0.365	-0.059
-236.859	68.635	-0.258	0.346
-235.844	-131.185	-0.416	-0.071
-234.830	-200.000	0.037	0.321
-233.815	-102.027	0.217	0.068
-232.800	-119.157	-0.223	-0.050
-231.786	-58.734	0.093	-0.052
-230.771	667.694	-0.126	0.427
-229.757	42.880	0.236	0.280
-228.742	-200.000	0.041	0.289
-227.727	-200.000	0.003	-0.194
-226.713	538.621	-0.159	-0.494
-225.698	-200.000	-0.055	-0.458
-224.684	-125.391	0.219	0.043
-223.669	-200.000	-0.027	0.614
-222.655	-81.040	0.167	0.072
-221.640	122.247	0.217	-0.353
-220.625	613.656	-0.099	-0.325
-219.611	-101.835	0.248	0.078
-218.596	102.526	0.236	-0.360
-217.582	-16.312	-0.104	-0.086
-216.567	-41.648	-0.378	0.252
-215.552	-164.918	0.489	-0.028
-214.538	22.745	0.118	-0.126
-213.523	800.000	0.034	-0.159
-212.509	-128.005	-0.040	0.007
-211.494	122.363	-0.203	0.331
-210.479	-103.787	-0.272	0.082
-209.465	-39.662	0.073	-0.049
-208.450	405.666	-0.188	-0.518
-207.436	423.488	0.067	-0.189
-206.421	176.656	-0.069	0.132
-205.406	-34.243	-0.201	-0.143
-204.392	800.000	0.055	0.246
-203.377	248.791	0.127	-0.280
-202.363	-200.000	0.008	0.079
-201.348	381.810	0.106	-0.285
-200.333	41.552	-0.187	0.220
-199.319	-85.251	-0.228	0.092
-198.304	-200.000	0.082	-0.516
-197.290	-97.004	0.439	-0.149
-196.275	-6.904	-0.038	0.034
-195.260	-200.000	-0.003	0.584
-194.246	160.315	-0.005	0.009
-193.231	-200.000	-0.012	0.101
-192.217	-22.896	-0.339	0.265
-191.202	-131.725	-0.209	-0.035
-190.187	800.000	0.022	0.116
-189.173	-144.482	-0.458	0.054
-188.158	-177.969	-0.568	-0.017
-187.144	-109.842	-0.029	-0.008
-186.129	141.971	-0.075	0.129
-185.114	8.843	0.367	-0.360
-184.100	74.488	-0.120	0.165
-183.085	-65.636	0.136	-0.071
-182.071	491.208	0.182	-0.544
-181.056	-200.000	-0.082	0.500
-180.042	-18.042	0.469	0.381
-179.027	-39.834	0.262	0.177
-178.012	185.007	-0.144	0.279
-176.998	-2.045	-0.460	0.420
-175.983	331.473	0.021	-0.053
-174.969	800.000	0.027	-0.105
-173.954	-100.445	-0.227	0.072
-172.939	248.523	-0.240	0.529
-171.925	800.000	0.081	0.436
-170.910	140.119	-0.171	0.294
-169.896	-200.000	-0.036	-0.364
-168.881	-135.455	-0.291	0.045
-167.866	-120.419	-0.652	0.143
-166.852	-200.000	-0.001	0.127
-165.837	-200.000	-0.013	0.124
-164.823	261.543	-0.146	-0.329
-163.808	-51.502	0.787	-0.476
-162.793	444.656	-0.112	0.321
-161.779	175.310	-0.055	0.103
-160.764	346.848	-0.146	-0.375
-159.750	178.206	0.057	-0.109
-158.735	-9.494	0.257	-0.223
-157.720	-90.039	-0.098	-0.037
-156.706	-200.000	-0.019	-0.177
-155.691	-186.798	0.194	-0.003
-154.677	116.444	-0.192	-0.307
-153.662	70.994	-0.206	-0.278
-152.647	-40.197	0.265	-0.178
-151.633	-41.944	-0.240	0.159
-150.618	-101.016	-0.151	-0.048
-149.604	225.182	0.092	0.194
-148.589	-59.645	-0.279	0.155
-147.574	-81.173	0.255	0.109
-146.560	71.950	-0.120	0.162
-145.545	-200.000	-0.034	-0.311
-144.531	18.431	0.268	-0.278
-143.516	599.043	-0.090	0.293
-142.502	-140.689	0.337	0.045
-141.487	337.883	0.180	0.455
-140.472	-161.912	0.284	0.018
-139.458	195.448	-0.108	-0.213
-138.443	-200.000	0.011	-0.212
-137.429	172.747	0.224	-0.420
-136.414	-71.953	-0.296	0.142
-135.399	-106.991	0.191	-0.055
-134.385	216.883	0.046	-0.095
-133.370	-50.669	-0.105	-0.064
-132.356	-91.700	-0.195	-0.072
-131.341	-23.703	0.200	-0.155
-130.326	-37.321	0.278	-0.192
-129.312	-43.347	-0.225	-0.147
-128.297	-196.267	-0.042	-0.000
-127.283	64.387	-0.220	0.288
-126.268	293.353	0.254	0.604
-125.253	-135.939	0.343	0.052
-124.239	61.533	-0.130	-0.167
-123.224	-200.000	-0.022	-0.460
-122.210	163.456	-0.144	0.263
