DTS Sentinel unit serial number:	SN409020Multiplexer serial number:	ORYXHardware model number:	OX4-SRSoftware version number:	ORYX F/W v3.00 Oryx Data Collector v3.7.2.0data status	okinstallation	HaddamTimeLapsedifferential loss correction	single-endedforward channel	channel 3reverse channel	N/Adate	2011/06/21time	18:16:17forward acquisition time	30.00reverse acquisition time	0.00gamma	498.7831k internal	0.1827k external	0.1827temperature offset calibration	1.0074default loss term (dB/km)	0.3790temperature slope calibration	1.3530multiplexer offset coefficient	1.0000multiplexer slope coefficient	1.0000fibre end	0.00T internal ref (°C)	36.37T ext. ref 1 (°C)	28.50T ext. ref 2 (°C)	0.26length (m)	temperature (°C)	Stokes	anti-Stokes-747.200	-98.664	-0.137	-0.044
-746.185	-65.843	0.434	0.220
-745.171	7.388	-0.409	-0.389
-744.156	485.356	0.210	0.612
-743.142	-90.888	0.481	0.175
-742.127	81.222	0.257	0.354
-741.112	26.645	0.282	-0.300
-740.098	-200.000	0.023	0.314
-739.083	328.731	0.076	-0.186
-738.069	144.013	0.323	0.549
-737.054	-27.812	-0.360	0.265
-736.039	-112.375	0.343	0.087
-735.025	-26.647	0.267	0.198
-734.010	-131.685	0.159	0.026
-732.996	-34.833	-0.245	-0.170
-731.981	800.000	-0.114	-0.433
-730.966	-125.284	0.412	-0.079
-729.952	-59.110	0.436	-0.238
-728.937	-200.000	0.064	-0.382
-727.923	-65.975	-0.223	-0.113
-726.908	-20.630	0.054	0.042
-725.894	79.773	0.242	-0.331
-724.879	-152.876	-0.208	-0.018
-723.864	-85.949	-0.183	0.072
-722.850	-51.247	-0.148	-0.088
-721.835	-26.977	-0.422	0.313
-720.821	155.137	0.141	-0.248
-719.806	800.000	0.130	-0.493
-718.791	-89.236	-0.208	0.078
-717.777	-50.368	-0.253	-0.151
-716.762	-111.737	-0.309	-0.079
-715.748	-63.171	0.317	0.166
-714.733	535.326	0.126	0.382
-713.718	96.308	-0.287	-0.417
-712.704	-146.108	0.216	-0.024
-711.689	-95.196	-0.247	0.084
-710.675	-200.000	0.026	0.276
-709.660	359.454	-0.190	0.485
-708.645	-33.165	-0.096	0.067
-707.631	-108.841	0.793	0.214
-706.616	-115.508	-0.291	-0.069
-705.602	-200.000	-0.056	0.368
-704.587	-158.761	-0.677	-0.049
-703.572	-114.065	0.309	0.075
-702.558	800.000	-0.101	-0.383
-701.543	-200.000	-0.054	-0.356
-700.529	461.654	-0.058	-0.165
-699.514	2.848	0.285	-0.262
-698.499	244.235	-0.096	0.206
-697.485	15.892	0.221	0.221
-696.470	800.000	-0.028	-0.117
-695.456	-2.057	-0.150	-0.134
-694.441	746.655	0.094	0.323
-693.426	-200.000	-0.043	0.370
-692.412	-118.449	0.211	0.047
-691.397	-200.000	0.005	0.310
-690.383	484.300	0.134	0.389
-689.368	37.395	-0.125	0.140
-688.354	-63.758	0.535	0.278
-687.339	-79.665	0.081	0.035
-686.324	587.372	-0.069	0.218
-685.310	-200.000	-0.030	-0.217
-684.295	-200.000	0.016	-0.353
-683.281	-200.000	0.005	0.295
-682.266	-200.000	-0.017	0.121
-681.251	-93.229	-0.132	-0.046
-680.237	314.865	-0.142	-0.341
-679.222	-111.307	0.272	0.070
-678.208	304.799	-0.178	-0.422
-677.193	78.400	-0.155	-0.210
-676.178	800.000	0.071	-0.323
-675.164	800.000	0.064	-0.284
-674.149	28.637	0.265	-0.285
-673.135	-57.494	-0.227	0.126
-672.120	117.795	0.286	0.447
-671.105	-46.964	0.222	0.137
-670.091	-67.072	-0.213	-0.106
-669.076	-30.911	0.275	-0.197
-668.062	18.815	0.368	-0.374
-667.047	309.225	0.157	-0.375
-666.032	-70.481	0.393	-0.188
-665.018	21.968	0.230	-0.238
-664.003	-200.000	-0.006	0.215
-662.989	-200.000	0.090	0.524
-661.974	-52.030	-0.160	-0.094
-660.959	-110.920	-0.311	0.080
-659.945	218.133	0.140	0.283
-658.930	466.590	-0.072	-0.206
-657.916	85.128	-0.222	0.309
-656.901	565.394	0.070	-0.217
-655.886	-99.541	0.594	-0.188
-654.872	-67.683	-0.286	-0.141
-653.857	606.935	0.134	-0.425
-652.843	43.907	-0.267	0.311
-651.828	-87.143	-0.310	-0.119
-650.814	256.126	-0.180	-0.393
-649.799	165.056	-0.063	0.112
-648.784	-26.368	-0.110	-0.082
-647.770	37.456	0.159	0.179
-646.755	-196.179	0.166	0.001
-645.741	109.388	0.184	-0.280
-644.726	-61.847	0.174	-0.092
-643.711	140.100	0.219	0.367
-642.697	-90.981	0.190	0.069
-641.682	-200.000	0.414	0.002
-640.668	8.392	0.280	0.267
-639.653	184.926	0.184	-0.346
-638.638	-200.000	0.006	-0.200
-637.624	-200.000	0.033	-0.411
-636.609	-200.000	0.004	-0.117
-635.595	-9.561	-0.176	-0.149
-634.580	-200.000	0.007	-0.242
-633.565	-61.081	0.224	-0.119
-632.551	-68.235	-0.169	-0.083
-631.536	412.265	-0.133	-0.359
-630.522	-93.827	-0.566	-0.196
-629.507	-77.717	-0.534	0.233
-628.492	-118.421	-0.048	-0.011
-627.478	196.327	0.049	-0.095
-626.463	171.649	-0.119	-0.217
-625.449	162.429	0.169	-0.301
-624.434	168.910	-0.162	-0.293
-623.419	-170.058	-0.052	-0.002
-622.405	-80.792	-0.032	0.013
-621.390	-80.855	0.124	0.052
-620.376	425.155	0.159	0.437
-619.361	-167.044	-0.201	0.010
-618.346	4.233	0.094	-0.087
-617.332	13.863	0.227	0.223
-616.317	-9.679	-0.211	0.178
-615.303	751.016	-0.093	-0.318
-614.288	-200.000	-0.014	0.207
-613.273	102.619	-0.126	0.187
-612.259	38.045	0.194	-0.219
-611.244	5.552	0.451	-0.422
-610.230	494.890	-0.203	-0.592
-609.215	154.883	0.235	-0.409
-608.201	149.968	-0.066	-0.114
-607.186	-160.367	-0.638	-0.043
-606.171	-57.905	0.367	-0.202
-605.157	-12.612	0.176	-0.145
-604.142	5.432	-0.193	-0.180
-603.128	-98.309	0.160	-0.052
-602.113	-7.579	-0.296	-0.254
-601.098	-26.500	-0.303	0.224
-600.084	-156.991	0.273	0.021
-599.069	45.181	0.122	-0.142
-598.055	213.429	0.159	-0.320
-597.040	145.071	-0.138	-0.234
-596.025	69.372	-0.056	-0.073
-595.011	-73.275	0.208	-0.096
-593.996	538.778	-0.055	0.167
-592.982	473.116	-0.041	0.118
-591.967	-200.000	0.040	0.236
-590.952	800.000	-0.162	0.700
-589.938	298.793	-0.125	0.291
-588.923	-63.729	0.039	-0.020
-587.909	-65.452	-0.187	-0.095
-586.894	-200.000	-0.021	-0.239
-585.879	-99.251	-0.375	0.119
-584.865	173.340	-0.318	-0.581
-583.850	-200.000	0.044	0.390
-582.836	-3.685	-0.453	-0.398
-581.821	-200.000	-0.035	-0.307
-580.806	-115.925	-0.609	-0.143
-579.792	-52.657	-0.115	0.067
-578.777	-37.593	0.322	0.216
-577.763	-200.000	0.010	-0.081
-576.748	-112.118	-0.581	0.147
-575.733	-104.250	0.120	0.035
-574.719	800.000	0.058	0.246
-573.704	-134.463	-0.433	0.066
-572.690	-117.868	-0.189	-0.043
-571.675	79.749	-0.113	0.154
-570.661	25.777	0.321	0.338
-569.646	54.785	-0.201	-0.245
-568.631	-18.750	0.235	-0.184
-567.617	289.957	0.143	-0.329
-566.602	-56.868	0.368	-0.205
-565.588	-150.813	0.407	-0.039
-564.573	201.150	0.120	0.235
-563.558	-107.869	0.319	-0.087
-562.544	-10.698	0.087	-0.073
-561.529	296.188	0.034	-0.079
-560.515	-200.000	-0.013	-0.306
-559.500	-167.119	-0.497	0.025
-558.485	-118.024	0.104	-0.023
-557.471	-100.514	0.294	-0.091
-556.456	-200.000	0.034	-0.586
-555.442	-126.798	-0.199	0.037
-554.427	606.239	-0.163	-0.516
-553.412	95.488	-0.124	-0.178
-552.398	-200.000	0.018	-0.615
-551.383	219.909	0.068	-0.138
-550.369	386.197	0.165	-0.433
-549.354	-45.774	0.463	0.289
-548.339	-95.097	-0.426	0.144
-547.325	-100.078	0.280	-0.088
-546.310	555.338	0.140	-0.427
-545.296	-118.337	0.296	0.066
-544.281	74.852	0.160	0.214
-543.266	-200.000	-0.009	0.349
-542.252	-94.463	0.293	-0.100
-541.237	185.924	-0.268	0.504
-540.223	439.658	-0.104	0.287
-539.208	410.158	0.098	-0.263
-538.193	-132.128	-0.142	0.023
-537.179	-123.456	0.319	0.064
-536.164	-86.759	-0.152	-0.058
-535.150	-182.533	0.075	-0.002
-534.135	47.625	0.082	-0.097
-533.121	5.613	0.442	0.412
-532.106	-60.151	0.334	-0.179
-531.091	-126.481	-0.157	0.029
-530.077	800.000	-0.069	0.246
-529.062	14.398	-0.183	0.180
-528.048	-87.450	-0.279	-0.106
-527.033	-83.293	-0.224	-0.090
-526.018	-69.496	0.411	0.198
-525.004	-200.000	0.001	0.211
-523.989	-80.813	-0.263	-0.110
-522.975	6.854	-0.408	-0.383
-521.960	195.324	-0.149	0.286
-520.945	-200.000	0.004	0.336
-519.931	-105.533	-0.421	0.120
-518.916	-200.000	0.002	-0.282
-517.902	-200.000	0.009	0.241
-516.887	-38.977	-0.256	0.170
-515.872	-131.121	0.329	0.055
-514.858	-24.089	-0.467	-0.351
-513.843	-42.080	0.129	0.083
-512.829	127.302	0.215	0.345
-511.814	258.149	-0.074	0.162
-510.799	161.609	-0.077	-0.136
-509.785	-200.000	0.008	0.213
-508.770	551.914	-0.041	-0.125
-507.756	-52.975	-0.189	0.109
-506.741	-11.657	-0.463	-0.383
-505.726	-35.213	-0.511	-0.350
-504.712	133.975	0.240	0.394
-503.697	-109.407	0.386	-0.102
-502.683	235.302	-0.069	0.145
-501.668	46.048	0.162	-0.189
-500.653	33.458	0.039	-0.042
-499.639	482.626	-0.151	0.436
-498.624	-91.842	-0.112	0.040
-497.610	-40.730	-0.241	-0.157
-496.595	-168.305	-0.273	-0.013
-495.581	-12.264	0.450	0.370
-494.566	26.498	0.129	0.136
-493.551	-11.504	-0.298	0.247
-492.537	-198.369	-0.427	-0.003
-491.522	-200.000	-0.058	-0.568
-490.508	-200.000	-0.029	0.168
-489.493	42.506	0.171	0.196
-488.478	-200.000	-0.033	-0.290
-487.464	6.999	-0.484	0.454
-486.449	127.422	0.245	0.393
-485.435	54.888	0.054	0.066
-484.420	1.491	0.455	-0.412
-483.405	22.749	0.144	-0.148
-482.391	-39.234	0.243	0.160
-481.376	800.000	-0.044	0.168
-480.362	686.839	0.059	-0.195
-479.347	-59.414	0.228	-0.123
-478.332	-153.647	0.314	-0.027
-477.318	-93.834	0.587	0.202
-476.303	352.543	-0.081	0.203
-475.289	232.097	0.117	0.242
-474.274	6.934	0.275	-0.258
-473.259	-120.635	0.180	0.038
-472.245	-200.000	-0.038	-0.331
-471.230	-30.358	-0.233	0.166
-470.216	-94.452	-0.217	0.074
-469.201	-14.185	0.393	-0.319
-468.186	-174.507	0.342	0.012
-467.172	-161.736	0.539	0.034
-466.157	-71.600	0.369	-0.173
-465.143	-34.488	-0.418	-0.288
-464.128	800.000	0.073	-0.327
-463.113	-168.956	-0.252	-0.012
-462.099	-20.583	0.138	0.106
-461.084	359.672	-0.159	0.403
-460.070	289.488	0.192	-0.439
-459.055	44.584	-0.130	-0.150
-458.040	585.899	0.053	-0.166
-457.026	78.942	-0.276	-0.373
-456.011	800.000	-0.088	-0.326
-454.997	-105.134	-0.201	0.057
-453.982	-135.648	-0.696	0.103
-452.968	-154.905	0.215	-0.018
-451.953	800.000	-0.073	0.280
-450.938	-81.609	-0.138	-0.057
-449.924	18.621	-0.175	0.176
-448.909	133.039	0.174	-0.284
-447.895	53.655	-0.187	-0.226
-446.880	601.039	0.103	-0.325
-445.865	118.939	0.192	0.299
-444.851	-5.597	-0.219	-0.189
-443.836	-42.790	0.352	0.224
-442.822	324.000	-0.043	-0.103
-441.807	-49.172	0.363	0.218
-440.792	134.404	0.312	0.511
-439.778	-200.000	-0.008	-0.109
-438.763	800.000	0.090	0.325
-437.749	-41.047	-0.074	0.048
-436.734	-21.399	-0.124	0.095
-435.719	800.000	-0.043	-0.190
-434.705	-158.783	0.223	-0.016
-433.690	-75.521	-0.392	0.175
-432.676	381.006	0.114	-0.296
-431.661	-146.166	0.454	0.050
-430.646	-125.963	0.333	-0.062
-429.632	758.654	-0.037	0.126
-428.617	-53.148	-0.416	0.239
-427.603	-106.598	-0.407	0.113
-426.588	300.201	0.171	0.398
-425.573	268.028	-0.052	-0.115
-424.559	-102.549	-0.154	-0.046
-423.544	-200.000	-0.053	0.343
-422.530	-53.971	-0.337	0.192
-421.515	-200.000	0.077	-0.496
-420.500	-8.083	-0.190	-0.161
-419.486	-94.378	0.522	-0.178
-418.471	-200.000	-0.011	0.116
-417.457	-39.929	-0.528	-0.346
-416.442	-137.813	-0.573	-0.080
-415.428	631.158	0.031	0.100
-414.413	-120.569	-0.488	0.103
-413.398	89.436	-0.164	-0.229
-412.384	-200.000	-0.029	0.376
-411.369	261.819	0.142	0.310
-410.355	-124.714	-0.238	0.046
-409.340	139.098	-0.222	0.367
-408.325	-79.719	0.265	-0.112
-407.311	-23.223	0.276	-0.208
-406.296	-5.924	-0.114	0.098
-405.282	-122.498	-0.173	0.035
-404.267	800.000	0.027	-0.148
-403.252	800.000	-0.121	-0.440
-402.238	762.475	0.121	0.415
-401.223	-134.615	0.366	0.055
-400.209	-83.831	0.486	0.193
-399.194	-30.016	-0.383	0.273
-398.179	-112.090	-0.232	-0.058
-397.165	-123.154	-0.330	-0.066
-396.150	21.981	-0.298	-0.306
-395.136	101.269	-0.144	-0.212
-394.121	-37.900	0.106	0.071
-393.106	281.690	0.106	0.240
-392.092	112.976	-0.129	0.197
-391.077	-169.596	-0.284	-0.013
-390.063	12.930	0.007	0.007
-389.048	-200.000	-0.005	0.076
-388.033	-152.530	0.130	-0.012
-387.019	-200.000	-0.033	0.326
-386.004	-90.326	0.738	0.267
-384.990	-112.184	0.073	-0.018
-383.975	-200.000	0.002	0.086
-382.960	-98.557	-0.359	0.114
-381.946	-200.000	-0.010	-0.155
-380.931	485.043	0.192	-0.551
-379.917	-54.017	0.307	-0.175
-378.902	-177.303	-0.532	-0.016
-377.888	-92.668	0.227	0.079
-376.873	-200.000	0.028	0.222
-375.858	-200.000	-0.021	-0.133
-374.844	-85.861	0.313	0.121
-373.829	136.161	0.367	0.602
-372.815	251.721	-0.276	0.592
-371.800	215.657	-0.248	0.496
-370.785	692.726	0.119	0.393
-369.771	-3.005	-0.413	0.361
-368.756	57.613	-0.354	0.434
-367.742	-200.000	-0.006	0.347
-366.727	-80.104	-0.305	0.127
-365.712	-24.164	-0.196	-0.147
-364.698	31.671	0.085	0.092
-363.683	-200.000	0.056	0.380
-362.669	-18.134	0.107	0.084
-361.654	-147.026	0.208	-0.022
-360.639	-28.659	0.249	-0.179
-359.625	800.000	0.038	0.138
-358.610	-200.000	-0.004	0.411
-357.596	12.547	0.309	-0.298
-356.581	150.043	0.112	-0.192
-355.566	-36.947	-0.285	0.191
-354.552	257.460	0.184	-0.398
-353.537	-123.387	-0.547	0.108
-352.523	-179.872	0.185	0.005
-351.508	800.000	-0.037	-0.138
-350.493	48.411	-0.238	-0.280
-349.479	800.000	-0.063	0.234
-348.464	-188.988	0.427	-0.006
-347.450	-78.147	-0.058	0.025
-346.435	768.681	0.111	0.380
-345.420	89.173	0.181	-0.253
-344.406	-30.057	-0.140	-0.100
-343.391	-91.084	0.383	-0.137
-342.377	-158.783	0.052	-0.004
-341.362	800.000	0.178	0.976
-340.348	-200.000	0.016	0.811
-339.333	-9.767	0.390	0.325
-338.318	-84.399	-0.175	-0.069
-337.304	29.386	-0.194	0.207
-336.289	-6.601	0.191	-0.163
-335.275	356.103	-0.173	-0.435
-334.260	-116.093	-0.163	-0.038
-333.245	1.920	0.055	0.049
-332.231	-99.010	0.450	-0.142
-331.216	-50.816	0.235	0.138
-330.202	63.167	0.228	-0.286
-329.187	-156.981	-0.218	-0.016
-328.172	-145.402	0.523	-0.058
-327.158	73.246	0.046	-0.061
-326.143	326.945	-0.113	-0.273
-325.129	-200.000	-0.051	0.365
-324.114	-177.507	-0.404	0.012
-323.099	-200.000	-0.013	-0.267
-322.085	129.364	0.246	0.395
-321.070	-41.195	0.427	-0.275
-320.056	-20.109	-0.034	-0.026
-319.041	800.000	0.062	-0.309
-318.026	-200.000	-0.055	-0.392
-317.012	75.676	0.088	0.116
-315.997	-200.000	-0.023	0.160
-314.983	-200.000	0.019	-0.511
-313.968	-119.345	0.185	-0.040
-312.953	-134.048	-0.369	-0.057
-311.939	210.026	-0.140	0.275
-310.924	50.495	-0.206	0.244
-309.910	445.062	0.153	-0.423
-308.895	45.206	0.216	0.250
-307.880	-4.375	-0.094	0.081
-306.866	-155.617	0.546	-0.043
-305.851	272.243	0.073	0.162
-304.837	800.000	-0.041	0.175
-303.822	364.312	0.061	-0.153
-302.807	69.197	0.134	-0.172
-301.793	-69.354	-0.214	-0.102
-300.778	-118.381	-0.114	-0.025
-299.764	120.999	-0.048	-0.075
-298.749	-42.954	0.146	-0.093
-297.735	800.000	0.030	-0.124
-296.720	-98.616	0.052	0.017
-295.705	-118.846	0.218	-0.047
-294.691	-38.525	0.359	0.237
-293.676	-116.004	0.208	-0.048
-292.662	9.623	0.132	0.125
-291.647	800.000	0.064	-0.308
-290.632	-27.143	0.227	0.166
-289.618	-86.770	-0.283	0.107
-288.603	-200.000	0.059	-0.382
-287.589	-156.441	0.362	-0.028
-286.574	291.154	-0.138	-0.314
-285.559	-135.425	-0.276	-0.041
-284.545	25.750	-0.184	0.191
-283.530	-112.040	0.114	0.029
-282.516	-94.174	-0.164	0.056
-281.501	0.192	-0.500	0.445
-280.486	-92.850	-0.090	0.031
-279.472	10.880	-0.164	-0.156
-278.457	145.342	0.037	-0.062
-277.443	98.956	-0.100	0.144
-276.428	-112.272	-0.257	0.064
-275.413	-144.881	0.251	-0.028
-274.399	-163.672	0.596	0.035
-273.384	-94.078	-0.029	0.010
-272.370	167.631	-0.145	0.258
-271.355	800.000	0.075	0.287
-270.340	-158.301	0.789	0.057
-269.326	-44.921	0.333	-0.206
-268.311	727.363	0.014	-0.046
-267.297	-94.923	-0.437	0.147
-266.282	-37.186	-0.226	-0.151
-265.267	86.967	0.263	0.363
-264.253	-57.934	0.291	-0.158
-263.238	-200.000	-0.005	-0.183
-262.224	397.159	0.075	0.197
-261.209	800.000	0.080	-0.297
-260.195	-200.000	-0.009	0.276
-259.180	-200.000	0.044	0.318
-258.165	-33.970	0.240	-0.165
-257.151	-186.553	-0.480	0.008
-256.136	-200.000	-0.001	-0.272
-255.122	-38.271	0.190	0.125
-254.107	-129.495	-0.717	-0.123
-253.092	10.438	0.021	0.020
-252.078	-37.374	-0.381	-0.254
-251.063	-200.000	-0.003	-0.188
-250.049	-158.308	0.370	-0.027
-249.034	-65.946	0.337	0.167
-248.019	92.151	-0.142	0.201
-247.005	-80.399	-0.084	-0.035
-245.990	24.678	-0.158	-0.164
-244.976	-72.542	0.419	0.192
-243.961	-54.860	-0.401	0.225
-242.946	210.098	-0.084	-0.164
-241.932	-73.053	-0.429	-0.196
-240.917	-84.953	-0.317	0.124
-239.903	-90.210	0.316	-0.114
-238.888	800.000	0.074	-0.320
-237.873	-200.000	-0.041	-0.341
-236.859	800.000	0.020	0.083
-235.844	749.066	-0.034	-0.115
-234.830	-30.023	-0.175	-0.124
-233.815	-40.658	0.185	-0.120
-232.800	-111.709	-0.109	0.027
-231.786	-184.216	0.554	0.011
-230.771	-200.000	0.012	0.849
-229.757	-61.084	-0.564	-0.296
-228.742	345.771	-0.147	0.362
-227.727	-200.000	0.034	-0.219
-226.713	233.076	0.294	-0.605
-225.698	-80.974	0.360	0.148
-224.684	-93.347	0.083	0.028
-223.669	-200.000	-0.056	-0.311
-222.655	-173.953	0.125	-0.005
-221.640	800.000	-0.097	0.350
-220.625	-200.000	-0.065	-0.463
-219.611	800.000	-0.134	-0.712
-218.596	13.979	0.221	0.215
-217.582	-1.505	0.286	-0.252
-216.567	138.918	0.090	-0.148
-215.552	275.470	-0.055	0.122
-214.538	-24.244	0.225	-0.167
-213.523	9.142	-0.255	-0.240
-212.509	576.863	-0.022	0.068
-211.494	69.380	0.104	0.134
-210.479	-22.510	0.284	0.214
-209.465	553.306	0.044	0.132
-208.450	425.683	-0.055	0.149
-207.436	23.184	-0.446	0.456
-206.421	-86.595	-0.576	0.219
-205.406	-111.255	-0.275	-0.070
-204.392	-89.244	-0.445	0.163
-203.377	110.820	-0.127	-0.190
-202.363	-2.849	-0.231	0.201
-201.348	-46.215	0.446	0.273
-200.333	800.000	0.075	-0.262
-199.319	-130.170	-0.408	0.069
-198.304	-114.747	-0.355	-0.084
-197.290	-200.000	-0.012	0.633
-196.275	-114.865	-0.455	0.107
-195.260	-27.255	-0.141	0.102
-194.246	-71.310	0.438	0.204
-193.231	125.094	-0.274	0.432
-192.217	-144.426	-0.255	0.029
-191.202	-82.886	-0.363	-0.145
-190.187	157.893	0.210	-0.363
-189.173	-200.000	-0.194	0.001
-188.158	-200.000	-0.029	-0.409
-187.144	-12.870	-0.216	0.175
-186.129	606.756	0.107	-0.334
-185.114	-200.000	-0.022	-0.307
-184.100	-139.030	0.449	0.060
-183.085	35.117	0.164	-0.179
-182.071	-108.328	0.208	-0.056
-181.056	-63.163	0.174	0.089
-180.042	-200.000	0.003	0.360
-179.027	-44.172	-0.202	0.126
-178.012	-55.911	-0.075	0.042
-176.998	46.525	0.120	0.139
-175.983	-39.359	0.217	-0.142
-174.969	76.670	-0.267	-0.352
-173.954	-122.803	0.588	-0.117
-172.939	800.000	0.117	0.492
-171.925	-200.000	0.044	0.316
-170.910	312.531	0.101	0.238
-169.896	176.557	0.160	-0.290
-168.881	800.000	-0.040	0.190
-167.866	701.253	-0.088	0.290
-166.852	-41.081	-0.350	-0.225
-165.837	84.365	-0.215	0.292
-164.823	228.616	0.313	-0.637
-163.808	342.717	0.125	-0.305
-162.793	-51.481	-0.186	0.108
-161.779	-69.849	0.140	-0.066
-160.764	-44.155	-0.172	0.107
-159.750	-91.630	-0.302	0.106
-158.735	-200.000	0.050	-0.555
-157.720	-187.182	-0.162	-0.003
-156.706	105.000	0.084	-0.123
-155.691	-200.000	-0.012	-0.221
-154.677	179.926	0.420	0.768
-153.662	22.486	-0.137	-0.140
-152.647	-105.001	0.237	-0.067
-151.633	237.702	0.189	0.392
-150.618	-33.190	-0.301	-0.207
-149.604	454.810	0.113	-0.314
-148.589	-128.150	-0.311	-0.055
-147.574	-144.321	0.502	0.057
-146.560	-11.324	-0.061	-0.050
-145.545	-51.709	-0.330	0.191
-144.531	-133.313	-0.158	0.025
-143.516	-68.548	0.161	-0.077
-142.502	-61.628	-0.305	0.158
-141.487	468.997	0.143	0.402
-140.472	-132.819	0.560	0.088
-139.458	800.000	0.020	0.074
-138.443	424.883	-0.198	-0.532
-137.429	-126.510	-0.603	0.110
-136.414	-141.176	-0.168	-0.021
-135.399	230.973	0.015	0.030
-134.385	10.072	0.045	-0.042
-133.370	36.878	0.306	-0.337
-132.356	-82.199	-0.111	0.045
-131.341	-48.354	0.107	-0.064
-130.326	-1.928	-0.179	-0.156
-129.312	-175.729	0.309	0.010
-128.297	131.559	0.167	-0.267
-127.283	169.939	-0.067	-0.119
-126.268	-133.571	-0.645	0.099
-125.253	-148.963	-0.427	-0.042
-124.239	368.004	0.033	0.084
-123.224	-107.957	-0.193	0.052
-122.210	-136.839	-0.327	-0.046
