DTS Sentinel unit serial number:	SN409020Multiplexer serial number:	ORYXHardware model number:	OX4-SRSoftware version number:	ORYX F/W v3.00 Oryx Data Collector v3.7.2.0data status	okinstallation	HaddamTimeLapsedifferential loss correction	single-endedforward channel	channel 3reverse channel	N/Adate	2011/06/21time	23:56:17forward acquisition time	30.00reverse acquisition time	0.00gamma	498.7831k internal	0.1753k external	0.1753temperature offset calibration	1.0074default loss term (dB/km)	0.3790temperature slope calibration	1.3530multiplexer offset coefficient	1.0000multiplexer slope coefficient	1.0000fibre end	0.00T internal ref (°C)	22.97T ext. ref 1 (°C)	18.20T ext. ref 2 (°C)	0.05length (m)	temperature (°C)	Stokes	anti-Stokes-747.200	-78.321	0.388	-0.176
-746.185	-200.000	0.040	0.637
-745.171	65.397	0.194	0.260
-744.156	-80.556	0.568	-0.250
-743.142	-72.339	-0.234	-0.115
-742.127	800.000	-0.030	0.151
-741.112	310.383	0.103	-0.258
-740.098	206.054	-0.211	0.438
-739.083	800.000	-0.094	-0.416
-738.069	182.825	0.303	0.594
-737.054	-175.803	-0.142	-0.005
-736.039	-109.544	-0.373	-0.104
-735.025	-161.287	-0.978	0.066
-734.010	-200.000	-0.198	0.001
-732.996	46.746	0.145	0.179
-731.981	549.702	0.136	0.435
-730.966	99.459	-0.213	-0.328
-729.952	-196.553	-0.255	0.002
-728.937	-158.747	0.134	-0.010
-727.923	-100.631	-0.456	-0.148
-726.908	-174.067	-0.453	-0.017
-725.894	294.542	0.085	-0.207
-724.879	-20.679	-0.554	0.450
-723.864	217.965	-0.066	-0.140
-722.850	800.000	0.077	-0.320
-721.835	-13.820	-0.305	-0.261
-720.821	-200.000	-0.033	-0.575
-719.806	-33.143	0.191	-0.140
-718.791	-71.304	-0.432	0.214
-717.777	-121.786	-0.509	-0.111
-716.762	-200.000	0.053	0.650
-715.748	-100.541	0.099	-0.032
-714.733	-93.474	0.170	-0.062
-713.718	-89.763	-0.331	-0.128
-712.704	-99.225	0.623	-0.207
-711.689	280.073	0.324	-0.771
-710.675	-17.660	-0.542	0.451
-709.660	-33.429	0.097	-0.071
-708.645	-40.317	0.192	0.132
-707.631	-200.000	0.001	0.194
-706.616	-82.903	0.124	-0.053
-705.602	-123.812	0.054	-0.011
-704.587	75.807	0.152	-0.213
-703.572	154.387	0.130	-0.237
-702.558	27.134	0.106	0.118
-701.543	-168.765	-0.155	0.008
-700.529	-49.293	-0.171	0.108
-699.514	-127.334	-0.180	-0.035
-698.499	-50.898	-0.222	-0.138
-697.485	-157.558	-0.451	0.035
-696.470	5.858	0.562	-0.551
-695.456	-200.000	0.018	-0.494
-694.441	-74.617	-0.197	0.094
-693.426	-200.000	0.036	0.309
-692.412	172.837	-0.067	0.128
-691.397	365.282	-0.160	0.429
-690.383	-28.209	-0.044	0.033
-689.368	-18.074	-0.075	-0.062
-688.354	225.046	-0.058	-0.124
-687.339	-114.915	-0.213	0.053
-686.324	-53.021	0.341	0.207
-685.310	-200.000	-0.013	-0.525
-684.295	161.000	0.118	-0.218
-683.281	361.274	-0.040	0.107
-682.266	-124.145	0.199	-0.041
-681.251	-130.149	-0.305	0.055
-680.237	237.362	0.145	-0.320
-679.222	-81.143	-0.140	0.061
-678.208	-200.000	0.026	-0.288
-677.193	3.877	-0.365	-0.353
-676.178	-200.000	0.034	-0.242
-675.164	-64.103	0.183	0.098
-674.149	800.000	0.092	-0.349
-673.135	-154.341	0.173	0.015
-672.120	800.000	0.059	-0.315
-671.105	175.188	0.058	0.112
-670.091	-49.413	-0.465	0.293
-669.076	-43.578	0.398	-0.265
-668.062	-161.145	-0.651	-0.044
-667.047	-200.000	0.054	-0.467
-666.032	-51.523	0.304	-0.187
-665.018	-146.998	0.601	-0.067
-664.003	-158.591	0.307	0.023
-662.989	-52.977	-0.432	0.262
-661.974	72.873	-0.190	-0.263
-660.959	800.000	-0.120	-0.604
-659.945	173.150	-0.098	0.188
-658.930	252.126	-0.074	0.167
-657.916	50.965	0.234	0.293
-656.901	86.171	-0.488	-0.712
-655.886	-162.582	0.252	-0.016
-654.872	-200.000	-0.016	0.375
-653.857	-75.147	-0.187	-0.088
-652.843	-70.808	-0.195	-0.097
-651.828	227.993	0.210	0.454
-650.814	-56.499	0.343	-0.201
-649.799	-62.650	-0.359	0.196
-648.784	-95.643	-0.261	-0.092
-647.770	-73.471	-0.206	-0.099
-646.755	-57.697	0.180	-0.104
-645.741	-139.775	-0.253	0.035
-644.726	-105.999	-0.065	-0.019
-643.711	384.000	-0.053	0.146
-642.697	34.999	0.208	0.241
-641.682	-94.600	-0.167	-0.060
-640.668	-176.872	0.278	0.009
-639.653	-28.896	0.369	0.280
-638.638	-102.766	0.268	-0.084
-637.624	-127.726	-0.202	-0.038
-636.609	-200.000	0.012	-0.205
-635.595	-68.788	0.083	-0.042
-634.580	-106.171	-0.177	-0.052
-633.565	24.500	0.465	-0.508
-632.551	800.000	-0.008	-0.032
-631.536	17.859	0.196	-0.206
-630.522	-60.523	0.273	-0.153
-629.507	199.439	0.119	-0.242
-628.492	109.420	0.095	0.151
-627.478	-3.582	-0.406	-0.372
-626.463	255.506	0.268	-0.609
-625.449	-200.000	-0.012	0.771
-624.434	-59.222	-0.133	0.075
-623.419	-146.217	0.176	0.020
-622.405	-34.002	0.460	0.333
-621.390	61.051	-0.139	-0.183
-620.376	-81.266	0.159	0.069
-619.361	39.229	-0.051	0.060
-618.346	-4.187	-0.334	-0.305
-617.332	-105.079	-0.549	-0.165
-616.317	-92.732	0.112	-0.041
-615.303	-199.507	-0.150	-0.001
-614.288	-200.000	0.003	0.016
-613.273	-9.693	0.507	0.446
-612.259	-0.459	-0.099	-0.093
-611.244	236.195	-0.209	0.457
-610.230	-57.667	0.466	-0.269
-609.215	-85.382	-0.193	-0.079
-608.201	-151.999	0.295	0.028
-607.186	-29.025	0.203	0.153
-606.171	123.365	0.190	-0.316
-605.157	-176.082	0.371	-0.013
-604.142	-200.000	0.000	-0.125
-603.128	-117.341	0.512	0.122
-602.113	-78.896	0.770	0.345
-601.098	153.742	0.366	-0.664
-600.084	33.077	0.101	0.115
-599.069	-77.513	-0.040	0.018
-598.055	-154.937	-0.341	-0.029
-597.040	-88.081	0.296	-0.116
-596.025	40.915	0.256	0.305
-595.011	-160.376	-0.214	-0.015
-593.996	455.063	0.269	-0.789
-592.982	-152.367	0.276	-0.026
-591.967	-80.776	0.317	-0.138
-590.952	-163.341	-0.448	0.028
-589.938	312.837	0.215	0.535
-588.923	-178.672	-0.117	-0.003
-587.909	-115.629	-0.712	0.175
-586.894	-183.937	0.349	-0.008
-585.879	-99.373	-0.477	0.158
-584.865	117.861	-0.373	-0.607
-583.850	-38.953	-0.341	-0.236
-582.836	591.341	-0.040	-0.132
-581.821	604.341	0.048	0.160
-580.806	-124.884	0.210	0.042
-579.792	-200.000	-0.036	-0.242
-578.777	-11.706	0.371	-0.321
-577.763	800.000	0.116	0.442
-576.748	94.522	0.255	-0.382
-575.733	-172.348	0.341	-0.014
-574.719	-71.712	-0.458	-0.224
-573.704	-200.000	-0.036	0.308
-572.690	-44.532	-0.361	0.237
-571.675	50.597	-0.202	-0.252
-570.661	-175.232	-0.438	-0.016
-569.646	-57.240	-0.175	-0.101
-568.631	227.441	0.040	-0.085
-567.617	800.000	-0.049	-0.222
-566.602	175.106	-0.108	0.208
-565.588	-68.669	-0.198	0.100
-564.573	-200.000	-0.026	-0.181
-563.558	-200.000	0.003	-0.117
-562.544	750.924	-0.116	0.415
-561.529	-80.027	-0.599	-0.263
-560.515	-25.275	-0.261	0.203
-559.500	-85.432	-0.424	-0.173
-558.485	800.000	-0.027	0.102
-557.471	-121.931	-0.242	0.052
-556.456	800.000	0.039	0.219
-555.442	-89.297	-0.354	-0.137
-554.427	-17.904	-0.332	-0.274
-553.412	-20.764	0.165	-0.133
-552.398	-200.000	0.047	-0.528
-551.383	-164.105	-0.484	-0.029
-550.369	289.532	-0.046	-0.110
-549.354	68.786	-0.038	0.051
-548.339	-84.657	0.334	0.138
-547.325	-200.000	0.014	-0.172
-546.310	-67.108	-0.233	-0.121
-545.296	138.698	-0.227	0.394
-544.281	-103.970	-0.221	-0.067
-543.266	5.830	0.306	-0.298
-542.252	-200.000	-0.007	0.151
-541.237	96.355	0.254	0.383
-540.223	506.026	-0.119	0.365
-539.208	-12.810	-0.139	0.119
-538.193	-184.147	-0.377	-0.008
-537.179	-3.977	0.210	0.191
-536.164	-86.103	0.262	0.106
-535.150	-159.610	-0.260	0.019
-534.135	-22.540	-0.245	-0.195
-533.121	-19.397	0.138	0.112
-532.106	-141.144	0.278	-0.037
-531.091	-45.234	-0.253	-0.165
-530.077	156.753	-0.084	-0.153
-529.062	-136.745	0.112	0.017
-528.048	-104.489	0.558	0.169
-527.033	-83.028	0.140	-0.059
-526.018	800.000	-0.011	0.059
-525.004	155.190	-0.137	-0.248
-523.989	-127.984	0.340	0.064
-522.975	-200.000	-0.008	-0.276
-521.960	35.995	0.128	-0.148
-520.945	-200.000	0.115	-0.832
-519.931	139.592	-0.253	-0.439
-518.916	800.000	-0.087	-0.419
-517.902	-105.238	0.077	0.023
-516.887	228.414	0.162	0.348
-515.872	93.068	0.198	0.294
-514.858	-59.440	0.027	0.015
-513.843	-35.239	-0.285	0.204
-512.829	-126.471	0.576	0.112
-511.814	180.874	0.242	0.469
-510.799	10.827	-0.413	0.415
-509.785	-63.920	0.430	-0.230
-508.770	-200.000	-0.039	0.429
-507.756	557.031	-0.077	0.244
-506.741	-15.005	-0.339	0.286
-505.726	800.000	-0.046	-0.213
-504.712	70.620	0.388	-0.529
-503.697	-130.390	0.345	0.061
-502.683	-54.124	0.342	-0.204
-501.668	84.649	0.250	-0.360
-500.653	-200.000	0.001	0.380
-499.639	36.939	0.201	-0.234
-498.624	-39.445	-0.595	0.409
-497.610	-115.513	0.539	0.132
-496.595	77.841	0.090	-0.127
-495.581	173.598	-0.110	0.209
-494.566	-120.734	-0.249	-0.055
-493.551	-173.874	0.488	-0.019
-492.537	293.069	0.184	-0.442
-491.522	-81.450	0.150	-0.064
-490.508	-93.785	0.280	0.101
-489.493	54.183	0.297	-0.376
-488.478	-157.120	-0.369	-0.029
-487.464	-200.000	-0.010	-0.301
-486.449	1.445	-0.110	0.104
-485.435	207.350	0.121	-0.249
-484.420	-61.032	-0.100	-0.055
-483.405	-108.408	-0.589	-0.166
-482.391	-165.914	0.311	-0.017
-481.376	-61.490	-0.522	0.287
-480.362	-72.759	-0.459	-0.221
-479.347	-115.975	0.145	0.035
-478.332	-200.000	0.478	-0.001
-477.318	-163.677	-0.100	0.006
-476.303	-200.000	-0.009	-0.268
-475.289	62.039	0.031	0.040
-474.274	-67.671	-0.285	-0.146
-473.259	-200.000	0.037	-0.383
-472.245	185.317	0.170	-0.332
-471.230	53.251	-0.246	0.310
-470.216	454.037	0.173	0.507
-469.201	-15.516	-0.336	-0.282
-468.186	48.826	-0.389	-0.479
-467.172	-200.000	0.005	0.278
-466.157	-200.000	0.017	0.386
-465.143	-200.000	-0.107	0.001
-464.128	-1.604	-0.233	0.216
-463.113	-129.053	-0.226	0.041
-462.099	-168.972	-0.247	0.012
-461.084	531.512	0.178	0.556
-460.070	156.772	0.075	-0.137
-459.055	-73.214	-0.013	-0.006
-458.040	-83.556	-0.248	-0.104
-457.026	-200.000	0.035	-0.351
-456.011	-200.000	0.041	-0.391
-454.997	-200.000	-0.033	-0.253
-453.982	-119.369	-0.174	0.039
-452.968	-85.501	0.123	0.050
-451.953	-29.018	0.099	-0.074
-450.938	13.646	0.201	-0.205
-449.924	800.000	0.082	-0.375
-448.909	574.124	-0.165	-0.530
-447.895	-67.336	-0.044	-0.023
-446.880	360.450	-0.057	0.152
-445.865	-116.129	-0.584	-0.141
-444.851	35.852	-0.293	0.339
-443.836	-114.498	0.301	0.075
-442.822	85.140	-0.174	0.251
-441.807	-200.000	0.004	-0.164
-440.792	632.773	0.129	-0.431
-439.778	48.857	0.230	-0.283
-438.763	-140.720	0.211	-0.028
-437.749	-100.163	-0.375	-0.121
-436.734	19.692	-0.121	-0.127
-435.719	68.461	-0.137	0.185
-434.705	-21.105	-0.355	0.284
-433.690	-83.637	0.058	0.024
-432.676	-4.293	-0.217	-0.197
-431.661	-62.868	0.159	0.086
-430.646	-51.534	-0.127	-0.077
-429.632	125.628	-0.181	-0.301
-428.617	-147.399	-0.443	0.049
-427.603	140.496	-0.190	-0.329
-426.588	-173.814	-0.168	-0.006
-425.573	-171.982	-0.301	-0.013
-424.559	87.430	0.252	0.366
-423.544	-18.125	0.159	0.130
-422.530	800.000	-0.029	0.166
-421.515	-157.860	0.216	-0.017
-420.500	-200.000	-0.013	0.388
-419.486	10.056	0.131	-0.130
-418.471	800.000	0.060	-0.233
-417.457	289.726	0.256	0.612
-416.442	-41.374	-0.249	0.167
-415.428	299.466	0.103	0.250
-414.413	590.567	-0.108	0.351
-413.398	-134.381	-0.130	0.021
-412.384	-61.503	-0.128	-0.070
-411.369	-140.803	0.497	0.066
-410.355	396.947	-0.129	0.354
-409.340	-136.166	0.189	0.029
-408.325	-43.542	0.287	0.190
-407.311	31.371	-0.159	-0.179
-406.296	118.003	-0.115	-0.187
-405.282	139.380	-0.150	0.259
-404.267	-70.034	-0.241	0.120
-403.252	627.443	0.089	0.296
-402.238	67.788	0.182	0.244
-401.223	246.880	0.280	0.622
-400.209	800.000	-0.172	0.687
-399.194	412.529	-0.163	0.457
-398.179	-200.000	0.018	-0.152
-397.165	37.972	0.317	0.370
-396.150	135.194	0.196	-0.335
-395.136	542.957	0.070	-0.219
-394.121	-47.464	0.392	0.249
-393.106	-86.202	-0.254	0.102
-392.092	-4.036	-0.237	-0.215
-391.077	-90.287	-0.122	0.046
-390.063	256.405	-0.167	0.376
-389.048	-200.000	-0.010	0.240
-388.033	-127.615	0.401	0.075
-387.019	-27.605	0.366	0.278
-386.004	-29.130	0.116	-0.087
-384.990	127.712	0.092	-0.153
-383.975	-42.063	0.165	0.111
-382.960	-95.886	-0.429	0.149
-381.946	642.405	-0.070	0.236
-380.931	439.784	0.142	-0.407
-379.917	-20.962	-0.247	-0.197
-378.902	342.043	-0.062	0.159
-377.888	95.583	-0.178	0.267
-376.873	69.618	-0.082	0.111
-375.858	-123.193	-0.264	0.055
-374.844	-82.835	0.407	0.171
-373.829	-50.594	0.227	0.140
-372.815	-78.956	-0.319	0.142
-371.800	-173.220	0.290	-0.011
-370.785	322.831	-0.128	-0.321
-369.771	-200.000	0.016	-0.335
-368.756	800.000	0.030	0.149
-367.742	-54.572	-0.545	0.322
-366.727	-200.000	-0.024	0.419
-365.712	-200.000	-0.058	0.582
-364.698	800.000	0.116	-0.446
-363.683	-133.677	0.491	-0.079
-362.669	-109.588	0.584	-0.160
-361.654	-76.892	-0.540	0.246
-360.639	-163.432	-0.232	0.014
-359.625	800.000	0.206	-0.887
-358.610	-140.299	0.149	0.020
-357.596	96.748	0.145	-0.217
-356.581	-200.000	-0.024	0.377
-355.566	-69.026	-0.308	-0.155
-354.552	-198.061	-0.317	0.002
-353.537	-12.184	0.234	0.200
-352.523	40.691	-0.108	0.127
-351.508	-200.000	0.007	-0.152
-350.493	50.179	-0.036	-0.044
-349.479	443.582	0.033	-0.095
-348.464	533.841	0.145	0.452
-347.450	16.501	-0.294	0.304
-346.435	-82.460	-0.028	0.012
-345.420	-200.000	-0.011	-0.498
-344.406	-57.626	0.323	-0.185
-343.391	-172.908	-0.314	0.013
-342.377	-67.625	-0.078	-0.040
-341.362	76.708	-0.241	-0.335
-340.348	-39.558	0.079	-0.054
-339.333	-56.087	-0.215	0.125
-338.318	-200.000	0.013	-0.074
-337.304	-101.473	0.557	0.176
-336.289	-45.248	0.185	0.119
-335.275	-200.000	-0.045	-0.433
-334.260	-45.639	0.075	0.048
-333.245	-4.265	0.255	-0.230
-332.231	-25.796	-0.458	0.352
-331.216	-4.108	-0.140	0.127
-330.202	-114.044	0.492	-0.123
-329.187	-137.340	0.307	-0.045
-328.172	-200.000	0.043	0.424
-327.158	-94.081	0.244	-0.087
-326.143	-37.124	0.548	0.382
-325.129	-97.798	-0.448	-0.150
-324.114	-90.895	0.082	-0.031
-323.099	235.957	-0.077	0.167
-322.085	-145.241	0.225	-0.026
-321.070	123.194	0.121	0.198
-320.056	-0.218	0.196	0.182
-319.041	-200.000	0.023	-0.150
-318.026	-56.191	0.449	-0.260
-317.012	-45.505	-0.064	0.041
-315.997	57.928	0.122	0.157
-314.983	-200.000	0.015	-0.264
-313.968	800.000	0.099	-0.475
-312.953	-131.875	-0.463	-0.078
-311.939	58.022	0.204	-0.261
-310.924	-200.000	-0.031	-0.332
-309.910	-174.070	-0.156	0.006
-308.895	-183.177	-0.226	0.005
-307.880	800.000	-0.108	-0.529
-306.866	-90.831	-0.306	0.114
-305.851	-55.140	-0.507	0.297
-304.837	-64.622	-0.290	0.153
-303.822	800.000	-0.017	-0.070
-302.807	55.475	0.333	-0.421
-301.793	85.096	0.177	-0.254
-300.778	-5.668	0.353	-0.316
-299.764	170.768	0.152	-0.285
-298.749	-113.333	-0.096	0.025
-297.735	-111.008	-0.413	-0.110
-296.720	-60.363	-0.126	0.070
-295.705	78.283	0.267	-0.372
-294.691	-193.437	-0.121	-0.001
-293.676	233.231	-0.072	-0.154
-292.662	-34.930	-0.138	-0.098
-291.647	-200.000	-0.002	-0.022
-290.632	-200.000	-0.012	0.326
-289.618	800.000	0.101	-0.452
-288.603	-147.342	-0.297	-0.032
-287.589	-163.861	0.402	-0.024
-286.574	-156.553	0.235	0.019
-285.559	-63.387	0.121	0.065
-284.545	-140.663	0.238	-0.032
-283.530	60.977	-0.341	0.441
-282.516	139.780	0.085	-0.146
-281.501	-14.854	0.295	0.246
-280.486	28.530	-0.222	-0.245
-279.472	204.211	0.043	0.087
-278.457	224.697	0.100	-0.211
-277.443	-200.000	-0.024	0.253
-276.428	-200.000	0.003	0.450
-275.413	21.042	-0.173	0.183
-274.399	-99.452	-0.328	0.107
-273.384	-200.000	0.002	0.251
-272.370	800.000	0.126	0.583
-271.355	164.207	-0.108	0.199
-270.340	146.890	0.165	0.290
-269.326	430.324	-0.134	0.379
-268.311	-58.756	0.404	-0.227
-267.297	-200.000	0.011	0.152
-266.282	-118.247	0.352	-0.081
-265.267	-120.117	-0.362	-0.080
-264.253	36.071	0.170	-0.195
-263.238	-117.385	-0.170	-0.040
-262.224	-43.033	-0.102	0.067
-261.209	-85.791	-0.290	0.116
-260.195	-69.734	0.029	0.014
-259.180	42.908	-0.126	0.150
-258.165	7.202	0.208	-0.202
-257.151	254.596	-0.209	0.468
-256.136	116.974	0.254	0.407
-255.122	8.037	-0.070	-0.069
-254.107	-81.362	-0.149	0.064
-253.092	-9.880	-0.433	0.375
-252.078	-41.268	-0.491	0.329
-251.063	77.147	0.322	-0.445
-250.049	-200.000	-0.068	0.391
-249.034	-200.000	0.004	0.309
-248.019	56.877	-0.166	-0.211
-247.005	-200.000	-0.058	-0.397
-245.990	479.071	0.197	0.583
-244.976	-200.000	-0.010	-0.241
-243.961	-175.340	-0.479	-0.017
-242.946	-92.876	0.055	-0.020
-241.932	3.710	-0.138	-0.131
-240.917	214.188	-0.082	-0.170
-239.903	-177.994	-0.082	-0.002
-238.888	329.769	0.173	-0.436
-237.873	-161.787	0.094	-0.006
-236.859	-66.296	0.223	-0.115
-235.844	128.835	-0.094	-0.157
-234.830	-79.720	-0.276	0.120
-233.815	17.883	0.380	-0.393
-232.800	-98.004	-0.242	0.081
-231.786	-200.000	-0.004	-0.075
-230.771	415.089	0.079	0.219
-229.757	-117.362	0.389	0.091
-228.742	544.792	0.018	-0.056
-227.727	-12.984	0.259	-0.219
-226.713	174.198	-0.420	-0.792
-225.698	-200.000	-0.481	-0.003
-224.684	800.000	-0.076	-0.408
-223.669	467.939	0.126	-0.369
-222.655	186.014	-0.059	0.115
-221.640	-157.751	-0.451	0.034
-220.625	56.638	-0.254	-0.322
-219.611	-200.000	-0.030	-0.205
-218.596	-200.000	0.101	-0.609
-217.582	-188.960	0.205	-0.003
-216.567	573.326	-0.097	-0.310
-215.552	800.000	0.106	0.417
-214.538	-200.000	0.051	0.580
-213.523	26.743	-0.249	0.271
-212.509	79.427	-0.221	0.308
-211.494	62.996	-0.098	0.128
-210.479	-57.143	0.415	0.237
-209.465	219.906	-0.174	-0.364
-208.450	57.100	-0.323	0.410
-207.436	-65.237	0.370	-0.193
-206.421	-82.569	0.387	-0.162
-205.406	-48.747	0.010	0.006
-204.392	7.609	-0.316	0.307
-203.377	-121.267	0.576	0.124
-202.363	-58.588	-0.349	0.196
-201.348	-200.000	0.071	0.435
-200.333	172.102	-0.133	0.250
-199.319	-120.553	-0.201	-0.044
-198.304	-129.196	-0.056	-0.010
-197.290	-200.000	0.050	0.374
-196.275	800.000	-0.062	-0.259
-195.260	89.140	-0.121	0.176
-194.246	-35.351	0.095	0.067
-193.231	-111.954	0.339	-0.088
-192.217	-46.351	-0.147	-0.093
-191.202	-67.719	0.413	-0.209
-190.187	332.739	0.105	-0.265
-189.173	-10.903	0.401	0.343
-188.158	94.009	-0.103	-0.151
-187.144	551.814	-0.139	0.436
-186.129	31.495	0.359	0.400
-185.114	-82.897	0.312	-0.130
-184.100	-12.795	0.116	-0.098
-183.085	229.877	-0.176	0.375
-182.071	-12.440	-0.269	0.228
-181.056	-34.962	0.176	-0.124
-180.042	-155.611	0.199	-0.016
-179.027	-70.364	0.350	-0.172
-178.012	-36.551	0.232	0.162
-176.998	109.034	0.042	-0.065
-175.983	800.000	-0.188	0.697
-174.969	-12.188	-0.248	-0.211
-173.954	-200.000	-0.015	-0.159
-172.939	-46.240	0.288	0.183
-171.925	21.319	0.334	-0.353
-170.910	13.971	-0.074	0.075
-169.896	-32.294	-0.170	0.123
-168.881	103.979	-0.135	0.206
-167.866	-81.760	-0.106	0.045
-166.852	-45.078	0.050	0.032
-165.837	800.000	0.111	0.416
-164.823	-100.279	0.386	0.124
-163.808	-200.000	-0.043	-0.410
-162.793	-167.453	0.360	0.018
-161.779	7.091	-0.046	0.044
-160.764	254.413	-0.255	-0.568
-159.750	-200.000	-0.022	0.188
-158.735	-144.911	-0.250	-0.029
-157.720	-200.000	-0.014	-0.141
-156.706	800.000	0.074	-0.325
-155.691	-200.000	-0.003	-0.165
-154.677	20.334	-0.098	-0.103
-153.662	54.196	0.289	0.361
-152.647	211.073	0.087	0.178
-151.633	-200.000	0.038	-0.428
-150.618	-159.002	0.497	0.036
-149.604	-60.717	0.110	0.060
-148.589	-142.615	0.369	-0.046
-147.574	-143.013	0.177	-0.022
-146.560	-29.772	-0.388	-0.287
-145.545	-178.395	-0.291	0.009
-144.531	123.405	-0.241	0.393
-143.516	-195.642	0.295	0.003
-142.502	-199.491	0.525	0.003
-141.487	108.298	-0.072	-0.111
-140.472	-200.000	0.014	-0.549
-139.458	-98.252	-0.760	-0.251
-138.443	-54.265	0.324	-0.190
-137.429	-200.000	0.007	-0.316
-136.414	-38.919	0.557	-0.379
-135.399	800.000	0.117	-0.556
-134.385	-2.631	0.164	-0.148
-133.370	63.392	0.062	-0.081
-132.356	-8.907	0.193	-0.167
-131.341	-26.713	-0.299	0.226
-130.326	-95.896	0.229	-0.079
-129.312	-177.208	-0.086	-0.003
-128.297	-63.459	0.378	0.200
-127.283	-115.221	0.429	0.104
-126.268	-77.063	0.435	0.195
-125.253	800.000	-0.063	0.300
-124.239	172.144	-0.150	0.280
-123.224	210.297	-0.132	-0.270
