DTS Sentinel unit serial number:	SN409020Multiplexer serial number:	ORYXHardware model number:	OX4-SRSoftware version number:	ORYX F/W v3.00 Oryx Data Collector v3.7.2.0data status	okinstallation	HaddamTimeLapsedifferential loss correction	single-endedforward channel	channel 3reverse channel	N/Adate	2011/06/22time	08:51:17forward acquisition time	30.00reverse acquisition time	0.00gamma	498.7831k internal	0.1793k external	0.1793temperature offset calibration	1.0074default loss term (dB/km)	0.3790temperature slope calibration	1.3530multiplexer offset coefficient	1.0000multiplexer slope coefficient	1.0000fibre end	0.00T internal ref (°C)	27.03T ext. ref 1 (°C)	25.02T ext. ref 2 (°C)	0.17length (m)	temperature (°C)	Stokes	anti-Stokes-747.200	-200.000	-0.018	0.307
-746.185	35.899	0.269	0.307
-745.171	-56.838	0.206	0.118
-744.156	256.358	0.362	0.809
-743.142	-200.000	0.048	0.446
-742.127	49.264	0.672	0.820
-741.112	267.000	-0.094	0.213
-740.098	-65.163	0.098	0.051
-739.083	-200.000	0.008	0.101
-738.069	-61.753	-0.119	-0.065
-737.054	85.306	-0.135	-0.192
-736.039	-148.910	-0.635	-0.066
-735.025	25.296	-0.093	0.100
-734.010	538.426	0.139	0.432
-732.996	20.993	-0.256	0.269
-731.981	115.782	-0.270	-0.429
-730.966	-76.469	-0.471	0.214
-729.952	-103.191	-0.183	0.056
-728.937	-112.814	-0.396	0.101
-727.923	214.887	0.139	-0.287
-726.908	800.000	-0.051	-0.232
-725.894	800.000	-0.077	0.323
-724.879	-110.321	-0.360	0.096
-723.864	-200.000	-0.258	0.001
-722.850	122.055	-0.113	-0.183
-721.835	-200.000	-0.088	-0.505
-720.821	800.000	-0.016	0.075
-719.806	-1.911	0.255	-0.232
-718.791	-200.000	-0.032	0.590
-717.777	-75.534	0.270	-0.124
-716.762	487.112	-0.045	0.132
-715.748	-13.733	-0.173	-0.145
-714.733	-103.239	0.226	-0.069
-713.718	-27.045	-0.255	0.193
-712.704	26.072	0.215	0.233
-711.689	800.000	0.037	0.194
-710.675	-200.000	0.005	-0.129
-709.660	-200.000	0.005	0.050
-708.645	168.170	0.202	-0.373
-707.631	-150.626	0.355	-0.035
-706.616	-139.823	0.255	0.035
-705.602	322.550	-0.129	0.320
-704.587	-143.413	0.193	-0.024
-703.572	-0.880	0.279	-0.255
-702.558	-91.295	-0.305	0.112
-701.543	753.192	-0.118	-0.417
-700.529	-102.781	-0.106	-0.032
-699.514	-46.001	0.063	0.040
-698.499	23.737	-0.056	0.060
-697.485	200.444	0.205	-0.408
-696.470	87.511	-0.340	-0.488
-695.456	-59.484	-0.431	0.239
-694.441	222.840	-0.032	-0.067
-693.426	-96.813	-0.401	0.136
-692.412	-90.569	-0.351	-0.131
-691.397	-34.181	0.265	-0.188
-690.383	-59.022	-0.335	-0.186
-689.368	-40.931	0.037	-0.025
-688.354	-90.343	0.262	-0.098
-687.339	800.000	0.062	-0.263
-686.324	-131.970	-0.280	-0.047
-685.310	115.099	0.138	0.218
-684.295	89.787	0.204	0.295
-683.281	-0.959	-0.143	0.130
-682.266	-11.922	-0.299	0.254
-681.251	-19.074	0.500	0.402
-680.237	-136.622	-0.354	0.052
-679.222	20.163	0.181	-0.189
-678.208	9.897	-0.449	-0.440
-677.193	-87.937	-0.430	0.166
-676.178	-200.000	-0.006	-0.547
-675.164	-200.000	-0.028	-0.209
-674.149	-94.344	-0.327	-0.115
-673.135	-163.193	0.374	0.023
-672.120	-109.324	0.312	0.085
-671.105	-184.143	0.408	0.009
-670.091	9.546	0.377	-0.369
-669.076	-99.248	-0.198	-0.064
-668.062	-30.169	-0.115	0.085
-667.047	-200.000	0.012	-0.272
-666.032	-40.117	0.298	0.200
-665.018	-133.424	-0.157	-0.025
-664.003	38.753	-0.095	0.110
-662.989	-55.558	-0.490	0.283
-661.974	-86.907	0.466	-0.183
-660.959	-149.935	0.547	0.055
-659.945	323.033	-0.141	0.349
-658.930	138.743	0.144	0.244
-657.916	800.000	0.151	0.723
-656.901	349.014	-0.317	-0.812
-655.886	-200.000	0.086	-0.493
-654.872	433.110	-0.060	0.169
-653.857	1.336	-0.583	0.541
-652.843	-44.235	0.274	0.177
-651.828	-47.080	0.410	0.258
-650.814	26.127	0.233	-0.251
-649.799	800.000	-0.143	-0.519
-648.784	-98.227	-0.243	-0.080
-647.770	-193.818	0.208	0.002
-646.755	-103.906	0.206	-0.062
-645.741	-110.799	0.358	-0.095
-644.726	-60.524	0.314	0.172
-643.711	-152.224	-0.163	-0.015
-642.697	-90.557	-0.405	-0.151
-641.682	387.402	-0.058	0.155
-640.668	-196.534	0.353	0.003
-639.653	-80.528	-0.116	0.050
-638.638	115.508	-0.026	-0.041
-637.624	-144.471	0.222	-0.026
-636.609	-120.206	0.301	0.066
-635.595	-127.435	-0.063	0.012
-634.580	428.040	0.137	0.383
-633.565	-146.457	0.822	0.091
-632.551	-87.589	0.542	-0.210
-631.536	-49.082	-0.173	-0.106
-630.522	125.960	-0.105	0.172
-629.507	800.000	0.039	0.150
-628.492	237.128	-0.097	-0.208
-627.478	-200.000	0.014	-0.173
-626.463	-58.357	-0.253	0.141
-625.449	4.360	-0.301	-0.285
-624.434	514.285	-0.132	-0.400
-623.419	128.008	-0.203	-0.334
-622.405	171.961	-0.101	-0.188
-621.390	-76.291	0.508	0.230
-620.376	-200.000	-0.016	0.092
-619.361	-78.876	0.298	0.131
-618.346	-200.000	-0.029	-0.365
-617.332	-99.782	-0.385	0.124
-616.317	-83.785	-0.145	-0.059
-615.303	-105.055	-0.298	0.087
-614.288	-24.468	-0.866	-0.665
-613.273	592.113	0.125	0.401
-612.259	-147.664	-0.192	0.021
-611.244	-105.792	-0.192	-0.056
-610.230	389.259	-0.263	-0.705
-609.215	-200.000	-0.204	0.000
-608.201	10.707	0.107	-0.106
-607.186	2.670	0.385	-0.360
-606.171	80.431	0.050	0.070
-605.157	60.830	0.240	-0.307
-604.142	107.261	0.276	0.423
-603.128	800.000	0.070	-0.386
-602.113	336.610	0.217	-0.545
-601.098	-89.676	0.569	0.214
-600.084	-66.485	-0.087	0.044
-599.069	87.661	0.038	0.054
-598.055	-93.433	-0.267	-0.095
-597.040	-126.668	-0.497	-0.094
-596.025	69.905	-0.137	-0.183
-595.011	-33.858	-0.551	0.391
-593.996	-36.272	-0.220	0.153
-592.982	98.478	-0.023	-0.034
-591.967	-129.596	0.208	0.037
-590.952	-43.636	-0.173	0.112
-589.938	-119.127	-0.267	-0.060
-588.923	296.665	0.141	0.334
-587.909	-157.919	0.530	-0.040
-586.894	-200.000	0.035	-0.229
-585.879	-77.739	0.585	-0.260
-584.865	-200.000	0.037	0.322
-583.850	800.000	-0.079	-0.327
-582.836	-158.448	0.200	-0.015
-581.821	800.000	-0.005	-0.018
-580.806	201.327	-0.196	-0.390
-579.792	-135.632	-0.363	-0.055
-578.777	-200.000	0.022	0.388
-577.763	-48.688	-0.279	-0.172
-576.748	63.190	-0.387	-0.500
-575.733	698.268	-0.165	-0.561
-574.719	-167.061	-0.212	0.011
-573.704	-84.273	-0.248	0.101
-572.690	-160.709	0.231	0.016
-571.675	-127.047	0.542	0.102
-570.661	-48.460	0.053	-0.033
-569.646	-200.000	-0.016	0.259
-568.631	177.899	0.073	0.137
-567.617	-200.000	0.014	0.095
-566.602	-200.000	-0.024	-0.225
-565.588	141.860	-0.199	-0.340
-564.573	-51.313	-0.211	0.127
-563.558	-79.507	-0.446	-0.193
-562.544	-200.000	-0.004	-0.671
-561.529	243.661	-0.117	0.254
-560.515	356.793	-0.169	-0.437
-559.500	800.000	0.143	0.578
-558.485	-200.000	0.001	0.260
-557.471	145.879	0.199	-0.345
-556.456	734.015	0.170	-0.589
-555.442	-200.000	0.028	0.426
-554.427	-115.416	-0.242	-0.058
-553.412	-102.987	-0.204	0.062
-552.398	-18.290	-0.428	0.344
-551.383	-29.976	-0.261	-0.191
-550.369	-200.000	-0.031	-0.388
-549.354	9.709	-0.332	0.324
-548.339	185.125	0.025	-0.049
-547.325	173.727	-0.084	0.157
-546.310	-104.774	-0.052	0.015
-545.296	-11.540	-0.059	-0.050
-544.281	-81.278	-0.144	0.061
-543.266	-165.792	-0.144	-0.008
-542.252	78.296	-0.164	-0.225
-541.237	120.383	0.161	-0.259
-540.223	-200.000	0.008	0.243
-539.208	-200.000	0.011	0.291
-538.193	-200.000	0.016	-0.281
-537.179	-79.626	-0.237	-0.103
-536.164	-110.260	-0.296	-0.079
-535.150	-59.582	-0.171	-0.094
-534.135	-28.677	0.226	-0.167
-533.121	800.000	0.126	-0.455
-532.106	21.326	-0.299	-0.313
-531.091	-85.942	0.038	-0.015
-530.077	203.494	-0.271	-0.541
-529.062	-113.534	-0.077	-0.019
-528.048	-99.518	0.212	0.068
-527.033	217.570	0.084	-0.173
-526.018	800.000	0.063	-0.305
-525.004	40.090	0.334	-0.387
-523.989	-200.000	-0.012	0.077
-522.975	-62.736	0.317	-0.168
-521.960	-36.983	0.232	0.160
-520.945	-200.000	0.015	0.379
-519.931	-200.000	-0.052	-0.305
-518.916	-92.961	0.305	-0.109
-517.902	-137.327	-0.198	-0.029
-516.887	-28.377	0.506	-0.374
-515.872	587.821	-0.098	-0.313
-514.858	-109.581	-0.364	0.098
-513.843	37.702	-0.196	-0.224
-512.829	-174.541	0.306	0.011
-511.814	-62.258	-0.265	-0.142
-510.799	-63.658	-0.271	-0.142
-509.785	50.834	0.207	-0.252
-508.770	32.982	-0.280	0.312
-507.756	-134.331	-0.395	-0.062
-506.741	-132.603	0.259	-0.042
-505.726	571.192	0.204	-0.642
-504.712	-123.871	0.255	-0.051
-503.697	-200.000	-0.020	-0.242
-502.683	175.572	0.134	-0.250
-501.668	-52.300	0.222	-0.132
-500.653	-3.034	0.404	-0.362
-499.639	485.366	-0.107	-0.313
-498.624	566.185	-0.058	0.182
-497.610	-125.463	-0.323	0.063
-496.595	-121.468	-0.137	0.029
-495.581	-12.427	-0.073	-0.062
-494.566	-30.077	0.771	0.562
-493.551	-118.837	-0.558	-0.125
-492.537	-108.841	0.057	0.016
-491.522	-200.000	-0.051	0.687
-490.508	375.279	-0.076	0.200
-489.493	-200.000	-0.046	-0.689
-488.478	125.402	-0.168	-0.273
-487.464	-74.819	0.262	0.120
-486.449	-100.630	0.110	0.035
-485.435	-52.177	0.160	-0.095
-484.420	800.000	-0.091	0.334
-483.405	38.690	0.172	0.198
-482.391	-85.126	-0.524	0.209
-481.376	53.011	0.477	-0.587
-480.362	-107.302	-0.507	0.142
-479.347	-200.000	0.015	0.235
-478.332	-118.980	-0.054	-0.012
-477.318	788.331	0.056	-0.198
-476.303	-14.605	-0.092	0.076
-475.289	-96.456	-0.028	-0.009
-474.274	286.082	-0.098	0.228
-473.259	335.969	0.133	-0.332
-472.245	-53.653	0.731	0.427
-471.230	-200.000	-0.021	-0.586
-470.216	-200.000	0.002	-0.218
-469.201	73.009	0.217	0.292
-468.186	10.234	0.240	-0.234
-467.172	-80.713	-0.114	-0.049
-466.157	800.000	0.023	0.097
-465.143	79.935	-0.217	0.300
-464.128	-200.000	-0.033	0.641
-463.113	368.025	0.091	0.237
-462.099	-173.478	-0.233	-0.009
-461.084	-59.679	-0.162	-0.089
-460.070	-127.316	-0.543	-0.101
-459.055	-200.000	0.037	0.310
-458.040	-146.581	-0.192	0.021
-457.026	-200.000	-0.023	-0.246
-456.011	18.984	0.374	-0.385
-454.997	131.424	-0.232	-0.384
-453.982	-109.508	0.382	-0.103
-452.968	-200.000	0.071	0.528
-451.953	-62.539	-0.155	-0.082
-450.938	-200.000	-0.019	-0.159
-449.924	-77.824	-0.149	0.066
-448.909	-125.178	0.053	-0.010
-447.895	565.694	-0.138	-0.430
-446.880	-90.009	0.104	-0.039
-445.865	-167.075	-0.180	0.009
-444.851	-200.000	0.017	0.374
-443.836	-157.218	0.098	-0.008
-442.822	-82.979	-0.812	0.334
-441.807	141.215	-0.093	0.158
-440.792	-200.000	0.045	0.376
-439.778	-200.000	-0.014	-0.142
-438.763	-80.883	-0.510	0.216
-437.749	-117.157	0.239	0.055
-436.734	-200.000	-0.012	-0.197
-435.719	-54.686	-0.445	-0.257
-434.705	10.874	0.549	-0.537
-433.690	-17.828	0.539	-0.433
-432.676	109.400	-0.094	-0.145
-431.661	800.000	0.075	0.359
-430.646	-170.457	-0.230	0.010
-429.632	-125.022	0.531	-0.104
-428.617	800.000	-0.085	0.464
-427.603	409.269	-0.138	-0.376
-426.588	-200.000	0.006	-0.120
-425.573	43.181	-0.250	0.292
-424.559	-6.862	-0.058	-0.051
-423.544	781.376	-0.098	0.345
-422.530	-95.114	-0.088	0.030
-421.515	-92.478	-0.229	-0.082
-420.500	-200.000	-0.004	0.090
-419.486	361.931	-0.189	-0.488
-418.471	13.075	0.067	-0.066
-417.457	800.000	-0.057	0.219
-416.442	-143.074	-0.262	0.032
-415.428	-200.000	-0.002	-0.307
-414.413	397.365	0.122	0.329
-413.398	93.690	-0.067	-0.097
-412.384	-70.954	-0.373	0.179
-411.369	-133.481	-0.067	0.011
-410.355	800.000	0.073	-0.372
-409.340	222.221	0.077	0.159
-408.325	-200.000	0.013	0.260
-407.311	-200.000	0.055	0.432
-406.296	93.110	0.143	-0.207
-405.282	37.520	-0.160	-0.182
-404.267	-124.177	0.354	-0.070
-403.252	-200.000	-0.005	-0.247
-402.238	-69.101	0.478	-0.235
-401.223	-200.000	0.036	-0.638
-400.209	142.711	0.319	-0.544
-399.194	503.362	-0.152	0.451
-398.179	73.162	0.186	0.249
-397.165	86.562	-0.176	-0.249
-396.150	-200.000	0.040	0.280
-395.136	265.300	0.070	-0.156
-394.121	207.620	-0.132	0.264
-393.106	117.328	0.187	-0.295
-392.092	52.665	-0.262	0.320
-391.077	105.599	-0.178	0.269
-390.063	-10.276	0.380	0.322
-389.048	-7.402	-0.113	0.098
-388.033	54.965	-0.221	0.274
-387.019	20.583	0.189	0.196
-386.004	-132.312	0.131	-0.022
-384.990	371.957	-0.117	-0.305
-383.975	164.147	-0.102	0.185
-382.960	111.235	-0.197	-0.305
-381.946	-200.000	-0.027	0.163
-380.931	32.759	-0.208	-0.231
-379.917	0.077	-0.345	-0.314
-378.902	-139.553	-0.344	-0.046
-377.888	-92.434	-0.220	0.079
-376.873	-11.200	0.278	-0.234
-375.858	-133.736	-0.229	-0.036
-374.844	-148.297	-0.027	-0.003
-373.829	800.000	0.049	0.258
-372.815	415.205	-0.054	0.147
-371.800	-181.787	0.319	-0.008
-370.785	624.097	0.080	0.260
-369.771	143.177	0.248	-0.422
-368.756	491.614	0.159	-0.466
-367.742	255.131	0.016	-0.035
-366.727	-138.445	-0.268	-0.037
-365.712	5.154	0.457	0.430
-364.698	800.000	0.118	0.533
-363.683	-200.000	-0.034	0.334
-362.669	163.341	0.239	-0.430
-361.654	800.000	-0.053	-0.217
-360.639	-44.608	-0.182	-0.116
-359.625	-200.000	0.044	-0.352
-358.610	73.648	-0.103	0.139
-357.596	-106.206	-0.219	0.062
-356.581	-44.794	-0.296	-0.188
-355.566	6.314	0.512	0.485
-354.552	800.000	0.048	0.265
-353.537	-141.696	0.462	0.059
-352.523	159.623	-0.112	0.200
-351.508	133.911	0.161	0.267
-350.493	-200.000	-0.039	0.441
-349.479	31.374	-0.257	0.282
-348.464	800.000	-0.044	0.160
-347.450	6.251	-0.172	0.162
-346.435	-44.957	0.387	0.246
-345.420	-200.000	-0.012	-0.284
-344.406	-200.000	0.016	-0.206
-343.391	-113.508	0.415	-0.103
-342.377	800.000	-0.221	0.893
-341.362	-67.232	-0.420	-0.210
-340.348	-200.000	0.002	0.240
-339.333	-17.555	0.124	0.099
-338.318	-96.190	-0.349	0.117
-337.304	-26.522	0.161	0.120
-336.289	-200.000	0.012	0.404
-335.275	279.467	0.030	0.068
-334.260	-12.174	-0.450	0.375
-333.245	-200.000	0.022	0.702
-332.231	624.667	-0.091	0.294
-331.216	-200.000	-0.054	0.625
-330.202	-200.000	0.001	0.166
-329.187	-45.339	-0.481	0.304
-328.172	800.000	0.059	-0.256
-327.158	-200.000	0.042	-0.253
-326.143	-40.401	-0.277	-0.183
-325.129	-200.000	0.014	0.173
-324.114	-186.889	0.362	0.006
-323.099	-171.452	0.628	0.026
-322.085	-26.669	-0.353	0.263
-321.070	-74.739	-0.185	-0.084
-320.056	-77.997	0.498	-0.218
-319.041	800.000	0.077	-0.276
-318.026	-200.000	0.007	0.312
-317.012	-66.299	-0.075	0.038
-315.997	140.608	0.199	0.336
-314.983	-42.618	0.268	0.174
-313.968	45.572	-0.131	-0.154
-312.953	-127.907	-0.326	-0.059
-311.939	-102.115	0.193	-0.059
-310.924	-57.382	0.256	-0.143
-309.910	30.022	-0.320	-0.348
-308.895	55.814	-0.220	0.272
-307.880	-145.581	-0.398	0.045
-306.866	-114.853	-0.693	0.167
-305.851	306.886	-0.190	-0.453
-304.837	-127.251	-0.314	-0.058
-303.822	-200.000	0.004	0.452
-302.807	-102.423	0.310	0.094
-301.793	800.000	0.085	-0.317
-300.778	-105.273	0.278	0.080
-299.764	-75.161	0.410	-0.186
-298.749	633.481	-0.154	0.500
-297.735	-37.759	0.289	0.196
-296.720	-146.635	-0.287	-0.031
-295.705	-67.348	-0.024	0.012
-294.691	-17.553	0.098	-0.078
-293.676	15.767	-0.193	0.194
-292.662	-122.174	0.556	-0.115
-291.647	181.923	0.187	-0.352
-290.632	-84.552	0.545	-0.218
-289.618	-61.775	0.320	0.170
-288.603	-194.869	0.213	0.002
-287.589	624.292	0.095	0.308
-286.574	135.956	0.076	0.127
-285.559	90.987	0.291	0.417
-284.545	132.957	-0.090	0.148
-283.530	-115.050	-0.120	0.029
-282.516	-200.000	0.042	0.266
-281.501	-11.949	0.485	-0.404
-280.486	120.225	0.151	-0.239
-279.472	-27.292	-0.331	0.245
-278.457	-94.120	-0.679	0.236
-277.443	15.760	-0.171	0.171
-276.428	-14.920	-0.081	-0.066
-275.413	-200.000	0.093	0.876
-274.399	800.000	0.077	0.334
-273.384	212.834	-0.029	0.058
-272.370	-32.206	-0.171	-0.121
-271.355	14.037	0.185	0.183
-270.340	800.000	-0.134	-0.504
-269.326	-142.960	-0.463	0.057
-268.311	-164.377	-0.217	-0.012
-267.297	-153.692	0.120	-0.010
-266.282	-25.818	-0.272	0.204
-265.267	426.587	-0.058	0.159
-264.253	-200.000	-0.005	-0.217
-263.238	-67.772	0.137	-0.068
-262.224	800.000	0.185	-0.680
-261.209	254.999	0.169	-0.371
-260.195	546.266	-0.162	-0.496
-259.180	25.407	0.284	-0.301
-258.165	15.085	0.135	-0.135
-257.151	-122.781	0.157	-0.032
-256.136	590.221	0.083	0.262
-255.122	105.833	0.156	-0.235
-254.107	-35.395	-0.082	-0.057
-253.092	-76.565	0.180	-0.080
-252.078	412.989	0.249	0.678
-251.063	-75.631	-0.245	0.110
-250.049	37.686	-0.389	-0.439
-249.034	-200.000	-0.054	0.322
-248.019	-62.136	0.333	-0.176
-247.005	-118.357	-0.336	-0.075
-245.990	-59.372	0.418	-0.228
-244.976	-183.599	-0.240	0.005
-243.961	61.041	-0.104	-0.131
-242.946	22.170	0.274	0.285
-241.932	800.000	-0.048	0.188
-240.917	-137.011	-0.287	-0.041
-239.903	-28.685	0.302	0.221
-238.888	-200.000	0.063	0.493
-237.873	-48.345	-0.395	0.241
-236.859	800.000	0.070	0.315
-235.844	-182.324	0.246	-0.006
-234.830	30.643	0.328	-0.357
-233.815	-186.668	0.341	0.006
-232.800	-104.533	-0.211	0.062
-231.786	-128.071	0.078	0.014
-230.771	-15.082	0.239	0.195
-229.757	800.000	-0.183	0.849
-228.742	-198.534	0.230	-0.002
-227.727	-200.000	-0.026	0.165
-226.713	226.541	0.102	0.211
-225.698	209.820	0.236	-0.471
-224.684	-96.435	0.273	0.091
-223.669	-31.319	0.063	-0.045
-222.655	800.000	-0.059	0.293
-221.640	106.325	-0.100	0.151
-220.625	-131.123	0.192	-0.032
-219.611	-200.000	0.032	0.326
-218.596	176.012	-0.233	-0.431
-217.582	-34.465	-0.131	-0.091
-216.567	16.408	0.157	0.157
-215.552	-71.634	0.126	-0.060
-214.538	-200.000	0.069	0.442
-213.523	-23.838	-0.318	0.241
-212.509	-110.919	-0.196	0.051
-211.494	-11.534	-0.060	0.050
-210.479	-15.919	0.338	0.273
-209.465	-182.447	-0.284	-0.007
-208.450	-4.029	-0.271	-0.238
-207.436	-200.000	-0.044	0.502
-206.421	-59.906	0.214	0.116
-205.406	-88.390	0.171	0.064
-204.392	-167.161	-0.354	0.018
-203.377	-43.938	0.276	0.176
-202.363	-94.307	0.216	0.074
-201.348	386.853	-0.213	0.561
-200.333	-200.000	-0.010	0.114
-199.319	-200.000	-0.024	0.156
-198.304	-142.425	-0.606	-0.075
-197.290	423.548	-0.072	0.198
-196.275	-106.660	0.394	-0.110
-195.260	-74.003	0.197	0.090
-194.246	-146.477	-0.148	0.016
-193.231	84.569	0.037	0.052
-192.217	191.119	0.133	-0.255
-191.202	-23.483	0.122	-0.093
-190.187	-75.989	0.417	-0.186
-189.173	800.000	0.041	-0.188
-188.158	-133.697	0.362	0.057
-187.144	-6.983	0.110	0.095
-186.129	-151.651	-0.272	-0.025
-185.114	-145.826	0.188	0.021
-184.100	-127.266	0.545	0.100
-183.085	-132.818	-0.085	-0.014
-182.071	-19.414	0.057	-0.045
-181.056	-200.000	0.052	0.484
-180.042	-95.643	-0.498	0.168
-179.027	315.020	0.108	-0.259
-178.012	24.517	-0.389	-0.409
-176.998	643.572	-0.152	-0.495
-175.983	-200.000	0.005	-0.255
-174.969	-200.000	-0.005	-0.078
-173.954	47.886	0.078	-0.092
-172.939	-200.000	0.017	0.130
-171.925	274.752	0.131	-0.297
-170.910	-64.832	-0.124	0.063
-169.896	-96.370	-0.382	0.127
-168.881	-146.054	-0.356	-0.039
-167.866	-18.758	0.359	0.283
-166.852	245.989	0.113	-0.242
-165.837	44.387	-0.129	-0.150
-164.823	1.317	0.140	0.127
-163.808	199.138	0.126	-0.245
-162.793	375.619	0.076	0.198
-161.779	-98.270	0.082	0.027
-160.764	-26.399	0.360	-0.267
-159.750	257.863	0.043	-0.095
-158.735	21.460	0.350	-0.361
-157.720	138.628	0.138	-0.230
-156.706	-200.000	-0.069	0.484
-155.691	30.066	-0.449	0.485
-154.677	116.675	0.140	-0.218
-153.662	-19.647	0.395	-0.309
-152.647	-200.000	-0.041	0.440
-151.633	-40.308	0.509	0.335
-150.618	-2.532	-0.153	-0.136
-149.604	800.000	-0.146	0.687
-148.589	-40.058	-0.289	0.190
-147.574	-125.996	-0.496	0.094
-146.560	149.998	0.129	-0.222
-145.545	-96.882	0.254	0.084
-144.531	-200.000	0.052	0.584
-143.516	102.964	0.251	0.373
-142.502	-101.833	-0.243	-0.074
-141.487	-118.850	0.267	0.059
-140.472	800.000	-0.067	0.363
-139.458	-126.880	0.290	0.054
-138.443	-165.651	0.157	0.008
-137.429	-200.000	-0.044	-0.323
-136.414	-3.392	0.249	0.219
-135.399	-200.000	0.045	0.444
-134.385	274.491	0.023	-0.052
-133.370	-74.275	0.149	0.068
-132.356	-95.009	-0.301	0.102
-131.341	-198.405	-0.400	0.003
-130.326	-200.000	0.002	-0.041
-129.312	254.359	-0.185	-0.402
-128.297	169.724	-0.291	0.529
-127.283	-11.325	0.182	0.152
-126.268	800.000	-0.048	0.266
-125.253	-125.604	0.311	0.059
-124.239	800.000	0.175	-0.624
-123.224	-160.424	0.204	0.014
