DTS Sentinel unit serial number:	SN409020Multiplexer serial number:	ORYXHardware model number:	OX4-SRSoftware version number:	ORYX F/W v3.00 Oryx Data Collector v3.7.2.0data status	okinstallation	HaddamTimeLapsedifferential loss correction	single-endedforward channel	channel 3reverse channel	N/Adate	2011/06/22time	11:41:01forward acquisition time	30.00reverse acquisition time	0.00gamma	498.7831k internal	0.1752k external	0.1752temperature offset calibration	1.0074default loss term (dB/km)	0.3790temperature slope calibration	1.3530multiplexer offset coefficient	1.0000multiplexer slope coefficient	1.0000fibre end	0.00T internal ref (°C)	28.09T ext. ref 1 (°C)	23.34T ext. ref 2 (°C)	-0.10length (m)	temperature (°C)	Stokes	anti-Stokes-747.200	800.000	0.032	0.129
-746.185	54.971	0.116	-0.148
-745.171	800.000	-0.109	0.641
-744.156	265.840	0.115	0.267
-743.142	-161.870	0.336	-0.022
-742.127	-149.593	0.076	0.008
-741.112	-200.000	-0.060	0.403
-740.098	-181.668	0.300	0.008
-739.083	-111.220	0.271	0.073
-738.069	-200.000	0.049	-0.442
-737.054	-102.034	-0.564	-0.179
-736.039	800.000	0.032	0.121
-735.025	800.000	-0.085	0.411
-734.010	-130.610	0.271	-0.048
-732.996	-113.416	0.132	-0.034
-731.981	-49.226	0.298	0.188
-730.966	-46.691	-0.205	-0.133
-729.952	-86.033	-0.419	0.171
-728.937	-68.513	0.219	-0.112
-727.923	281.209	-0.161	-0.383
-726.908	36.662	-0.127	-0.149
-725.894	59.804	0.052	0.068
-724.879	-128.002	0.229	0.043
-723.864	-80.873	0.454	-0.199
-722.850	-13.158	0.512	0.441
-721.835	-26.257	0.415	0.323
-720.821	103.582	0.079	-0.123
-719.806	-66.165	0.152	-0.080
-718.791	-200.000	-0.063	-0.507
-717.777	-131.251	0.130	-0.023
-716.762	21.883	-0.369	-0.398
-715.748	-175.645	-0.146	-0.005
-714.733	-162.990	-0.318	-0.020
-713.718	-9.146	-0.391	0.346
-712.704	-200.000	-0.057	-0.354
-711.689	-84.359	-0.425	-0.177
-710.675	-1.850	-0.279	-0.260
-709.660	39.888	-0.189	-0.225
-708.645	-125.088	0.045	0.009
-707.631	-112.124	-0.231	-0.061
-706.616	-44.561	0.264	0.174
-705.602	29.052	0.435	0.489
-704.587	800.000	0.009	0.054
-703.572	-90.157	-0.246	0.095
-702.558	-76.614	0.055	0.026
-701.543	-92.987	0.025	0.009
-700.529	-2.140	-0.363	0.337
-699.514	264.043	-0.010	0.022
-698.499	800.000	0.067	-0.365
-697.485	116.818	0.056	0.092
-696.470	-104.086	0.118	-0.036
-695.456	242.107	-0.054	-0.120
-694.441	83.544	-0.124	0.180
-693.426	178.484	-0.109	-0.211
-692.412	800.000	0.047	0.243
-691.397	-7.833	-0.179	-0.160
-690.383	45.095	0.124	-0.152
-689.368	-34.092	0.255	-0.185
-688.354	-21.914	-0.314	-0.252
-687.339	206.197	0.159	-0.328
-686.324	271.526	0.113	-0.265
-685.310	-200.000	-0.004	0.255
-684.295	87.534	0.280	0.412
-683.281	-58.585	-0.386	0.221
-682.266	-173.964	0.147	-0.006
-681.251	188.215	0.095	-0.188
-680.237	-2.673	-0.322	-0.298
-679.222	130.423	-0.159	-0.270
-678.208	185.227	0.095	-0.188
-677.193	189.689	0.055	0.109
-676.178	-76.739	0.303	-0.140
-675.164	127.805	-0.238	-0.401
-674.149	201.036	0.069	-0.141
-673.135	800.000	0.106	-0.404
-672.120	-200.000	-0.054	0.366
-671.105	329.488	0.187	0.478
-670.091	-125.738	-0.487	0.097
-669.076	-24.078	-0.284	-0.224
-668.062	-26.497	-0.369	0.286
-667.047	651.339	0.162	-0.553
-666.032	-29.389	0.322	0.243
-665.018	97.040	0.240	0.364
-664.003	-200.000	0.027	0.181
-662.989	52.958	0.203	-0.258
-661.974	-200.000	0.020	-0.630
-660.959	-44.641	-0.249	0.164
-659.945	14.645	-0.257	0.266
-658.930	-94.309	-0.398	0.143
-657.916	-147.050	0.051	0.006
-656.901	42.325	-0.076	0.092
-655.886	-36.155	-0.253	0.180
-654.872	497.554	-0.130	-0.398
-653.857	311.458	-0.172	0.428
-652.843	-164.472	-0.164	-0.010
-651.828	-169.465	0.214	0.010
-650.814	5.042	-0.034	-0.033
-649.799	800.000	-0.020	-0.114
-648.784	-67.101	-0.353	0.183
-647.770	61.665	0.088	-0.116
-646.755	-107.076	-0.260	-0.075
-645.741	0.376	0.090	0.085
-644.726	-166.707	0.483	-0.026
-643.711	-174.281	-0.198	-0.007
-642.697	-200.000	0.017	0.222
-641.682	-200.000	0.032	-0.323
-640.668	-140.438	-0.353	-0.048
-639.653	-73.371	-0.224	-0.108
-638.638	-94.225	0.556	-0.200
-637.624	-18.393	0.264	0.218
-636.609	-169.266	0.501	-0.024
-635.595	-25.256	-0.147	0.115
-634.580	-23.673	0.167	0.132
-633.565	-195.992	-0.221	-0.002
-632.551	235.250	0.045	0.099
-631.536	3.282	0.210	-0.202
-630.522	53.469	0.165	0.210
-629.507	-43.031	-0.357	0.238
-628.492	-86.401	-0.472	0.191
-627.478	63.858	0.058	-0.078
-626.463	-47.327	-0.213	0.137
-625.449	547.116	0.129	-0.409
-624.434	-130.555	0.161	0.028
-623.419	390.186	-0.127	0.350
-622.405	-47.126	0.169	0.109
-621.390	-200.000	-0.014	0.122
-620.376	800.000	0.075	-0.378
-619.361	13.455	-0.534	0.547
-618.346	462.766	0.142	-0.421
-617.332	-120.200	0.256	0.057
-616.317	-27.188	-0.244	-0.187
-615.303	-98.907	-0.369	0.123
-614.288	-139.474	-0.186	0.026
-613.273	-117.322	0.387	0.092
-612.259	-160.223	-0.255	-0.018
-611.244	-118.049	-0.285	0.067
-610.230	139.933	0.297	-0.517
-609.215	-108.972	-0.332	0.093
-608.201	441.011	0.165	-0.480
-607.186	800.000	-0.044	-0.220
-606.171	49.732	0.173	-0.216
-605.157	183.617	-0.072	0.140
-604.142	19.706	-0.406	0.431
-603.128	104.436	0.062	0.097
-602.113	491.379	-0.046	0.139
-601.098	85.950	-0.136	0.198
-600.084	-64.090	0.491	0.264
-599.069	255.976	-0.071	-0.161
-598.055	632.108	-0.031	0.105
-597.040	-59.691	-0.192	-0.108
-596.025	-83.137	-0.536	-0.227
-595.011	-37.879	0.061	0.043
-593.996	-153.123	-0.111	0.010
-592.982	-132.584	0.168	-0.028
-591.967	-123.547	-0.590	0.123
-590.952	673.711	0.071	0.246
-589.938	189.629	-0.049	0.098
-588.923	-131.856	-0.190	0.032
-587.909	542.232	0.054	0.169
-586.894	397.451	-0.098	0.271
-585.879	800.000	0.116	0.448
-584.865	-65.128	-0.585	0.310
-583.850	-156.643	-0.455	0.037
-582.836	-50.932	0.084	0.052
-581.821	-43.165	0.320	-0.213
-580.806	-56.704	0.267	0.155
-579.792	163.850	-0.172	0.321
-578.777	-200.000	0.062	-0.412
-577.763	90.197	0.394	-0.582
-576.748	800.000	-0.071	0.322
-575.733	-200.000	-0.004	0.276
-574.719	-16.276	-0.378	-0.316
-573.704	-107.920	-0.265	-0.075
-572.690	-200.000	-0.494	0.001
-571.675	225.211	-0.215	-0.461
-570.661	-200.000	0.044	-0.472
-569.646	-56.168	0.114	-0.067
-568.631	-200.000	-0.025	-0.168
-567.617	-5.525	-0.310	-0.281
-566.602	94.613	-0.155	-0.233
-565.588	-121.148	-0.157	-0.034
-564.573	-200.000	0.005	0.159
-563.558	-93.721	-0.516	-0.187
-562.544	-163.976	0.471	0.028
-561.529	-62.153	-0.121	0.066
-560.515	36.768	0.165	-0.193
-559.500	-50.778	-0.123	0.076
-558.485	103.078	-0.063	-0.097
-557.471	800.000	0.045	-0.188
-556.456	-188.571	0.486	-0.008
-555.442	-104.573	0.287	-0.087
-554.427	-200.000	-0.032	-0.309
-553.412	-66.160	-0.315	-0.165
-552.398	-85.255	-0.367	-0.150
-551.383	103.010	-0.247	0.382
-550.369	-100.798	-0.489	0.158
-549.354	8.188	0.121	-0.120
-548.339	41.066	0.250	0.298
-547.325	-185.838	0.181	-0.003
-546.310	19.524	-0.148	0.157
-545.296	-45.932	0.032	0.021
-544.281	-96.449	-0.330	-0.114
-543.266	-200.000	0.059	-0.516
-542.252	-74.798	0.438	-0.206
-541.237	142.049	0.123	0.216
-540.223	426.420	-0.104	0.297
-539.208	-121.813	0.221	-0.048
-538.193	-157.035	0.405	-0.032
-537.179	76.163	-0.176	-0.245
-536.164	-92.376	0.133	0.049
-535.150	-200.000	0.036	0.520
-534.135	44.221	0.122	0.147
-533.121	-158.608	-0.714	-0.053
-532.106	800.000	-0.068	-0.305
-531.091	40.387	0.214	0.254
-530.077	438.625	-0.158	-0.456
-529.062	235.883	-0.119	0.259
-528.048	-79.622	0.263	0.116
-527.033	81.748	-0.131	0.187
-526.018	-57.628	0.325	0.187
-525.004	800.000	-0.096	-0.354
-523.989	800.000	-0.070	-0.304
-522.975	-200.000	-0.056	0.342
-521.960	800.000	-0.028	-0.130
-520.945	68.407	-0.148	-0.200
-519.931	800.000	0.020	-0.094
-518.916	-200.000	0.025	0.264
-517.902	-200.000	-0.045	0.468
-516.887	16.443	-0.221	0.230
-515.872	-31.235	0.372	-0.275
-514.858	85.739	0.376	-0.544
-513.843	-99.293	0.294	-0.097
-512.829	47.009	-0.197	-0.241
-511.814	800.000	-0.118	-0.456
-510.799	1.816	0.224	-0.212
-509.785	441.686	-0.128	0.370
-508.770	-45.440	-0.165	-0.107
-507.756	-37.990	-0.405	-0.282
-506.741	-0.513	0.165	-0.154
-505.726	54.938	0.123	-0.157
-504.712	97.778	-0.176	0.267
-503.697	534.642	0.081	0.255
-502.683	-200.000	0.011	-0.245
-501.668	800.000	-0.088	0.445
-500.653	45.405	0.344	-0.418
-499.639	-29.913	-0.271	0.202
-498.624	-141.992	-0.666	-0.086
-497.610	34.320	0.182	-0.209
-496.595	-75.025	0.252	-0.118
-495.581	-9.755	-0.117	0.102
-494.566	-76.868	0.191	-0.087
-493.551	53.153	-0.165	-0.208
-492.537	-200.000	0.040	-0.319
-491.522	-62.852	-0.229	-0.124
-490.508	21.006	-0.313	0.334
-489.493	-150.438	0.232	0.023
-488.478	253.160	0.049	0.111
-487.464	714.040	0.059	-0.207
-486.449	-96.546	-0.269	-0.093
-485.435	263.219	-0.131	-0.299
-484.420	-114.735	0.200	-0.050
-483.405	-200.000	-0.031	0.224
-482.391	425.169	-0.098	0.278
-481.376	-103.958	0.324	0.099
-480.362	-50.222	-0.412	0.255
-479.347	34.038	0.268	0.306
-478.332	-37.973	0.144	0.101
-477.318	-200.000	-0.064	0.418
-476.303	-114.990	0.540	0.134
-475.289	56.153	0.200	0.255
-474.274	123.580	0.150	-0.248
-473.259	-137.664	-0.260	-0.038
-472.245	-200.000	-0.017	0.334
-471.230	-200.000	0.015	0.202
-470.216	-32.599	0.394	0.287
-469.201	-92.320	-0.142	0.052
-468.186	-137.048	0.117	0.017
-467.172	287.758	-0.108	0.257
-466.157	-167.763	0.262	-0.013
-465.143	6.406	0.179	0.175
-464.128	182.361	-0.358	0.695
-463.113	-131.604	-0.211	0.036
-462.099	-46.332	0.172	-0.110
-461.084	105.469	0.303	-0.471
-460.070	-51.174	-0.120	-0.073
-459.055	262.633	0.237	0.542
-458.040	-200.000	-0.014	0.097
-457.026	9.005	0.398	-0.394
-456.011	-94.261	0.252	0.090
-454.997	-200.000	0.033	-0.322
-453.982	-200.000	-0.011	-0.095
-452.968	6.451	0.297	-0.289
-451.953	241.923	0.076	-0.168
-450.938	-200.000	-0.027	0.163
-449.924	-200.000	-0.031	-0.514
-448.909	800.000	-0.010	-0.043
-447.895	-113.837	-0.456	-0.115
-446.880	26.313	-0.118	0.130
-445.865	-200.000	0.021	0.168
-444.851	-119.593	-0.132	0.030
-443.836	-200.000	0.027	0.288
-442.822	62.726	0.431	0.566
-441.807	-150.819	0.295	0.029
-440.792	-90.565	0.250	0.094
-439.778	-25.673	0.120	0.093
-438.763	800.000	0.042	-0.200
-437.749	-96.516	-0.276	-0.095
-436.734	800.000	-0.096	-0.539
-435.719	-133.992	-0.209	-0.034
-434.705	-122.992	-0.167	-0.035
-433.690	209.670	0.012	-0.025
-432.676	-81.063	0.437	-0.189
-431.661	115.435	0.088	0.141
-430.646	-200.000	0.025	0.188
-429.632	-15.386	0.151	0.126
-428.617	-135.892	0.192	-0.029
-427.603	-191.669	0.520	-0.007
-426.588	800.000	-0.087	0.483
-425.573	44.113	-0.150	0.180
-424.559	-101.268	-0.141	-0.045
-423.544	328.996	-0.104	-0.264
-422.530	103.738	-0.247	0.380
-421.515	-7.176	0.030	-0.026
-420.500	-17.725	-0.107	-0.088
-419.486	-134.459	0.222	0.035
-418.471	273.276	0.060	0.140
-417.457	-94.791	0.355	-0.125
-416.442	0.016	-0.025	-0.024
-415.428	68.355	0.261	0.351
-414.413	-52.883	0.639	-0.384
-413.398	-147.053	-0.134	-0.015
-412.384	800.000	0.025	0.115
-411.369	41.591	-0.109	-0.130
-410.355	104.494	0.240	0.371
-409.340	-114.803	-0.272	-0.068
-408.325	91.653	0.134	-0.197
-407.311	-170.240	0.398	0.018
-406.296	-104.102	-0.479	-0.145
-405.282	-154.152	0.244	0.021
-404.267	-52.874	-0.471	-0.284
-403.252	15.023	-0.227	0.233
-402.238	494.083	0.059	-0.179
-401.223	-30.579	0.233	0.173
-400.209	-109.225	-0.272	0.075
-399.194	-95.016	-0.191	-0.067
-398.179	-200.000	0.006	-0.269
-397.165	-83.098	-0.136	-0.057
-396.150	23.634	0.315	0.340
-395.136	-80.945	-0.414	0.179
-394.121	-9.787	-0.114	-0.099
-393.106	-200.000	-0.038	0.380
-392.092	-16.917	-0.330	0.273
-391.077	8.124	-0.372	0.366
-390.063	42.001	-0.120	0.142
-389.048	-81.036	-0.252	-0.109
-388.033	-57.859	0.354	-0.202
-387.019	-131.976	0.192	-0.032
-386.004	137.195	0.252	0.432
-384.990	-0.575	0.275	-0.255
-383.975	69.986	0.154	0.208
-382.960	-115.663	0.070	0.017
-381.946	-73.606	0.405	0.192
-380.931	-16.174	-0.138	-0.115
-379.917	-200.000	-0.014	-0.660
-378.902	800.000	0.094	-0.374
-377.888	-5.380	-0.236	-0.212
-376.873	-121.233	-0.288	0.062
-375.858	-144.093	-0.271	0.033
-374.844	-107.619	0.214	0.061
-373.829	777.929	-0.078	-0.281
-372.815	185.253	0.261	0.509
-371.800	-23.829	-0.244	-0.191
-370.785	95.314	-0.347	-0.518
-369.771	800.000	0.061	-0.337
-368.756	97.815	0.022	0.034
-367.742	122.606	0.010	0.017
-366.727	144.549	0.212	-0.372
-365.712	800.000	0.030	-0.123
-364.698	800.000	-0.050	0.289
-363.683	-200.000	0.055	0.366
-362.669	800.000	0.040	-0.191
-361.654	-114.280	-0.363	-0.091
-360.639	122.439	0.180	0.294
-359.625	-25.466	0.289	-0.223
-358.610	-68.393	-0.287	0.145
-357.596	-115.118	-0.408	-0.100
-356.581	-96.966	0.405	-0.138
-355.566	-55.911	0.232	-0.135
-354.552	-54.011	0.391	-0.232
-353.537	-52.183	-0.249	-0.150
-352.523	-193.090	0.233	-0.003
-351.508	-120.953	-0.222	0.048
-350.493	486.926	-0.061	-0.183
-349.479	169.341	-0.295	0.552
-348.464	-19.806	-0.204	-0.165
-347.450	-200.000	-0.009	-0.383
-346.435	154.668	-0.209	-0.376
-345.420	-113.658	-0.199	-0.050
-344.406	29.157	0.311	0.345
-343.391	-122.746	-0.695	0.146
-342.377	-24.225	0.176	0.137
-341.362	800.000	0.112	-0.507
-340.348	-71.968	-0.288	0.139
-339.333	-200.000	-0.057	-0.613
-338.318	42.757	-0.219	-0.261
-337.304	-192.033	-0.217	-0.003
-336.289	-91.775	0.216	-0.080
-335.275	-90.646	0.034	0.013
-334.260	-106.096	-0.220	0.064
-333.245	-200.000	0.016	0.117
-332.231	-68.032	-0.129	-0.065
-331.216	-29.881	-0.027	-0.020
-330.202	800.000	0.018	-0.079
-329.187	-200.000	-0.025	0.432
-328.172	-76.216	0.502	0.230
-327.158	-108.002	-0.221	-0.062
-326.143	444.385	0.145	-0.419
-325.129	-200.000	0.028	-0.377
-324.114	-200.000	0.006	-0.123
-323.099	-131.832	0.357	-0.060
-322.085	300.870	0.053	0.129
-321.070	-122.515	0.654	-0.138
-320.056	-25.432	-0.544	-0.419
-319.041	-105.412	0.553	0.163
-318.026	-61.625	0.382	-0.209
-317.012	-102.347	0.212	-0.066
-315.997	-147.797	0.609	0.066
-314.983	-106.267	-0.333	0.097
-313.968	-131.258	-0.325	-0.056
-312.953	-70.015	0.286	0.141
-311.939	140.321	-0.113	0.195
-310.924	-58.236	0.057	-0.032
-309.910	-105.444	-0.172	0.051
-308.895	217.202	0.274	0.572
-307.880	-200.000	0.028	0.543
-306.866	-17.681	0.200	0.164
-305.851	-200.000	0.008	-0.419
-304.837	56.318	-0.128	-0.163
-303.822	-83.573	0.428	-0.178
-302.807	-166.249	0.244	-0.013
-301.793	800.000	-0.046	0.219
-300.778	-200.000	-0.015	-0.427
-299.764	17.199	0.256	-0.265
-298.749	-69.477	0.125	0.062
-297.735	-106.373	-0.197	-0.057
-296.720	-96.173	-0.223	-0.077
-295.705	800.000	0.022	-0.089
-294.691	-200.000	-0.002	-0.096
-293.676	515.565	0.081	0.249
-292.662	-200.000	-0.021	0.584
-291.647	-200.000	0.023	-0.300
-290.632	50.715	-0.079	-0.097
-289.618	-200.000	0.002	0.069
-288.603	800.000	-0.008	0.032
-287.589	319.871	0.113	-0.281
-286.574	83.080	-0.168	0.238
-285.559	-117.662	0.104	-0.024
-284.545	-83.748	-0.223	-0.092
-283.530	-54.680	-0.235	0.138
-282.516	77.961	-0.053	0.073
-281.501	-60.307	0.197	-0.109
-280.486	172.981	0.262	0.493
-279.472	627.211	-0.103	0.342
-278.457	-93.779	-0.348	0.124
-277.443	-85.005	0.491	-0.200
-276.428	-159.858	-0.241	-0.017
-275.413	505.385	-0.031	0.095
-274.399	-102.910	-0.307	-0.094
-273.384	-158.577	-0.515	0.038
-272.370	-142.497	0.369	0.047
-271.355	43.991	0.144	-0.171
-270.340	800.000	-0.081	0.377
-269.326	-74.549	0.085	0.040
-268.311	-120.652	0.410	-0.090
-267.297	-116.155	-0.324	0.078
-266.282	-97.815	-0.043	-0.014
-265.267	451.067	-0.116	0.336
-264.253	800.000	0.078	-0.314
-263.238	150.620	0.120	0.213
-262.224	196.234	-0.160	0.319
-261.209	800.000	0.093	-0.367
-260.195	-30.151	-0.204	-0.151
-259.180	-110.215	-0.042	-0.011
-258.165	148.519	0.101	0.179
-257.151	-200.000	0.034	0.251
-256.136	-200.000	-0.028	0.211
-255.122	101.961	0.217	0.330
-254.107	-110.281	0.615	0.165
-253.092	-200.000	-0.002	-0.169
-252.078	-18.361	0.103	-0.084
-251.063	-200.000	0.013	-0.202
-250.049	-200.000	-0.026	-0.223
-249.034	-61.342	-0.342	-0.187
-248.019	186.999	0.093	0.180
-247.005	-92.015	-0.208	0.076
-245.990	106.712	0.295	0.457
-244.976	-21.622	0.159	0.126
-243.961	-135.100	0.491	0.076
-242.946	800.000	0.129	0.533
-241.932	50.513	0.213	0.263
-240.917	-200.000	0.025	0.166
-239.903	-200.000	0.035	-0.268
-238.888	-57.471	0.135	-0.077
-237.873	-200.000	0.021	0.187
-236.859	-128.594	-0.178	0.032
-235.844	22.391	-0.122	0.130
-234.830	241.907	0.185	0.404
-233.815	-72.604	-0.298	0.143
-232.800	15.752	0.263	-0.269
-231.786	-53.339	-0.237	0.141
-230.771	-15.990	0.092	0.076
-229.757	61.608	0.197	-0.255
-228.742	800.000	-0.142	-0.562
-227.727	-9.533	-0.212	0.184
-226.713	208.985	0.161	0.329
-225.698	-106.418	0.253	-0.073
-224.684	74.937	0.190	-0.261
-223.669	410.544	-0.111	0.307
-222.655	-142.176	-0.497	0.063
-221.640	-86.522	0.090	0.036
-220.625	-149.751	-0.219	-0.022
-219.611	-200.000	0.021	-0.172
-218.596	246.699	-0.104	-0.229
-217.582	103.484	-0.132	-0.201
-216.567	657.227	0.051	0.171
-215.552	-15.569	0.338	0.280
-214.538	-132.266	0.332	0.055
-213.523	-76.875	0.280	-0.127
-212.509	38.942	-0.076	-0.088
-211.494	18.479	-0.391	0.406
-210.479	32.034	-0.210	0.236
-209.465	150.919	0.159	-0.282
-208.450	-200.000	0.018	0.337
-207.436	54.984	-0.290	-0.365
-206.421	-125.869	0.347	0.067
-205.406	-107.291	0.624	-0.177
-204.392	-142.277	0.225	0.029
-203.377	-93.452	-0.435	0.156
-202.363	-30.784	-0.157	0.115
-201.348	-97.538	-0.183	-0.061
-200.333	-200.000	-0.028	0.214
-199.319	-91.972	0.493	0.180
-198.304	-200.000	-0.033	-0.407
-197.290	-37.405	-0.469	0.324
-196.275	-145.279	-0.225	0.026
-195.260	12.545	-0.387	-0.388
-194.246	-32.107	0.378	-0.274
-193.231	81.295	-0.219	0.308
-192.217	-112.896	0.145	-0.037
-191.202	-142.474	-0.199	-0.025
-190.187	-61.971	0.253	-0.137
-189.173	-142.788	-0.105	0.013
-188.158	-45.574	-0.148	-0.095
-187.144	-40.023	-0.362	-0.245
-186.129	-200.000	-0.047	0.304
-185.114	-78.424	0.224	-0.099
-184.100	-24.608	0.248	0.192
-183.085	-67.275	0.266	-0.136
-182.071	-67.313	-0.081	-0.041
-181.056	-140.746	-0.210	-0.028
-180.042	-12.265	-0.246	-0.209
-179.027	75.721	0.115	-0.158
-178.012	-150.756	-0.268	0.026
-176.998	-68.876	0.454	-0.227
-175.983	-148.981	-0.174	0.018
-174.969	161.081	-0.407	-0.741
-173.954	361.823	0.097	-0.253
-172.939	80.711	0.144	-0.202
-171.925	-200.000	0.017	0.119
-170.910	-117.612	0.347	-0.081
-169.896	79.043	-0.237	0.330
-168.881	800.000	-0.064	0.276
-167.866	7.643	0.165	-0.160
-166.852	693.228	-0.077	-0.262
-165.837	415.606	0.052	-0.145
-164.823	-200.000	0.031	0.346
-163.808	-112.017	-0.254	0.066
-162.793	198.174	0.054	0.108
-161.779	-83.357	-0.286	0.118
-160.764	-49.982	0.170	-0.104
-159.750	800.000	0.051	0.185
-158.735	800.000	0.048	-0.238
-157.720	800.000	-0.019	0.078
-156.706	78.453	0.026	0.036
-155.691	-85.659	-0.402	-0.161
-154.677	11.970	-0.016	-0.016
-153.662	64.626	-0.039	0.052
-152.647	94.962	-0.187	-0.276
-151.633	-87.798	0.606	0.236
-150.618	800.000	0.113	-0.429
-149.604	-116.810	0.169	0.040
-148.589	-122.273	-0.640	-0.135
-147.574	-41.467	0.186	-0.124
-146.560	172.698	0.120	-0.224
-145.545	-200.000	-0.036	0.354
-144.531	-200.000	0.015	0.339
-143.516	-61.471	0.595	0.323
-142.502	-33.616	0.736	0.526
-141.487	70.443	-0.185	0.248
-140.472	800.000	0.025	-0.098
-139.458	-124.319	0.451	-0.090
-138.443	167.298	-0.181	0.335
-137.429	126.404	-0.208	-0.342
-136.414	237.028	0.166	0.359
-135.399	-14.874	0.036	-0.030
-134.385	646.634	-0.076	-0.253
-133.370	254.561	0.076	0.169
-132.356	-157.752	-0.244	0.019
-131.341	-1.738	0.156	0.142
-130.326	-200.000	0.071	0.476
-129.312	-99.959	-0.186	0.060
-128.297	130.672	-0.193	0.321
-127.283	800.000	-0.044	0.169
-126.268	-20.753	-0.209	-0.166
-125.253	335.603	-0.156	0.395
-124.239	310.525	-0.293	0.713
-123.224	-200.000	-0.011	-0.179
-122.210	-68.950	0.074	-0.037
