DTS Sentinel unit serial number:	SN409020Multiplexer serial number:	ORYXHardware model number:	OX4-SRSoftware version number:	ORYX F/W v3.00 Oryx Data Collector v3.7.2.0data status	okinstallation	HaddamTimeLapsedifferential loss correction	single-endedforward channel	channel 3reverse channel	N/Adate	2011/06/21time	14:11:17forward acquisition time	30.00reverse acquisition time	0.00gamma	498.7831k internal	0.1830k external	0.1830temperature offset calibration	1.0074default loss term (dB/km)	0.3790temperature slope calibration	1.3530multiplexer offset coefficient	1.0000multiplexer slope coefficient	1.0000fibre end	0.00T internal ref (°C)	38.06T ext. ref 1 (°C)	31.44T ext. ref 2 (°C)	0.25length (m)	temperature (°C)	Stokes	anti-Stokes-747.200	-200.000	-0.007	-0.114
-746.185	-110.743	0.241	0.063
-745.171	-28.509	-0.347	-0.253
-744.156	-78.341	0.139	0.060
-743.142	-10.815	-0.473	0.397
-742.127	422.241	0.098	0.268
-741.112	-36.737	0.136	-0.092
-740.098	-95.772	0.438	0.148
-739.083	-200.000	0.035	0.457
-738.069	-200.000	0.053	0.568
-737.054	-129.947	-0.146	-0.025
-736.039	-38.170	0.234	-0.158
-735.025	-104.435	0.489	0.143
-734.010	-183.487	-0.262	0.006
-732.996	-200.000	0.023	-0.165
-731.981	193.947	-0.220	-0.424
-730.966	-77.273	-0.120	0.053
-729.952	675.660	0.044	-0.146
-728.937	-194.506	-0.329	0.003
-727.923	-128.823	-0.284	-0.050
-726.908	118.555	0.060	-0.095
-725.894	800.000	-0.033	0.133
-724.879	195.485	-0.204	-0.395
-723.864	77.631	-0.233	-0.315
-722.850	220.460	-0.058	0.118
-721.835	161.262	-0.289	0.515
-720.821	143.769	0.315	-0.534
-719.806	-114.283	-0.166	0.040
-718.791	-132.860	-0.506	-0.081
-717.777	-144.244	-0.175	-0.021
-716.762	92.303	0.267	-0.383
-715.748	549.660	-0.124	0.380
-714.733	-32.353	-0.343	-0.242
-713.718	143.789	-0.114	-0.193
-712.704	27.584	-0.202	-0.215
-711.689	800.000	0.146	0.574
-710.675	-147.176	-0.334	-0.036
-709.660	19.632	-0.078	-0.080
-708.645	181.964	-0.156	0.293
-707.631	-99.908	-0.105	0.033
-706.616	-111.171	-0.696	0.179
-705.602	204.170	0.250	-0.493
-704.587	492.077	-0.060	-0.174
-703.572	145.609	-0.285	-0.486
-702.558	-30.845	0.079	-0.056
-701.543	262.346	0.112	-0.247
-700.529	72.126	0.305	-0.403
-699.514	-87.857	-0.427	-0.162
-698.499	260.223	-0.119	-0.261
-697.485	-186.371	0.049	0.001
-696.470	101.185	0.079	0.117
-695.456	-135.986	-0.853	0.126
-694.441	-133.065	0.174	-0.028
-693.426	-109.293	0.268	0.072
-692.412	45.170	0.236	-0.276
-691.397	-113.991	-0.491	0.120
-690.383	-104.909	0.299	0.086
-689.368	-35.673	0.140	-0.096
-688.354	800.000	-0.095	0.343
-687.339	-81.222	-0.262	0.109
-686.324	-133.966	-0.324	-0.050
-685.310	-0.951	0.108	0.097
-684.295	-61.026	-0.280	0.150
-683.281	-13.133	0.270	0.222
-682.266	309.831	-0.148	0.352
-681.251	304.960	-0.100	-0.235
-680.237	56.217	-0.200	0.246
-679.222	-159.935	0.054	0.004
-678.208	-130.584	0.326	-0.055
-677.193	-27.650	0.067	-0.049
-676.178	0.714	-0.460	0.417
-675.164	310.493	-0.195	-0.465
-674.149	-112.301	-0.243	-0.061
-673.135	-4.757	-0.200	-0.175
-672.120	285.451	-0.128	0.294
-671.105	-47.595	-0.286	0.175
-670.091	-122.989	0.853	-0.172
-669.076	43.743	0.199	-0.230
-668.062	800.000	-0.017	-0.061
-667.047	-200.000	0.018	-0.150
-666.032	-85.911	-0.147	0.057
-665.018	7.878	-0.246	-0.234
-664.003	-200.000	0.037	-0.248
-662.989	-116.671	-0.247	0.057
-661.974	-58.000	-0.415	0.229
-660.959	-128.490	-0.116	0.021
-659.945	-3.435	0.230	0.203
-658.930	107.522	0.064	0.096
-657.916	800.000	-0.105	-0.550
-656.901	-200.000	0.041	-0.293
-655.886	305.469	-0.167	0.395
-654.872	-151.052	0.232	-0.022
-653.857	-70.634	-0.125	0.060
-652.843	65.880	-0.221	-0.284
-651.828	-200.000	0.009	0.210
-650.814	-23.794	0.213	-0.161
-649.799	-76.525	0.529	-0.234
-648.784	-120.312	-0.187	-0.040
-647.770	-200.000	0.021	0.138
-646.755	-54.420	0.319	0.183
-645.741	53.706	-0.167	0.203
-644.726	69.259	0.124	0.162
-643.711	16.129	-0.344	0.343
-642.697	800.000	0.028	-0.128
-641.682	-11.165	-0.130	-0.108
-640.668	-8.284	-0.210	0.179
-639.653	36.196	0.429	0.478
-638.638	-99.863	0.368	0.116
-637.624	-199.890	0.312	0.002
-636.609	-89.956	0.249	-0.092
-635.595	-67.040	0.328	-0.163
-634.580	365.589	-0.016	-0.041
-633.565	363.571	-0.116	-0.297
-632.551	-72.495	0.112	-0.052
-631.536	-200.000	-0.030	0.220
-630.522	-200.000	-0.033	0.673
-629.507	-200.000	0.025	0.362
-628.492	44.342	-0.189	-0.220
-627.478	21.035	-0.253	0.259
-626.463	67.091	0.079	0.102
-625.449	-157.738	-0.123	-0.009
-624.434	-88.055	-0.295	0.111
-623.419	-144.931	-0.339	-0.039
-622.405	-121.031	-0.046	0.010
-621.390	-15.407	0.410	-0.331
-620.376	800.000	0.057	0.279
-619.361	-200.000	0.001	0.189
-618.346	-93.924	0.243	0.084
-617.332	50.361	0.105	-0.126
-616.317	-93.498	0.450	-0.156
-615.303	244.969	0.146	-0.312
-614.288	186.927	0.057	-0.107
-613.273	60.622	0.066	-0.082
-612.259	-43.094	0.113	-0.072
-611.244	800.000	0.119	0.476
-610.230	-12.654	-0.129	-0.106
-609.215	-174.173	-0.038	-0.001
-608.201	-69.912	-0.422	0.203
-607.186	374.991	-0.043	0.110
-606.171	-115.125	-0.180	-0.043
-605.157	-114.021	0.236	0.057
-604.142	-154.095	-0.440	0.037
-603.128	-130.635	-0.377	-0.064
-602.113	-97.615	-0.378	-0.123
-601.098	70.211	0.392	0.513
-600.084	110.725	0.306	0.466
-599.069	-113.016	0.280	0.069
-598.055	106.380	0.123	0.185
-597.040	-66.632	-0.412	-0.206
-596.025	-200.000	-0.007	-0.365
-595.011	-80.607	0.152	-0.063
-593.996	650.736	0.081	0.262
-592.982	-29.179	0.376	0.272
-591.967	-81.749	-0.138	0.057
-590.952	-200.000	0.020	-0.185
-589.938	-121.034	0.801	-0.168
-588.923	553.606	0.082	-0.250
-587.909	318.499	0.173	-0.415
-586.894	-98.620	0.241	0.077
-585.879	-12.392	-0.351	-0.290
-584.865	-43.790	0.164	-0.104
-583.850	-184.725	0.164	-0.003
-582.836	-61.273	-0.229	0.121
-581.821	284.545	-0.015	-0.034
-580.806	-200.000	0.014	-0.113
-579.792	-200.000	0.047	0.551
-578.777	92.154	0.322	-0.459
-577.763	-51.872	0.250	0.146
-576.748	-156.901	0.325	0.025
-575.733	16.220	-0.448	0.446
-574.719	-200.000	-0.027	-0.244
-573.704	283.299	0.201	-0.458
-572.690	75.288	0.167	0.222
-571.675	800.000	0.045	0.185
-570.661	-67.039	-0.591	-0.293
-569.646	-41.512	0.181	0.117
-568.631	800.000	0.022	0.109
-567.617	23.140	0.393	0.408
-566.602	-200.000	-0.001	-0.324
-565.588	-87.925	-0.313	0.118
-564.573	88.838	0.213	0.300
-563.558	67.461	-0.067	0.087
-562.544	-82.402	-0.203	-0.083
-561.529	181.598	-0.090	0.167
-560.515	-200.000	-0.049	0.310
-559.500	-200.000	-0.281	0.001
-558.485	-97.563	0.375	0.122
-557.471	34.796	0.275	-0.304
-556.456	-70.210	-0.267	-0.127
-555.442	296.471	-0.132	-0.307
-554.427	251.441	0.070	0.150
-553.412	-200.000	0.017	0.171
-552.398	-68.786	0.221	0.107
-551.383	-200.000	0.006	0.357
-550.369	-168.511	-0.404	-0.019
-549.354	-13.494	0.280	-0.228
-548.339	-75.372	0.196	0.088
-547.325	-75.293	-0.179	0.080
-546.310	-75.011	-0.653	-0.293
-545.296	26.380	-0.237	-0.250
-544.281	-10.229	-0.402	0.336
-543.266	-134.976	-0.452	-0.068
-542.252	800.000	-0.090	0.345
-541.237	51.766	-0.340	-0.408
-540.223	-200.000	-0.000	0.344
-539.208	800.000	0.090	-0.469
-538.193	628.095	-0.015	-0.049
-537.179	92.497	-0.145	0.206
-536.164	-43.415	0.338	-0.215
-535.150	-200.000	-0.052	0.405
-534.135	178.687	0.174	0.322
-533.121	59.673	0.044	-0.055
-532.106	83.886	0.165	0.227
-531.091	-200.000	-0.014	0.192
-530.077	120.141	0.132	-0.206
-529.062	-77.580	-0.300	0.130
-528.048	36.586	0.122	0.136
-527.033	-100.760	0.242	0.074
-526.018	133.312	-0.296	0.483
-525.004	-134.436	-0.015	0.002
-523.989	-117.934	-0.627	0.140
-522.975	179.071	-0.154	0.285
-521.960	-23.098	-0.387	-0.293
-520.945	10.664	-0.039	0.037
-519.931	-126.759	0.449	-0.083
-518.916	-53.990	0.430	-0.246
-517.902	-60.967	-0.164	0.087
-516.887	45.911	0.316	0.368
-515.872	49.436	-0.066	0.079
-514.858	-200.000	0.040	0.379
-513.843	26.316	-0.290	-0.306
-512.829	-180.165	-0.179	0.005
-511.814	-183.287	-0.211	0.005
-510.799	800.000	0.008	0.034
-509.785	702.547	0.022	-0.074
-508.770	-113.102	-0.333	0.082
-507.756	-200.000	0.015	-0.182
-506.741	131.298	-0.205	0.332
-505.726	1.984	0.253	0.230
-504.712	-200.000	0.055	0.317
-503.697	-62.288	0.265	-0.138
-502.683	-114.888	0.370	-0.088
-501.668	-87.399	0.035	-0.013
-500.653	13.153	0.075	-0.073
-499.639	18.631	-0.183	-0.184
-498.624	-200.000	0.032	-0.431
-497.610	-142.426	0.166	-0.020
-496.595	322.632	0.167	0.401
-495.581	800.000	0.057	0.303
-494.566	-200.000	-0.643	0.003
-493.551	-78.354	-0.217	-0.093
-492.537	160.345	0.160	-0.282
-491.522	29.561	0.148	0.159
-490.508	189.980	-0.137	0.260
-489.493	800.000	-0.060	0.296
-488.478	-184.951	0.378	-0.007
-487.464	94.562	-0.200	0.287
-486.449	249.223	0.149	0.319
-485.435	-67.575	0.017	0.008
-484.420	-18.302	-0.262	-0.206
-483.405	800.000	0.049	-0.187
-482.391	-20.574	0.086	-0.066
-481.376	-94.868	-0.114	0.038
-480.362	3.614	0.036	0.033
-479.347	130.706	-0.124	0.200
-478.332	-44.255	-0.163	-0.103
-477.318	207.882	-0.224	0.441
-476.303	-53.304	-0.169	-0.097
-475.289	-3.197	-0.279	-0.245
-474.274	40.431	0.401	0.454
-473.259	49.542	-0.056	0.066
-472.245	-103.807	-0.203	0.059
-471.230	-150.559	0.127	-0.012
-470.216	-108.523	0.309	0.083
-469.201	800.000	-0.046	0.231
-468.186	8.817	-0.321	0.304
-467.172	333.637	-0.112	-0.273
-466.157	-8.335	-0.359	-0.303
-465.143	-47.522	-0.204	0.124
-464.128	-105.359	-0.301	-0.085
-463.113	286.398	0.062	0.141
-462.099	271.424	-0.037	-0.083
-461.084	800.000	-0.101	-0.414
-460.070	-113.990	0.056	0.014
-459.055	50.158	-0.150	0.178
-458.040	-200.000	0.005	0.115
-457.026	72.374	-0.306	-0.401
-456.011	-200.000	-0.001	-0.232
-454.997	0.651	-0.506	-0.454
-453.982	39.846	-0.062	0.070
-452.968	-84.092	0.614	0.244
-451.953	-86.002	0.344	-0.133
-450.938	-24.516	0.112	-0.084
-449.924	-12.188	-0.192	-0.157
-448.909	-200.000	0.063	0.383
-447.895	800.000	0.043	0.164
-446.880	-114.110	0.367	0.088
-445.865	-109.318	-0.429	0.113
-444.851	56.749	-0.125	-0.153
-443.836	334.841	-0.169	-0.413
-442.822	-31.345	-0.209	-0.148
-441.807	-38.733	-0.457	0.302
-440.792	680.651	-0.177	-0.581
-439.778	800.000	0.171	-0.809
-438.763	-191.829	-0.277	-0.003
-437.749	491.327	0.220	0.635
-436.734	407.283	-0.065	-0.172
-435.719	389.950	0.084	-0.220
-434.705	74.033	0.085	-0.112
-433.690	-200.000	0.038	-0.473
-432.676	25.356	-0.231	0.241
-431.661	-189.204	-0.117	0.002
-430.646	-80.093	-0.307	0.129
-429.632	-200.000	-0.027	-0.244
-428.617	194.276	-0.017	-0.032
-427.603	1.079	0.385	0.346
-426.588	-200.000	-0.032	0.692
-425.573	41.839	0.214	0.244
-424.559	800.000	0.045	0.204
-423.544	-133.425	-0.154	0.024
-422.530	-86.886	0.294	0.112
-421.515	-63.599	0.313	-0.161
-420.500	-161.461	0.167	0.011
-419.486	-200.000	-0.009	-0.258
-418.471	7.063	-0.283	-0.265
-417.457	-14.824	0.228	-0.184
-416.442	49.294	0.069	0.081
-415.428	-62.502	-0.190	0.099
-414.413	-200.000	-0.021	0.117
-413.398	-8.844	0.155	-0.130
-412.384	-118.517	-0.378	0.083
-411.369	-47.358	0.420	-0.255
-410.355	-37.554	0.200	-0.133
-409.340	-126.016	-0.309	-0.058
-408.325	-115.286	-0.517	0.122
-407.311	140.980	0.176	-0.293
-406.296	119.663	0.062	0.096
-405.282	22.812	-0.359	-0.369
-404.267	-50.845	0.274	0.161
-403.252	-109.453	0.304	0.080
-402.238	-200.000	-0.034	-0.317
-401.223	-200.000	0.020	0.172
-400.209	48.263	0.181	-0.212
-399.194	-135.949	-0.280	-0.041
-398.179	-200.000	0.001	-0.300
-397.165	-54.880	0.394	-0.222
-396.150	-108.610	0.265	0.071
-395.136	-5.286	-0.362	-0.311
-394.121	23.287	-0.264	0.272
-393.106	39.158	0.179	0.200
-392.092	146.805	-0.074	0.124
-391.077	275.458	0.215	-0.479
-390.063	-30.698	0.279	-0.197
-389.048	199.448	-0.189	-0.364
-388.033	301.058	0.077	-0.178
-387.019	66.736	0.200	-0.255
-386.004	338.832	-0.180	-0.442
-384.990	-132.383	-0.592	-0.095
-383.975	-61.759	-0.455	-0.238
-382.960	-59.918	0.316	-0.169
-381.946	-99.198	0.119	0.037
-380.931	19.934	-0.163	0.165
-379.917	800.000	-0.055	0.218
-378.902	-200.000	0.039	-0.513
-377.888	280.711	-0.236	0.531
-376.873	-42.504	0.312	0.199
-375.858	-1.454	0.172	0.152
-374.844	-200.000	-0.017	-0.136
-373.829	-200.000	-0.075	-0.524
-372.815	-86.501	0.316	-0.121
-371.800	800.000	0.127	-0.442
-370.785	5.354	0.212	-0.195
-369.771	-188.062	0.468	0.007
-368.756	-96.315	-0.268	0.088
-367.742	-70.365	-0.269	0.127
-366.727	-17.158	-0.105	0.083
-365.712	573.639	-0.078	0.239
-364.698	310.597	0.046	0.108
-363.683	-1.073	-0.382	-0.338
-362.669	-4.363	-0.571	-0.494
-361.654	-78.702	0.036	-0.015
-360.639	-35.151	-0.321	0.219
-359.625	94.317	0.206	-0.294
-358.610	-72.609	0.267	0.123
-357.596	-200.000	-0.044	-0.270
-356.581	-83.848	-0.227	-0.090
-355.566	-75.723	0.476	0.210
-354.552	-96.691	-0.215	0.071
-353.537	-134.240	0.293	0.045
-352.523	-200.000	-0.072	0.513
-351.508	-152.882	-0.361	0.032
-350.493	800.000	0.049	0.242
-349.479	-200.000	0.061	0.361
-348.464	-200.000	0.026	-0.204
-347.450	-193.839	-0.445	0.005
-346.435	-25.864	-0.187	0.138
-345.420	447.157	-0.022	0.062
-344.406	-32.626	-0.142	-0.099
-343.391	-140.021	-0.026	0.003
-342.377	-76.175	-0.200	-0.088
-341.362	105.704	-0.251	-0.372
-340.348	-32.377	0.166	-0.116
-339.333	216.674	-0.228	-0.455
-338.318	-87.396	0.186	-0.070
-337.304	5.232	0.253	-0.233
-336.289	-73.506	0.222	0.101
-335.275	186.184	-0.186	-0.347
-334.260	-129.746	0.088	0.015
-333.245	-3.851	0.295	-0.256
-332.231	515.305	0.148	0.434
-331.216	-69.393	0.167	0.080
-330.202	739.759	-0.094	0.316
-329.187	-74.395	-0.231	-0.104
-328.172	-44.968	-0.112	0.070
-327.158	108.419	0.171	0.256
-326.143	138.395	-0.102	-0.168
-325.129	649.765	0.115	0.372
-324.114	-5.913	0.251	0.215
-323.099	-159.412	-0.655	0.045
-322.085	-145.266	0.129	-0.014
-321.070	-133.570	-0.033	-0.005
-320.056	-115.187	-0.426	-0.100
-319.041	-5.376	-0.112	-0.096
-318.026	-47.539	-0.261	-0.158
-317.012	800.000	0.134	0.525
-315.997	62.854	0.164	0.205
-314.983	45.917	0.152	-0.176
-313.968	-174.247	-0.302	0.011
-312.953	800.000	0.153	-0.695
-311.939	-35.967	-0.156	0.105
-310.924	-32.341	-0.096	-0.067
-309.910	171.535	-0.099	-0.178
-308.895	143.562	-0.187	0.312
-307.880	92.119	-0.132	-0.187
-306.866	800.000	-0.118	-0.414
-305.851	-200.000	-0.185	0.000
-304.837	-130.003	0.063	0.011
-303.822	800.000	0.074	-0.272
-302.807	347.974	0.071	-0.176
-301.793	-121.590	-0.428	-0.088
-300.778	49.224	0.191	0.224
-299.764	205.566	0.129	0.251
-298.749	-82.915	0.255	0.102
-297.735	-157.153	0.537	0.040
-296.720	-200.000	0.008	0.162
-295.705	-59.430	-0.071	0.038
-294.691	-130.460	-0.339	-0.057
-293.676	-200.000	0.059	-0.385
-292.662	-4.587	-0.227	0.196
-291.647	-66.127	-0.372	-0.184
-290.632	6.204	0.371	-0.343
-289.618	-5.347	0.264	-0.226
-288.603	-70.436	0.367	-0.173
-287.589	-98.673	0.095	0.030
-286.574	157.260	0.054	0.094
-285.559	-154.687	-0.490	-0.040
-284.545	-31.300	-0.221	-0.155
-283.530	72.915	-0.420	-0.548
-282.516	-164.678	0.162	0.009
-281.501	-190.318	0.398	0.005
-280.486	-27.792	0.164	-0.119
-279.472	7.149	0.266	0.247
-278.457	-199.339	0.341	-0.002
-277.443	-58.578	-0.193	-0.104
-276.428	-137.457	-0.109	0.015
-275.413	-102.489	0.186	-0.055
-274.399	-99.596	-0.521	-0.162
-273.384	-51.211	0.328	0.191
-272.370	-43.222	0.137	-0.086
-271.355	800.000	-0.072	-0.305
-270.340	-53.824	-0.292	0.166
-269.326	-158.732	0.427	-0.030
-268.311	-24.244	-0.455	-0.338
-267.297	-3.696	-0.208	0.180
-266.282	165.841	0.101	0.179
-265.267	-77.236	0.504	-0.218
-264.253	-71.000	0.564	0.263
-263.238	-99.131	0.213	0.067
-262.224	-64.215	0.363	0.184
-261.209	260.476	0.059	0.127
-260.195	-200.000	0.043	0.270
-259.180	57.078	0.226	0.274
-258.165	-115.404	0.611	-0.143
-257.151	-135.457	-0.049	-0.007
-256.136	-200.000	-0.044	-0.355
-255.122	710.122	-0.085	0.282
-254.107	-15.768	-0.245	-0.195
-253.092	16.277	0.460	-0.452
-252.078	-103.186	0.290	0.085
-251.063	-48.481	0.416	-0.249
-250.049	-68.318	0.098	0.047
-249.034	-77.432	0.465	-0.200
-248.019	-130.022	0.312	0.053
-247.005	-161.438	-0.155	-0.010
-245.990	236.819	0.255	0.528
-244.976	-140.204	-0.300	-0.039
-243.961	-60.778	0.112	0.059
-242.946	-53.434	-0.084	-0.048
-241.932	-119.819	0.473	-0.101
-240.917	-81.643	0.293	-0.119
-239.903	-107.555	-0.440	-0.119
-238.888	-126.188	0.649	-0.120
-237.873	-78.382	0.391	-0.166
-236.859	472.755	0.080	0.225
-235.844	-23.784	-0.202	0.150
-234.830	-200.000	-0.028	0.340
-233.815	-14.865	0.315	0.252
-232.800	-111.480	-0.110	0.028
-231.786	-200.000	0.011	-0.196
-230.771	5.397	0.294	-0.270
-229.757	321.474	0.135	-0.320
-228.742	2.815	-0.193	0.174
-227.727	-65.731	-0.197	-0.098
-226.713	10.071	-0.248	0.234
-225.698	129.768	0.123	0.197
-224.684	-119.369	-0.585	0.126
-223.669	-100.528	0.736	-0.225
-222.655	-71.201	-0.050	0.023
-221.640	-19.034	-0.053	-0.041
-220.625	-144.968	0.329	0.037
-219.611	-153.269	-0.209	0.018
-218.596	800.000	-0.031	0.162
-217.582	212.152	0.174	-0.342
-216.567	-88.229	0.434	0.161
-215.552	-102.699	-0.248	0.073
-214.538	-136.266	0.208	0.030
-213.523	179.452	0.249	-0.455
-212.509	127.681	-0.297	0.471
-211.494	-97.518	0.134	0.043
-210.479	44.500	-0.224	0.256
-209.465	-142.755	-0.210	0.025
-208.450	28.709	-0.159	-0.168
-207.436	-70.316	-0.267	-0.126
-206.421	14.834	-0.312	-0.304
-205.406	-125.814	-0.367	-0.068
-204.392	163.189	0.184	-0.323
-203.377	7.588	-0.221	-0.206
-202.363	-52.037	-0.361	0.208
-201.348	-84.409	-0.114	0.045
-200.333	-47.235	0.269	-0.163
-199.319	395.318	0.046	0.121
-198.304	206.637	0.159	-0.308
-197.290	800.000	-0.014	0.066
-196.275	-176.212	0.243	0.008
-195.260	-14.748	0.074	0.059
-194.246	-67.099	-0.438	-0.214
-193.231	-200.000	-0.044	-0.380
-192.217	-200.000	0.004	-0.251
-191.202	234.816	-0.175	-0.361
-190.187	-200.000	0.003	0.250
-189.173	-200.000	-0.006	0.357
-188.158	108.460	-0.209	0.311
-187.144	-78.924	-0.189	-0.080
-186.129	10.933	0.481	-0.457
-185.114	-73.585	0.323	-0.146
-184.100	0.227	0.116	0.103
-183.085	287.420	-0.088	0.198
-182.071	77.142	0.133	0.175
-181.056	-200.000	0.062	0.532
-180.042	-41.892	0.150	0.095
-179.027	-200.000	-0.006	0.405
-178.012	-36.213	-0.391	0.262
-176.998	62.971	-0.140	0.175
-175.983	-195.039	-0.208	-0.002
-174.969	-131.777	0.157	0.025
-173.954	-25.481	-0.062	-0.045
-172.939	-8.320	-0.154	-0.129
-171.925	-119.810	-0.304	0.064
-170.910	26.610	-0.117	-0.122
-169.896	-32.743	-0.249	-0.172
-168.881	-113.759	-0.167	-0.040
-167.866	6.322	-0.301	-0.277
-166.852	-134.169	-0.192	0.029
-165.837	11.634	0.321	0.306
-164.823	-167.731	0.290	-0.014
-163.808	-200.000	0.015	0.262
-162.793	800.000	-0.014	0.051
-161.779	-77.326	-0.335	0.144
-160.764	-70.453	0.336	0.157
-159.750	-83.231	-0.298	0.118
-158.735	366.222	-0.151	0.380
-157.720	-144.169	0.319	-0.037
-156.706	316.421	-0.160	-0.376
-155.691	-98.589	0.273	-0.086
-154.677	-138.265	-0.184	-0.025
-153.662	-73.417	0.107	0.048
-152.647	-92.205	0.278	0.097
-151.633	800.000	-0.010	0.048
-150.618	-112.955	-0.065	-0.016
-149.604	-9.179	0.550	-0.456
-148.589	800.000	0.050	-0.237
-147.574	-50.067	-0.153	0.090
-146.560	-87.845	-0.205	0.076
-145.545	-61.442	0.242	-0.126
-144.531	-117.654	-0.553	0.123
-143.516	-151.594	-0.370	-0.034
-142.502	800.000	0.051	-0.215
-141.487	800.000	0.075	0.405
-140.472	-200.000	0.024	0.344
-139.458	-91.695	-0.357	-0.125
-138.443	10.042	-0.351	-0.330
-137.429	-130.982	-0.359	0.059
-136.414	142.229	-0.150	0.247
-135.399	-57.466	-0.326	0.177
-134.385	-173.642	0.466	-0.017
-133.370	79.887	-0.040	-0.053
-132.356	-78.201	-0.416	0.177
-131.341	253.027	0.149	-0.317
-130.326	-40.660	0.369	0.237
-129.312	-200.000	-0.011	0.256
-128.297	59.038	-0.061	-0.074
-127.283	-188.807	-0.219	-0.003
-126.268	237.040	0.201	0.415
-125.253	47.114	-0.197	0.228
-124.239	-77.638	0.445	0.190
-123.224	800.000	-0.094	0.366
-122.210	1.872	-0.459	0.411
-121.195	-161.270	0.507	0.032
