DTS Sentinel unit serial number:	SN409020Multiplexer serial number:	ORYXHardware model number:	OX4-SRSoftware version number:	ORYX F/W v3.00 Oryx Data Collector v3.7.2.0data status	okinstallation	HaddamTimeLapsedifferential loss correction	single-endedforward channel	channel 3reverse channel	N/Adate	2011/06/21time	22:46:16forward acquisition time	30.00reverse acquisition time	0.00gamma	498.7831k internal	0.1754k external	0.1754temperature offset calibration	1.0074default loss term (dB/km)	0.3790temperature slope calibration	1.3530multiplexer offset coefficient	1.0000multiplexer slope coefficient	1.0000fibre end	0.00T internal ref (°C)	23.72T ext. ref 1 (°C)	18.56T ext. ref 2 (°C)	0.04length (m)	temperature (°C)	Stokes	anti-Stokes-747.200	-176.457	0.424	-0.014
-746.185	379.993	0.233	0.638
-745.171	-112.244	-0.069	0.018
-744.156	-114.924	-0.289	-0.073
-743.142	-50.161	-0.213	0.133
-742.127	-200.000	-0.060	0.949
-741.112	800.000	-0.117	0.566
-740.098	141.885	0.101	0.178
-739.083	-27.187	-0.352	0.271
-738.069	-200.000	0.060	0.637
-737.054	233.816	0.084	-0.184
-736.039	-157.110	0.085	-0.007
-735.025	-132.896	0.445	0.074
-734.010	800.000	0.080	0.397
-732.996	0.351	0.141	-0.133
-731.981	-82.234	0.289	-0.124
-730.966	20.746	0.329	0.354
-729.952	-200.000	-0.012	0.266
-728.937	-150.111	0.505	-0.051
-727.923	-134.305	-0.742	-0.120
-726.908	-129.648	-0.646	-0.117
-725.894	800.000	0.114	-0.545
-724.879	-200.000	-0.015	0.131
-723.864	3.085	-0.306	0.294
-722.850	52.107	0.172	0.217
-721.835	-111.976	-0.282	-0.075
-720.821	92.755	-0.055	0.082
-719.806	-35.473	0.263	0.189
-718.791	-55.825	0.185	0.109
-717.777	-200.000	-0.015	0.185
-716.762	-200.000	0.043	-0.374
-715.748	-134.751	-0.245	-0.039
-714.733	-200.000	0.051	0.506
-713.718	800.000	-0.046	0.230
-712.704	-145.365	-0.108	-0.013
-711.689	-3.355	0.189	-0.174
-710.675	254.217	-0.181	-0.412
-709.660	-200.000	0.001	-0.287
-708.645	-39.039	0.423	0.294
-707.631	-131.828	0.127	0.022
-706.616	167.475	-0.233	-0.440
-705.602	-200.000	0.052	0.316
-704.587	-133.628	-0.216	0.035
-703.572	-97.023	-0.140	0.048
-702.558	208.025	-0.354	0.735
-701.543	231.354	-0.147	-0.319
-700.529	122.206	-0.310	0.513
-699.514	-192.483	-0.515	0.006
-698.499	-147.340	0.384	-0.043
-697.485	-139.987	0.483	-0.067
-696.470	-98.334	0.136	-0.046
-695.456	-86.539	0.063	-0.025
-694.441	-54.459	0.266	0.159
-693.426	-159.104	0.678	-0.050
-692.412	-117.517	-0.227	0.054
-691.397	-115.482	-0.495	-0.122
-690.383	10.747	-0.282	0.285
-689.368	534.820	-0.084	0.264
-688.354	-19.410	0.393	0.322
-687.339	-200.000	-0.008	-0.271
-686.324	41.468	-0.293	0.351
-685.310	-200.000	0.024	-0.272
-684.295	46.754	0.085	0.104
-683.281	-13.683	-0.077	0.066
-682.266	-80.094	-0.277	-0.122
-681.251	-17.864	0.290	0.240
-680.237	-200.000	0.041	-0.354
-679.222	207.713	-0.234	0.485
-678.208	203.730	0.144	-0.297
-677.193	-64.995	-0.266	0.141
-676.178	-84.251	-0.250	-0.104
-675.164	-72.260	-0.459	-0.224
-674.149	-66.878	0.471	-0.245
-673.135	-139.682	-0.248	0.035
-672.120	-15.184	0.256	0.217
-671.105	-117.420	-0.268	-0.064
-670.091	-2.948	0.258	-0.238
-669.076	-60.543	-0.180	0.101
-668.062	-20.408	-0.119	0.096
-667.047	-151.584	-0.060	-0.006
-666.032	-87.785	-0.630	-0.250
-665.018	-182.092	0.521	-0.013
-664.003	111.345	-0.157	-0.251
-662.989	178.285	-0.224	-0.434
-661.974	800.000	0.048	0.193
-660.959	28.849	-0.305	-0.341
-659.945	-31.736	0.469	-0.347
-658.930	437.893	0.068	0.196
-657.916	-200.000	0.003	-0.479
-656.901	-200.000	-0.031	0.242
-655.886	-74.414	-0.072	0.034
-654.872	26.298	-0.228	-0.251
-653.857	580.592	-0.062	0.202
-652.843	-0.973	-0.435	0.407
-651.828	-71.300	-0.351	-0.173
-650.814	800.000	0.105	0.437
-649.799	263.626	-0.076	0.175
-648.784	-84.863	0.363	0.150
-647.770	-4.678	-0.355	0.323
-646.755	-143.592	-0.559	0.069
-645.741	-38.862	-0.330	0.229
-644.726	124.178	-0.225	0.375
-643.711	-97.905	0.085	-0.029
-642.697	-139.807	-0.353	-0.049
-641.682	-200.000	0.029	0.413
-640.668	83.916	-0.041	-0.059
-639.653	163.233	0.226	-0.421
-638.638	178.045	-0.119	0.230
-637.624	-60.764	-0.327	-0.182
-636.609	2.643	0.208	-0.199
-635.595	14.019	-0.383	0.394
-634.580	-200.000	0.021	0.204
-633.565	-111.722	0.223	0.059
-632.551	-6.402	0.069	-0.062
-631.536	256.526	0.126	0.286
-630.522	213.263	0.067	0.141
-629.507	-200.000	0.017	0.364
-628.492	-80.188	0.182	-0.080
-627.478	-172.386	-0.599	0.025
-626.463	-162.728	-0.386	-0.025
-625.449	-125.169	0.423	-0.085
-624.434	13.826	0.274	-0.281
-623.419	-151.222	0.435	-0.042
-622.405	-127.349	-0.287	0.055
-621.390	67.629	-0.377	-0.508
-620.376	468.733	0.175	-0.520
-619.361	150.653	-0.223	-0.401
-618.346	143.948	-0.190	-0.335
-617.332	-46.381	-0.293	-0.190
-616.317	-49.740	0.104	-0.065
-615.303	-200.000	-0.010	-0.241
-614.288	199.699	0.069	0.140
-613.273	370.383	0.149	-0.400
-612.259	-112.739	-0.014	0.004
-611.244	-91.864	-0.549	-0.204
-610.230	74.248	-0.151	-0.210
-609.215	241.097	0.174	-0.385
-608.201	-55.199	-0.331	-0.196
-607.186	-52.060	-0.515	-0.314
-606.171	177.082	-0.203	-0.391
-605.157	-131.306	-0.341	-0.059
-604.142	293.042	-0.096	-0.231
-603.128	-189.815	0.288	-0.004
-602.113	14.286	0.079	0.081
-601.098	-143.691	0.214	-0.026
-600.084	-88.562	0.134	-0.052
-599.069	-151.940	0.259	-0.025
-598.055	462.766	0.045	-0.132
-597.040	-95.950	-0.123	-0.043
-596.025	-137.835	-0.343	0.050
-595.011	458.566	0.257	0.758
-593.996	-96.591	0.567	0.196
-592.982	-200.000	0.036	0.343
-591.967	-138.439	0.224	-0.032
-590.952	102.188	0.284	-0.437
-589.938	-200.000	0.037	-0.622
-588.923	-89.022	0.522	0.203
-587.909	-148.910	-0.519	-0.055
-586.894	315.085	0.027	0.067
-585.879	137.766	0.012	0.020
-584.865	69.805	-0.132	0.180
-583.850	-22.964	0.337	0.267
-582.836	-92.140	-0.072	-0.027
-581.821	326.156	0.047	-0.119
-580.806	-30.277	0.442	-0.330
-579.792	-200.000	-0.546	0.000
-578.777	-124.711	-0.136	0.027
-577.763	-12.016	-0.193	0.166
-576.748	712.749	-0.052	-0.184
-575.733	800.000	-0.049	-0.217
-574.719	168.650	-0.019	-0.036
-573.704	211.563	-0.110	-0.228
-572.690	-200.000	-0.018	-0.166
-571.675	-115.092	0.338	-0.084
-570.661	-164.764	0.383	-0.022
-569.646	-64.356	0.296	0.158
-568.631	-88.135	-0.306	0.120
-567.617	800.000	0.097	0.398
-566.602	152.254	-0.174	0.313
-565.588	-200.000	-0.014	0.229
-564.573	-125.817	0.346	-0.068
-563.558	-15.862	-0.105	-0.088
-562.544	-7.433	0.190	-0.169
-561.529	800.000	0.069	0.298
-560.515	800.000	-0.063	0.364
-559.500	336.723	0.092	0.237
-558.485	-186.524	-0.454	-0.008
-557.471	-22.127	0.115	0.091
-556.456	-78.961	-0.160	0.071
-555.442	-16.283	0.212	-0.177
-554.427	-172.147	-0.042	-0.002
-553.412	26.852	-0.261	0.288
-552.398	276.326	-0.186	0.436
-551.383	-93.640	-0.199	-0.072
-550.369	219.611	0.245	-0.519
-549.354	-88.409	0.257	0.101
-548.339	-158.759	0.445	-0.033
-547.325	-97.517	0.276	-0.094
-546.310	-93.783	0.190	0.068
-545.296	150.301	-0.206	-0.368
-544.281	-129.756	-0.326	0.059
-543.266	-200.000	-0.040	0.360
-542.252	49.057	0.299	-0.370
-541.237	491.251	-0.062	0.188
-540.223	296.208	0.181	0.438
-539.208	-200.000	-0.017	0.274
-538.193	-200.000	-0.047	-0.286
-537.179	73.556	-0.234	-0.323
-536.164	-98.184	0.224	0.075
-535.150	-89.106	-0.080	0.031
-534.135	-200.000	-0.034	0.562
-533.121	-173.250	-0.312	0.012
-532.106	-108.460	-0.083	0.023
-531.091	-63.846	-0.284	0.152
-530.077	448.954	0.071	0.206
-529.062	-118.803	-0.170	0.039
-528.048	482.840	0.118	-0.355
-527.033	-0.852	0.117	-0.108
-526.018	25.052	-0.333	0.363
-525.004	73.275	-0.435	0.599
-523.989	-3.801	0.078	-0.071
-522.975	22.825	-0.310	0.334
-521.960	-159.912	0.330	0.023
-520.945	103.091	0.129	-0.198
-519.931	102.211	0.088	0.136
-518.916	-36.055	0.268	0.190
-517.902	101.427	0.277	-0.425
-516.887	-1.512	0.127	-0.118
-515.872	49.007	0.196	0.242
-514.858	18.414	0.178	-0.187
-513.843	-51.717	0.274	0.168
-512.829	-111.177	0.315	0.084
-511.814	-109.465	-0.089	-0.025
-510.799	18.145	0.301	0.315
-509.785	-186.317	0.313	0.006
-508.770	-28.061	0.225	0.171
-507.756	-130.823	0.191	0.033
-506.741	-111.848	-0.047	0.012
-505.726	-87.996	-0.268	0.105
-504.712	178.584	-0.182	-0.351
-503.697	-146.914	-0.117	0.013
-502.683	-120.840	-0.663	-0.146
-501.668	88.356	-0.358	-0.522
-500.653	800.000	0.079	-0.385
-499.639	800.000	-0.082	-0.328
-498.624	-5.390	0.146	0.132
-497.610	800.000	0.099	-0.448
-496.595	-92.922	0.456	-0.166
-495.581	-126.105	-0.278	-0.054
-494.566	800.000	0.071	-0.341
-493.551	-200.000	0.039	0.256
-492.537	336.897	0.218	-0.558
-491.522	-76.837	-0.380	-0.174
-490.508	7.055	0.135	0.133
-489.493	160.964	0.096	-0.177
-488.478	29.293	-0.284	0.316
-487.464	-109.978	0.081	0.022
-486.449	-125.734	-0.247	0.049
-485.435	-152.545	0.088	-0.008
-484.420	-53.357	0.497	0.298
-483.405	-12.383	-0.431	0.369
-482.391	-1.790	0.309	0.286
-481.376	-23.161	-0.230	0.182
-480.362	-62.625	-0.099	0.053
-479.347	264.563	-0.238	-0.546
-478.332	-65.404	-0.213	-0.112
-477.318	64.374	0.086	-0.114
-476.303	104.952	0.170	-0.264
-475.289	585.053	0.137	-0.444
-474.274	691.793	0.061	-0.210
-473.259	-19.921	-0.231	0.187
-472.245	-170.607	-0.220	0.010
-471.230	384.324	0.121	-0.328
-470.216	207.303	0.110	-0.225
-469.201	-6.860	-0.525	0.468
-468.186	-200.000	0.027	0.297
-467.172	184.839	0.201	0.393
-466.157	-0.073	0.373	0.348
-465.143	-29.043	0.327	0.246
-464.128	209.506	0.015	0.031
-463.113	592.117	-0.147	0.477
-462.099	-153.902	0.237	-0.021
-461.084	188.959	-0.369	-0.726
-460.070	-147.332	-0.310	-0.034
-459.055	-7.252	0.326	0.290
-458.040	698.185	-0.113	-0.393
-457.026	-200.000	0.106	0.693
-456.011	145.638	0.031	0.055
-454.997	-29.464	-0.392	0.293
-453.982	-104.991	-0.037	-0.011
-452.968	54.205	0.119	0.150
-451.953	226.963	0.097	0.207
-450.938	800.000	0.052	-0.286
-449.924	-56.178	0.563	-0.327
-448.909	-143.635	0.482	-0.059
-447.895	330.389	-0.185	-0.469
-446.880	147.086	-0.100	0.177
-445.865	-200.000	0.002	0.069
-444.851	-119.415	0.237	0.053
-443.836	313.739	0.122	-0.301
-442.822	-57.316	0.265	0.152
-441.807	800.000	-0.069	-0.311
-440.792	50.197	0.227	-0.281
-439.778	127.885	0.192	0.320
-438.763	-108.800	-0.302	-0.084
-437.749	-67.927	-0.563	0.287
-436.734	-200.000	-0.063	-0.643
-435.719	-200.000	0.019	-0.436
-434.705	107.922	-0.416	-0.651
-433.690	17.463	-0.282	0.293
-432.676	-104.729	0.215	-0.064
-431.661	193.848	-0.135	-0.268
-430.646	-137.599	-0.234	0.034
-429.632	275.893	-0.206	-0.481
-428.617	-141.057	0.027	-0.004
-427.603	-103.649	0.432	-0.132
-426.588	-73.661	0.370	0.176
-425.573	-133.288	0.272	-0.045
-424.559	-200.000	0.005	-0.313
-423.544	-91.635	-0.136	-0.050
-422.530	-200.000	0.046	-0.545
-421.515	159.639	0.230	-0.420
-420.500	492.425	0.100	-0.302
-419.486	-151.693	-0.088	0.008
-418.471	-200.000	-0.061	0.418
-417.457	-15.929	-0.465	-0.387
-416.442	469.919	-0.066	-0.196
-415.428	-200.000	0.046	-0.278
-414.413	500.099	-0.162	0.491
-413.398	-58.889	-0.274	0.155
-412.384	-200.000	-0.048	-0.425
-411.369	63.973	-0.126	0.166
-410.355	-101.277	-0.372	-0.118
-409.340	-151.324	-0.620	0.060
-408.325	-2.545	-0.104	0.095
-407.311	-71.611	0.412	0.200
-406.296	413.872	-0.023	-0.065
-405.282	-134.147	0.576	-0.092
-404.267	-154.902	0.210	0.018
-403.252	-113.350	0.516	-0.132
-402.238	-151.372	-0.458	-0.044
-401.223	-200.000	0.059	0.435
-400.209	-156.799	0.066	-0.005
-399.194	-194.426	0.349	0.004
-398.179	-200.000	-0.026	-0.234
-397.165	-200.000	-0.019	0.122
-396.150	-4.249	-0.413	0.373
-395.136	-4.002	-0.057	0.052
-394.121	-200.000	-0.039	-0.352
-393.106	6.526	-0.171	0.166
-392.092	-200.000	0.044	0.367
-391.077	-12.061	-0.409	-0.350
-390.063	419.356	-0.141	-0.396
-389.048	-200.000	0.023	-0.238
-388.033	81.372	-0.193	0.273
-387.019	-102.559	-0.040	-0.012
-386.004	761.745	-0.103	0.368
-384.990	-34.553	0.269	-0.192
-383.975	445.083	0.116	0.333
-382.960	471.165	0.243	0.718
-381.946	-187.650	0.159	0.003
-380.931	-180.426	0.425	0.011
-379.917	-27.842	0.228	0.173
-378.902	800.000	-0.055	0.235
-377.888	800.000	0.136	0.560
-376.873	-65.696	0.200	0.105
-375.858	-1.439	0.441	-0.406
-374.844	473.125	0.076	-0.225
-373.829	94.264	0.283	0.421
-372.815	-8.163	-0.289	0.254
-371.800	-46.552	-0.172	0.110
-370.785	-64.060	-0.123	0.065
-369.771	118.395	0.041	0.067
-368.756	-136.683	-0.336	0.050
-367.742	-107.541	0.251	0.071
-366.727	99.427	-0.174	-0.263
-365.712	331.554	0.172	0.437
-364.698	-200.000	-0.010	-0.196
-363.683	-200.000	-0.037	-0.322
-362.669	-88.284	-0.186	-0.072
-361.654	-110.096	-0.735	-0.199
-360.639	-173.743	-0.305	0.012
-359.625	448.620	-0.094	0.273
-358.610	-70.103	0.352	-0.174
-357.596	-113.010	0.333	-0.085
-356.581	158.065	-0.133	-0.242
-355.566	67.371	0.160	0.213
-354.552	-194.866	0.279	0.003
-353.537	-200.000	-0.063	0.594
-352.523	-22.136	0.066	-0.052
-351.508	435.003	-0.089	-0.254
-350.493	-36.283	-0.151	-0.106
-349.479	-128.387	-0.157	-0.029
-348.464	365.963	0.063	-0.167
-347.450	800.000	-0.069	-0.392
-346.435	148.068	0.049	0.086
-345.420	-69.739	-0.334	0.166
-344.406	-85.450	-0.162	0.066
-343.391	-12.595	0.197	-0.167
-342.377	-129.755	0.322	0.057
-341.362	-94.052	-0.283	0.101
-340.348	194.588	0.066	-0.131
-339.333	47.149	-0.170	-0.206
-338.318	-150.537	0.401	-0.040
-337.304	9.024	0.147	-0.144
-336.289	121.436	-0.012	0.020
-335.275	-200.000	-0.004	-0.285
-334.260	3.573	-0.251	0.238
-333.245	-200.000	-0.059	0.813
-332.231	157.121	0.080	0.146
-331.216	87.999	0.393	0.569
-330.202	-8.338	0.284	0.249
-329.187	-57.545	-0.604	-0.344
-328.172	-53.390	-0.197	-0.117
-327.158	714.144	-0.017	-0.061
-326.143	-11.261	0.262	-0.225
-325.129	-34.084	-0.330	-0.236
-324.114	-162.624	0.171	0.011
-323.099	-102.457	0.172	-0.053
-322.085	-41.908	0.121	0.081
-321.070	-200.000	-0.049	0.343
-320.056	11.673	0.106	0.106
-319.041	-200.000	0.086	-0.649
-318.026	800.000	-0.143	-0.681
-317.012	54.420	0.171	-0.215
-315.997	74.706	-0.271	0.373
-314.983	-200.000	0.078	0.565
-313.968	-38.128	-0.183	-0.126
-312.953	-58.544	-0.197	0.111
-311.939	-117.598	-0.451	0.105
-310.924	340.772	-0.099	0.253
-309.910	300.403	0.121	0.293
-308.895	-148.873	0.254	-0.026
-307.880	-116.651	0.311	0.074
-306.866	-200.000	0.046	0.271
-305.851	162.182	0.210	-0.385
-304.837	-192.057	0.112	0.001
-303.822	3.605	0.045	0.043
-302.807	-55.167	-0.328	0.192
-301.793	-125.781	0.021	-0.004
-300.778	-78.874	-0.202	-0.089
-299.764	-35.551	-0.210	0.148
-298.749	66.041	-0.136	0.180
-297.735	-155.924	-0.440	-0.036
-296.720	112.356	0.229	-0.361
-295.705	-97.091	-0.014	-0.005
-294.691	-2.766	-0.409	0.372
-293.676	-66.076	-0.269	-0.139
-292.662	45.433	0.269	-0.323
-291.647	-120.367	0.224	0.049
-290.632	-200.000	-0.004	-0.568
-289.618	317.706	-0.075	-0.185
-288.603	-80.330	-0.143	0.062
-287.589	-23.302	-0.077	0.060
-286.574	-48.468	0.153	0.096
-285.559	340.735	0.242	0.619
-284.545	800.000	0.132	0.615
-283.530	74.707	-0.218	0.299
-282.516	-200.000	0.026	0.318
-281.501	-59.263	0.311	0.174
-280.486	-122.541	-0.365	0.076
-279.472	-158.702	-0.334	-0.025
-278.457	60.404	-0.291	-0.376
-277.443	-200.000	-0.015	0.137
-276.428	-154.119	-0.339	0.030
-275.413	13.127	-0.237	-0.239
-274.399	-88.339	0.558	0.216
-273.384	-200.000	-0.004	-0.032
-272.370	14.174	0.434	-0.440
-271.355	431.956	-0.039	0.110
-270.340	800.000	0.114	0.455
-269.326	56.491	-0.156	0.198
-268.311	800.000	0.043	-0.235
-267.297	51.962	0.137	0.170
-266.282	-85.827	-0.161	-0.065
-265.267	-200.000	-0.005	0.061
-264.253	-156.512	0.593	-0.047
-263.238	2.929	0.391	-0.369
-262.224	-200.000	-0.028	-0.418
-261.209	42.496	0.299	-0.354
-260.195	-37.135	-0.161	-0.112
-259.180	-49.775	-0.166	-0.102
-258.165	49.526	-0.159	-0.195
-257.151	-200.000	-0.017	0.121
-256.136	-32.992	0.321	-0.231
-255.122	84.924	0.154	0.220
-254.107	93.112	0.236	0.348
-253.092	723.768	0.057	-0.197
-252.078	335.261	0.192	-0.486
-251.063	-200.000	0.024	-0.468
-250.049	-200.000	-0.045	-0.406
-249.034	800.000	0.063	0.316
-248.019	-200.000	-0.023	-0.193
-247.005	-132.628	-0.276	0.046
-245.990	768.635	0.121	0.431
-244.976	56.931	0.418	0.530
-243.961	-43.999	0.374	0.243
-242.946	-159.559	0.359	-0.026
-241.932	75.167	0.313	-0.429
-240.917	2.960	-0.245	0.231
-239.903	88.599	0.082	-0.119
-238.888	4.099	0.273	0.259
-237.873	-32.775	0.538	-0.388
-236.859	41.635	0.225	-0.265
-235.844	-53.550	0.133	-0.079
-234.830	-35.066	0.274	0.194
-233.815	-62.471	0.114	-0.061
-232.800	768.056	0.140	0.498
-231.786	-144.997	-0.046	-0.005
-230.771	-18.843	0.148	0.120
-229.757	-10.849	-0.204	0.175
-228.742	6.913	-0.100	0.097
-227.727	-113.856	-0.107	-0.027
-226.713	-148.974	-0.088	-0.009
-225.698	-200.000	-0.002	0.011
-224.684	318.322	-0.045	-0.110
-223.669	-22.416	0.371	0.292
-222.655	-134.646	-0.137	-0.021
-221.640	-93.711	0.217	0.077
-220.625	20.391	-0.165	-0.173
-219.611	-63.076	0.106	0.057
-218.596	534.376	0.090	0.279
-217.582	-81.847	0.028	-0.012
-216.567	-40.667	0.089	0.060
-215.552	-175.472	-0.126	-0.004
-214.538	235.542	-0.125	0.268
-213.523	26.583	0.243	-0.265
-212.509	-64.794	0.498	-0.261
-211.494	-3.584	-0.167	0.151
-210.479	-161.608	-0.538	-0.035
-209.465	478.195	0.107	0.316
-208.450	800.000	-0.070	0.266
-207.436	-200.000	-0.005	0.155
-206.421	800.000	0.023	0.127
-205.406	32.363	0.279	0.312
-204.392	501.110	-0.043	0.129
-203.377	-67.790	-0.247	0.125
-202.363	-51.326	-0.309	-0.187
-201.348	379.152	0.201	0.536
-200.333	-3.489	-0.206	-0.186
-199.319	61.434	0.142	0.183
-198.304	172.134	0.146	-0.272
-197.290	183.105	-0.184	-0.353
-196.275	12.116	-0.070	0.069
-195.260	149.506	-0.149	-0.262
-194.246	-200.000	-0.008	-0.047
-193.231	-200.000	-0.027	0.320
-192.217	373.322	0.046	0.121
-191.202	284.403	0.071	-0.166
-190.187	-200.000	0.035	0.291
-189.173	-4.630	0.135	0.120
-188.158	-95.692	-0.188	0.065
-187.144	147.826	0.131	-0.231
-186.129	-172.244	0.291	-0.012
-185.114	800.000	0.109	0.502
-184.100	-163.622	0.100	0.006
-183.085	425.623	0.086	-0.241
-182.071	-126.728	-0.112	0.021
-181.056	112.728	-0.199	-0.313
-180.042	74.893	-0.157	0.214
-179.027	96.664	0.102	0.152
-178.012	85.735	-0.274	0.391
-176.998	-200.000	-0.034	-0.293
-175.983	-200.000	-0.001	-0.157
-174.969	-94.076	0.197	0.070
-173.954	130.453	0.133	0.221
-172.939	-117.417	-0.196	0.046
-171.925	-101.099	-0.321	-0.101
-170.910	-57.558	-0.443	0.251
-169.896	-200.000	0.035	-0.381
-168.881	1.778	-0.358	-0.334
-167.866	9.317	-0.125	-0.122
-166.852	122.588	0.092	-0.149
-165.837	-200.000	0.072	0.428
-164.823	-62.175	-0.045	0.024
-163.808	-154.718	-0.506	0.043
-162.793	-87.344	-0.465	-0.182
-161.779	-57.472	0.484	0.274
-160.764	800.000	0.069	-0.368
-159.750	-18.552	-0.245	-0.198
-158.735	-65.725	0.204	0.105
-157.720	-49.041	-0.190	-0.118
-156.706	-186.045	-0.288	-0.005
-155.691	82.840	0.249	-0.352
-154.677	-70.955	-0.408	0.198
-153.662	-200.000	-0.008	-0.097
-152.647	12.619	-0.014	-0.014
-151.633	-152.030	0.114	0.011
-150.618	99.984	-0.127	-0.192
-149.604	-62.334	0.739	0.397
-148.589	34.135	0.276	0.312
-147.574	58.545	-0.076	0.096
-146.560	-123.456	0.327	0.067
-145.545	-86.870	0.238	-0.094
-144.531	-24.760	0.104	0.080
-143.516	-74.046	-0.167	0.078
-142.502	-175.854	0.468	-0.016
-141.487	21.664	0.298	-0.314
-140.472	-19.874	0.023	-0.018
-139.458	-11.201	-0.623	-0.531
-138.443	800.000	0.105	-0.461
-137.429	-200.000	-0.050	-0.637
-136.414	-200.000	-0.040	-0.234
-135.399	-31.532	-0.331	-0.241
-134.385	277.798	-0.271	-0.627
-133.370	4.422	-0.371	0.352
-132.356	-200.000	0.020	-0.423
-131.341	-14.553	0.335	-0.279
-130.326	39.826	0.184	-0.214
-129.312	800.000	0.052	0.200
-128.297	-56.101	0.259	-0.149
-127.283	4.859	-0.071	-0.068
-126.268	181.540	-0.215	0.411
-125.253	-18.363	0.159	-0.128
-124.239	-200.000	-0.083	0.698
-123.224	99.014	-0.205	0.308
-122.210	-200.000	0.030	0.559
-121.195	-151.971	-0.131	-0.012
