DTS Sentinel unit serial number:	SN409020Multiplexer serial number:	ORYXHardware model number:	OX4-SRSoftware version number:	ORYX F/W v3.00 Oryx Data Collector v3.7.2.0data status	okinstallation	HaddamTimeLapsedifferential loss correction	single-endedforward channel	channel 3reverse channel	N/Adate	2011/06/22time	10:51:02forward acquisition time	30.00reverse acquisition time	0.00gamma	498.7831k internal	0.1778k external	0.1778temperature offset calibration	1.0074default loss term (dB/km)	0.3790temperature slope calibration	1.3530multiplexer offset coefficient	1.0000multiplexer slope coefficient	1.0000fibre end	0.00T internal ref (°C)	30.06T ext. ref 1 (°C)	24.70T ext. ref 2 (°C)	-0.09length (m)	temperature (°C)	Stokes	anti-Stokes-747.200	-52.657	-0.129	0.078
-746.185	-92.134	-0.289	0.106
-745.171	-172.106	-0.332	0.014
-744.156	108.768	0.147	-0.230
-743.142	-38.193	-0.437	0.303
-742.127	-61.507	-0.166	0.091
-741.112	-34.102	0.330	-0.237
-740.098	-122.243	0.382	-0.081
-739.083	179.793	-0.131	-0.252
-738.069	89.270	-0.388	0.566
-737.054	0.006	-0.284	0.264
-736.039	-61.299	-0.191	0.105
-735.025	-200.000	-0.034	0.524
-734.010	-148.258	0.687	-0.073
-732.996	445.279	0.160	-0.461
-731.981	183.730	-0.192	0.373
-730.966	25.903	-0.175	-0.190
-729.952	10.373	0.110	0.109
-728.937	57.548	-0.269	0.344
-727.923	-54.051	0.234	0.139
-726.908	-116.316	0.190	-0.046
-725.894	-110.157	-0.080	0.022
-724.879	-38.069	-0.406	-0.281
-723.864	701.062	-0.082	-0.283
-722.850	145.579	0.197	-0.347
-721.835	-118.608	0.397	0.091
-720.821	114.746	0.241	-0.384
-719.806	-14.347	-0.116	-0.098
-718.791	709.423	0.083	0.289
-717.777	149.196	0.254	0.451
-716.762	-116.680	-0.238	0.057
-715.748	800.000	0.104	-0.400
-714.733	-100.590	0.289	0.093
-713.718	-109.486	-0.070	-0.019
-712.704	-200.000	-0.010	-0.200
-711.689	-76.714	0.368	-0.168
-710.675	-200.000	0.001	0.350
-709.660	-18.959	0.289	0.235
-708.645	243.276	0.046	0.102
-707.631	-13.614	0.073	-0.062
-706.616	-45.769	-0.213	0.137
-705.602	-34.724	-0.209	0.149
-704.587	-200.000	-0.042	0.280
-703.572	800.000	-0.052	-0.279
-702.558	-200.000	-0.010	-0.504
-701.543	-11.108	0.302	-0.259
-700.529	-130.479	0.259	0.045
-699.514	4.196	0.223	0.213
-698.499	386.660	-0.169	0.457
-697.485	-200.000	0.020	-0.235
-696.470	385.911	0.074	0.200
-695.456	-28.291	-0.260	0.195
-694.441	-49.079	-0.148	0.092
-693.426	-168.523	-0.243	-0.012
-692.412	-100.869	-0.243	-0.078
-691.397	-141.773	-0.615	-0.080
-690.383	-54.690	0.405	0.238
-689.368	-200.000	0.040	-0.301
-688.354	142.206	-0.197	0.341
-687.339	-83.428	0.353	0.147
-686.324	-42.602	-0.269	-0.179
-685.310	-58.485	-0.462	-0.261
-684.295	-200.000	0.021	-0.338
-683.281	154.794	0.281	-0.504
-682.266	-117.168	0.158	-0.037
-681.251	-97.565	-0.508	-0.171
-680.237	132.477	-0.269	0.453
-679.222	-31.277	0.377	0.276
-678.208	-48.029	-0.263	0.165
-677.193	-1.785	-0.177	-0.162
-676.178	-136.466	-0.423	-0.063
-675.164	316.602	-0.047	-0.116
-674.149	-200.000	0.006	0.294
-673.135	505.296	-0.013	-0.039
-672.120	658.464	0.031	0.105
-671.105	-200.000	-0.042	-0.491
-670.091	-7.094	-0.268	-0.237
-669.076	408.886	-0.152	-0.421
-668.062	-130.657	-0.464	-0.081
-667.047	158.326	-0.229	-0.415
-666.032	800.000	-0.165	-0.623
-665.018	-56.085	0.046	-0.027
-664.003	-64.021	-0.317	-0.168
-662.989	-28.301	-0.160	-0.120
-661.974	52.309	0.196	0.244
-660.959	216.533	-0.149	0.311
-659.945	173.772	-0.116	0.219
-658.930	-123.394	-0.257	-0.053
-657.916	-40.142	-0.331	0.224
-656.901	-108.635	-0.409	-0.114
-655.886	-34.351	-0.369	-0.263
-654.872	179.535	-0.282	-0.540
-653.857	-120.204	0.546	-0.121
-652.843	-4.714	-0.294	-0.264
-651.828	-128.011	-0.653	-0.121
-650.814	-48.563	-0.157	0.098
-649.799	-105.943	-0.404	-0.118
-648.784	-200.000	0.029	0.287
-647.770	-200.000	0.022	0.139
-646.755	186.497	0.237	-0.461
-645.741	10.518	-0.033	-0.033
-644.726	490.170	-0.181	0.542
-643.711	-60.387	-0.194	0.107
-642.697	-177.059	0.405	0.013
-641.682	-200.000	-0.052	-0.400
-640.668	800.000	-0.187	0.690
-639.653	-74.901	0.104	0.048
-638.638	-200.000	-0.010	-0.199
-637.624	478.691	0.093	0.274
-636.609	72.082	0.060	0.082
-635.595	31.162	-0.110	0.123
-634.580	-75.542	0.167	-0.077
-633.565	54.157	0.136	0.170
-632.551	-0.831	-0.149	-0.137
-631.536	187.346	0.065	0.127
-630.522	-157.518	0.267	0.021
-629.507	-101.673	0.470	0.148
-628.492	50.072	-0.196	0.241
-627.478	-38.520	0.097	-0.066
-626.463	-146.525	-0.545	0.061
-625.449	149.481	0.107	0.189
-624.434	800.000	-0.038	-0.161
-623.419	365.189	0.079	-0.207
-622.405	-135.499	-0.333	0.051
-621.390	-177.787	-0.270	-0.008
-620.376	-47.119	0.267	-0.169
-619.361	-85.467	0.145	0.058
-618.346	800.000	0.080	-0.361
-617.332	623.553	0.101	-0.334
-616.317	-158.281	-0.176	0.013
-615.303	-200.000	0.000	-0.207
-614.288	21.297	0.189	0.200
-613.273	-200.000	0.015	-0.223
-612.259	720.447	-0.136	-0.473
-611.244	-83.200	0.219	-0.091
-610.230	211.707	-0.206	-0.424
-609.215	-108.532	0.661	0.184
-608.201	14.689	-0.189	0.192
-607.186	-168.401	-0.618	-0.030
-606.171	75.056	-0.194	0.267
-605.157	46.565	0.118	-0.143
-604.142	346.585	-0.212	-0.546
-603.128	2.143	0.305	-0.286
-602.113	-62.592	0.278	0.150
-601.098	-130.522	-0.276	-0.048
-600.084	800.000	0.094	-0.352
-599.069	62.114	0.287	0.372
-598.055	-90.079	0.238	0.090
-597.040	-200.000	-0.008	-0.089
-596.025	34.545	0.501	-0.569
-595.011	-79.976	0.093	-0.041
-593.996	27.012	0.112	0.122
-592.982	-129.370	0.509	-0.091
-591.967	-173.735	0.135	-0.005
-590.952	-46.090	0.132	-0.084
-589.938	-150.648	-0.221	0.022
-588.923	737.667	0.134	0.470
-587.909	24.400	-0.097	0.104
-586.894	58.972	-0.127	0.162
-585.879	-99.252	0.152	-0.050
-584.865	-55.046	0.329	0.192
-583.850	-96.163	0.275	-0.094
-582.836	-67.884	-0.170	-0.086
-581.821	-96.225	-0.388	-0.133
-580.806	11.789	0.254	-0.253
-579.792	-146.332	0.407	0.046
-578.777	-122.962	0.647	0.134
-577.763	44.478	0.087	0.104
-576.748	-19.050	0.375	-0.303
-575.733	-66.294	0.154	0.079
-574.719	-159.716	0.637	0.045
-573.704	-200.000	0.038	-0.243
-572.690	800.000	-0.100	-0.382
-571.675	-39.016	0.275	-0.187
-570.661	-199.057	-0.371	-0.003
-569.646	-97.422	-0.113	0.038
-568.631	155.230	0.068	0.121
-567.617	29.775	-0.106	-0.117
-566.602	-200.000	-0.085	-0.570
-565.588	19.854	-0.158	-0.166
-564.573	-89.789	-0.064	-0.024
-563.558	-138.547	0.142	-0.020
-562.544	7.630	-0.020	0.019
-561.529	-200.000	0.004	-0.309
-560.515	-94.295	-0.227	-0.080
-559.500	171.246	-0.113	-0.211
-558.485	84.772	-0.093	0.133
-557.471	20.455	0.199	-0.209
-556.456	-200.000	-0.005	0.207
-555.442	-200.000	0.039	0.364
-554.427	261.420	-0.210	-0.474
-553.412	-200.000	0.021	-0.529
-552.398	207.410	-0.126	0.256
-551.383	-200.000	-0.057	0.460
-550.369	-128.985	-0.242	0.044
-549.354	-14.191	0.109	-0.091
-548.339	-127.416	-0.323	-0.061
-547.325	476.879	-0.117	0.346
-546.310	-129.979	0.540	-0.095
-545.296	-197.938	0.234	0.002
-544.281	-85.266	0.378	-0.152
-543.266	800.000	-0.094	-0.342
-542.252	9.368	0.288	-0.282
-541.237	-200.000	-0.048	0.406
-540.223	-7.502	-0.148	-0.130
-539.208	54.410	-0.154	0.192
-538.193	-157.403	-0.407	0.031
-537.179	-142.199	-0.407	-0.052
-536.164	149.413	-0.181	0.319
-535.150	-34.335	0.267	-0.189
-534.135	-200.000	-0.012	-0.401
-533.121	-89.842	-0.302	-0.114
-532.106	187.104	0.051	-0.099
-531.091	133.701	0.039	0.065
-530.077	-23.658	-0.356	-0.277
-529.062	-51.095	-0.356	-0.216
-528.048	-113.133	-0.185	0.047
-527.033	-200.000	-0.006	-0.297
-526.018	-47.313	-0.060	-0.038
-525.004	-92.460	0.197	0.071
-523.989	-162.721	0.559	-0.035
-522.975	800.000	-0.036	-0.178
-521.960	-83.558	-0.096	-0.040
-520.945	553.787	-0.183	0.575
-519.931	-41.371	0.595	0.396
-518.916	173.881	0.248	0.466
-517.902	-200.000	-0.035	0.446
-516.887	0.970	-0.447	-0.415
-515.872	-200.000	0.015	-0.215
-514.858	-200.000	0.054	-0.461
-513.843	-77.506	0.356	0.160
-512.829	-168.282	0.596	-0.029
-511.814	-186.109	0.500	-0.009
-510.799	151.638	-0.082	0.145
-509.785	572.578	0.027	-0.084
-508.770	-195.699	-0.284	0.003
-507.756	-59.722	0.196	-0.108
-506.741	-68.518	0.223	0.111
-505.726	-168.832	-0.296	-0.014
-504.712	80.832	-0.273	-0.382
-503.697	-187.677	0.201	-0.003
-502.683	-200.000	0.047	0.277
-501.668	112.032	0.156	0.245
-500.653	630.437	-0.056	-0.185
-499.639	-105.244	0.371	-0.109
-498.624	-87.388	-0.288	-0.112
-497.610	341.989	-0.167	-0.426
-496.595	186.360	-0.138	0.268
-495.581	38.918	-0.306	-0.355
-494.566	193.784	-0.057	-0.111
-493.551	-200.000	-0.004	-0.095
-492.537	-20.683	0.443	-0.352
-491.522	127.404	-0.220	-0.362
-490.508	19.529	0.158	0.164
-489.493	-133.468	-0.386	0.062
-488.478	-142.491	0.423	-0.053
-487.464	-81.723	-0.256	-0.108
-486.449	-200.000	0.034	0.280
-485.435	56.245	-0.172	-0.217
-484.420	-190.849	-0.244	0.003
-483.405	220.359	0.076	-0.159
-482.391	800.000	-0.010	0.051
-481.376	-103.091	-0.425	0.129
-480.362	-200.000	-0.006	0.237
-479.347	-200.000	-0.043	0.290
-478.332	-93.039	0.144	-0.052
-477.318	-169.547	-0.537	-0.025
-476.303	-103.594	0.362	-0.109
-475.289	9.031	0.478	-0.467
-474.274	-200.000	0.089	0.525
-473.259	-200.000	-0.021	0.543
-472.245	-135.346	-0.171	0.026
-471.230	-116.478	0.150	-0.035
-470.216	54.338	0.112	-0.140
-469.201	13.590	0.245	-0.246
-468.186	-87.344	0.173	0.068
-467.172	-80.501	0.452	0.194
-466.157	-149.037	-0.016	-0.002
-465.143	-89.312	-0.240	0.091
-464.128	-35.884	0.436	0.304
-463.113	-40.339	-0.217	-0.145
-462.099	45.492	-0.152	0.182
-461.084	648.214	0.085	0.284
-460.070	162.331	0.158	-0.288
-459.055	-146.360	-0.151	0.017
-458.040	-200.000	0.036	0.447
-457.026	-143.617	0.279	0.034
-456.011	-91.474	-0.661	-0.242
-454.997	-22.682	-0.145	0.113
-453.982	-30.747	0.446	0.326
-452.968	-2.428	-0.273	0.247
-451.953	-200.000	-0.018	0.287
-450.938	41.544	-0.147	0.172
-449.924	744.183	0.065	0.228
-448.909	-42.870	-0.117	-0.076
-447.895	-162.686	-0.293	-0.018
-446.880	768.314	-0.072	0.254
-445.865	611.436	0.075	0.245
-444.851	-66.837	-0.472	0.241
-443.836	541.972	0.116	0.358
-442.822	238.299	-0.052	0.112
-441.807	-200.000	-0.056	0.381
-440.792	307.497	0.209	0.507
-439.778	-161.274	-0.316	0.021
-438.763	-69.215	-0.244	0.121
-437.749	-200.000	-0.021	0.206
-436.734	-13.277	-0.147	0.123
-435.719	45.629	0.071	0.084
-434.705	-200.000	0.003	0.197
-433.690	-114.683	-0.289	0.071
-432.676	65.132	-0.287	-0.375
-431.661	-27.716	-0.057	-0.042
-430.646	-75.837	-0.045	-0.020
-429.632	145.847	-0.174	-0.302
-428.617	33.800	0.194	-0.218
-427.603	335.810	-0.129	-0.324
-426.588	83.374	-0.051	-0.072
-425.573	-200.000	0.030	-0.477
-424.559	-96.726	-0.507	0.171
-423.544	-50.393	0.070	-0.043
-422.530	-5.484	-0.238	-0.211
-421.515	193.975	0.058	-0.113
-420.500	-130.975	-0.297	0.051
-419.486	-14.504	0.151	0.126
-418.471	152.497	-0.235	-0.415
-417.457	-103.206	-0.159	-0.048
-416.442	800.000	0.078	0.366
-415.428	44.975	-0.108	-0.129
-414.413	-157.620	0.441	0.034
-413.398	800.000	0.064	0.234
-412.384	-148.753	0.477	0.049
-411.369	-200.000	0.083	-0.543
-410.355	-200.000	-0.044	0.295
-409.340	-96.816	0.438	-0.148
-408.325	-96.232	-0.391	0.133
-407.311	46.470	0.110	-0.131
-406.296	-99.657	0.131	0.042
-405.282	-22.625	0.316	0.247
-404.267	-107.522	-0.376	-0.105
-403.252	-15.590	-0.288	-0.237
-402.238	27.916	-0.197	-0.215
-401.223	-65.266	0.247	0.128
-400.209	-32.700	0.401	0.288
-399.194	-33.093	0.249	0.178
-398.179	-2.975	0.171	-0.154
-397.165	-31.330	0.083	-0.060
-396.150	-50.598	0.216	0.131
-395.136	800.000	0.015	0.069
-394.121	13.416	0.225	-0.225
-393.106	380.755	0.265	-0.705
-392.092	-177.143	0.352	0.011
-391.077	-115.296	-0.142	0.034
-390.063	-56.821	-0.076	-0.043
-389.048	-11.610	-0.193	-0.163
-388.033	-81.507	0.195	-0.082
-387.019	-200.000	-0.071	0.553
-386.004	0.182	0.015	-0.014
-384.990	219.815	-0.088	-0.183
-383.975	-200.000	0.014	-0.174
-382.960	22.341	0.433	0.456
-381.946	140.983	0.120	0.205
-380.931	-152.632	-0.219	0.020
-379.917	-38.370	-0.323	-0.220
-378.902	39.722	0.213	-0.246
-377.888	183.595	0.097	-0.185
-376.873	800.000	0.045	-0.246
-375.858	183.499	0.178	-0.340
-374.844	117.212	0.277	-0.439
-373.829	-124.806	-0.272	0.054
-372.815	800.000	-0.094	-0.376
-371.800	311.934	0.081	0.197
-370.785	41.384	-0.083	0.097
-369.771	550.964	-0.182	0.566
-368.756	-200.000	0.042	0.605
-367.742	-200.000	0.033	-0.278
-366.727	-200.000	-0.085	0.557
-365.712	219.026	-0.136	0.281
-364.698	-50.200	-0.308	0.188
-363.683	-72.694	-0.412	0.195
-362.669	63.880	0.493	0.639
-361.654	364.196	-0.324	-0.843
-360.639	-98.757	0.360	-0.117
-359.625	-200.000	-0.089	0.000
-358.610	-76.524	-0.349	0.157
-357.596	294.502	0.076	0.179
-356.581	-200.000	-0.029	0.183
-355.566	-107.674	-0.568	0.159
-354.552	24.209	-0.281	0.299
-353.537	-29.551	0.235	-0.173
-352.523	-191.414	0.643	0.008
-351.508	-200.000	0.011	0.161
-350.493	-84.832	0.371	-0.150
-349.479	-87.890	-0.413	0.159
-348.464	-155.111	0.117	-0.010
-347.450	54.298	-0.198	-0.246
-346.435	86.313	-0.074	0.105
-345.420	800.000	-0.044	-0.194
-344.406	-39.954	-0.469	-0.314
-343.391	-200.000	0.014	-0.128
-342.377	-167.894	0.366	0.018
-341.362	286.186	-0.044	-0.102
-340.348	-38.392	0.446	0.303
-339.333	-126.516	0.367	-0.070
-338.318	181.708	-0.349	0.663
-337.304	95.083	0.128	-0.188
-336.289	-200.000	0.030	-0.209
-335.275	-109.863	-0.636	-0.171
-334.260	800.000	-0.069	0.359
-333.245	-81.234	-0.092	0.039
-332.231	138.474	0.172	-0.292
-331.216	465.973	0.047	-0.137
-330.202	35.656	-0.173	0.196
-329.187	-200.000	-0.010	0.112
-328.172	-130.104	0.016	0.003
-327.158	5.058	0.123	-0.116
-326.143	-186.574	-0.412	0.007
-325.129	99.326	-0.181	-0.269
-324.114	-93.948	0.280	0.098
-323.099	599.359	0.014	0.044
-322.085	125.959	-0.127	0.206
-321.070	-13.213	-0.377	0.314
-320.056	239.611	0.096	0.207
-319.041	182.875	0.218	-0.415
-318.026	498.657	0.043	-0.127
-317.012	74.283	-0.088	-0.120
-315.997	800.000	0.029	0.112
-314.983	-5.405	0.303	0.267
-313.968	293.045	-0.053	-0.124
-312.953	-90.561	-0.189	0.070
-311.939	-77.934	-0.079	0.035
-310.924	85.682	0.128	0.181
-309.910	-74.665	-0.261	0.120
-308.895	800.000	-0.077	0.416
-307.880	-119.815	0.351	-0.077
-306.866	800.000	0.073	0.262
-305.851	-131.954	-0.253	-0.042
-304.837	-200.000	0.013	0.164
-303.822	8.361	0.221	0.213
-302.807	-71.079	0.318	0.153
-301.793	-56.242	-0.345	-0.197
-300.778	-75.532	-0.234	-0.107
-299.764	-2.193	0.437	0.394
-298.749	-2.738	0.329	-0.296
-297.735	653.406	-0.076	-0.252
-296.720	-200.000	0.011	0.600
-295.705	38.778	0.334	-0.383
-294.691	42.876	0.246	0.288
-293.676	189.469	-0.144	-0.279
-292.662	-40.422	-0.118	0.078
-291.647	800.000	-0.110	-0.433
-290.632	-10.583	-0.152	0.129
-289.618	12.846	-0.308	-0.306
-288.603	-62.152	-0.099	0.053
-287.589	305.392	-0.090	-0.215
-286.574	-24.650	-0.269	-0.205
-285.559	-43.504	-0.346	-0.224
-284.545	-200.000	0.003	0.170
-283.530	-64.214	-0.204	0.107
-282.516	-22.485	-0.134	0.104
-281.501	-86.734	0.410	0.160
-280.486	-96.072	-0.164	-0.056
-279.472	-34.999	0.068	-0.048
-278.457	800.000	0.086	0.334
-277.443	-137.589	0.058	0.008
-276.428	-137.500	0.158	0.023
-275.413	245.077	-0.103	0.224
-274.399	-86.118	0.192	0.076
-273.384	-30.547	-0.268	0.194
-272.370	-95.295	-0.213	0.073
-271.355	16.825	0.472	-0.479
-270.340	-160.376	0.350	0.024
-269.326	-122.741	-0.083	0.017
-268.311	-78.965	0.760	-0.331
-267.297	-64.088	-0.435	0.227
-266.282	-200.000	-0.042	0.269
-265.267	-41.259	-0.474	0.313
-264.253	-96.845	0.195	-0.065
-263.238	146.139	0.126	0.217
-262.224	-43.383	0.405	-0.262
-261.209	-61.888	-0.173	-0.093
-260.195	-52.589	-0.140	0.083
-259.180	96.141	-0.245	0.360
-258.165	82.629	0.174	0.243
-257.151	-89.928	-0.253	0.094
-256.136	400.695	0.073	0.197
-255.122	-179.620	0.077	0.002
-254.107	0.314	-0.588	-0.538
-253.092	-11.206	0.110	-0.093
-252.078	-56.618	0.318	-0.180
-251.063	800.000	0.108	-0.481
-250.049	-121.155	-0.195	0.041
-249.034	-200.000	-0.004	-0.210
-248.019	800.000	-0.132	0.473
-247.005	250.503	0.120	-0.263
-245.990	-6.928	-0.262	0.228
-244.976	-80.102	-0.160	0.069
-243.961	-52.971	0.432	0.254
-242.946	-143.948	0.187	0.022
-241.932	-39.046	-0.121	-0.081
-240.917	8.387	0.155	-0.149
-239.903	414.764	-0.024	-0.065
-238.888	-115.124	-0.251	0.061
-237.873	-148.272	0.286	0.030
-236.859	97.254	0.195	0.288
-235.844	388.969	-0.201	0.537
-234.830	800.000	-0.121	-0.477
-233.815	-115.951	0.304	0.072
-232.800	303.783	0.105	0.251
-231.786	143.071	-0.142	-0.243
-230.771	-124.021	0.209	-0.042
-229.757	-63.772	-0.568	-0.297
-228.742	-65.777	0.346	-0.177
-227.727	595.086	-0.030	0.096
-226.713	800.000	-0.060	-0.296
-225.698	-105.761	-0.296	-0.085
-224.684	-200.000	0.042	-0.265
-223.669	-200.000	0.020	-0.376
-222.655	-94.426	-0.106	0.037
-221.640	115.254	0.075	-0.117
-220.625	-80.192	-0.208	-0.089
-219.611	325.395	0.087	0.215
-218.596	88.834	-0.162	-0.231
-217.582	-25.855	0.278	-0.209
-216.567	27.089	-0.136	0.146
-215.552	67.762	-0.177	0.232
-214.538	-4.119	0.073	-0.064
-213.523	765.635	0.017	-0.061
-212.509	800.000	0.049	-0.177
-211.494	271.544	-0.096	-0.217
-210.479	-105.857	-0.178	0.051
-209.465	-53.501	0.430	-0.251
-208.450	-30.501	-0.578	-0.419
-207.436	-200.000	0.023	-0.220
-206.421	-139.521	-0.270	-0.037
-205.406	16.500	-0.293	-0.296
-204.392	-100.831	0.322	-0.101
-203.377	-200.000	0.040	-0.535
-202.363	-154.835	-0.400	0.033
-201.348	161.620	0.076	-0.136
-200.333	4.825	0.421	0.396
-199.319	-71.963	-0.052	-0.024
-198.304	64.615	-0.219	-0.283
-197.290	71.305	0.247	0.328
-196.275	-200.000	0.048	0.320
-195.260	6.422	0.260	0.247
-194.246	-200.000	-0.023	-0.382
-193.231	-74.969	0.256	0.117
-192.217	-200.000	-0.031	-0.289
-191.202	-59.397	0.133	0.073
-190.187	417.762	-0.105	0.289
-189.173	64.491	-0.323	0.417
-188.158	-200.000	-0.009	0.070
-187.144	18.708	-0.230	0.236
-186.129	-96.313	-0.046	-0.015
-185.114	77.568	-0.025	0.034
-184.100	64.262	0.382	-0.493
-183.085	800.000	-0.026	-0.142
-182.071	-63.161	-0.515	0.271
-181.056	38.645	-0.244	0.279
-180.042	800.000	-0.089	-0.443
-179.027	-74.671	0.092	0.042
-178.012	791.196	0.085	0.301
-176.998	-200.000	-0.007	-0.122
-175.983	4.034	0.404	0.378
-174.969	-200.000	0.025	0.217
-173.954	-122.232	-0.167	0.035
-172.939	-28.117	0.322	-0.238
-171.925	28.532	0.369	0.399
-170.910	65.355	-0.230	0.298
-169.896	-169.969	-0.582	0.026
-168.881	-110.810	0.620	-0.162
-167.866	51.003	-0.181	-0.220
-166.852	-83.792	-0.244	-0.099
-165.837	-100.361	-0.457	0.144
-164.823	-93.807	-0.526	-0.184
-163.808	-200.000	0.004	0.276
-162.793	190.867	-0.059	0.113
-161.779	545.507	0.058	-0.179
-160.764	252.064	-0.161	0.352
-159.750	-45.454	0.097	0.061
-158.735	206.203	0.100	0.201
-157.720	-109.488	0.432	-0.116
-156.706	-99.745	-0.305	-0.097
-155.691	29.045	0.204	0.221
-154.677	-5.398	-0.140	0.122
-153.662	-200.000	-0.028	0.492
-152.647	-200.000	0.058	-0.485
-151.633	-123.824	-0.434	-0.087
-150.618	-113.019	-0.257	0.064
-149.604	800.000	0.073	-0.400
-148.589	742.145	0.071	-0.245
-147.574	79.018	0.069	-0.094
-146.560	800.000	0.007	-0.025
-145.545	99.077	0.201	-0.297
-144.531	-188.332	0.392	0.006
-143.516	374.221	0.166	-0.434
-142.502	-181.014	-0.462	0.012
-141.487	394.043	0.065	-0.173
-140.472	800.000	-0.084	-0.414
-139.458	800.000	-0.043	0.206
-138.443	249.609	-0.089	0.194
-137.429	63.499	-0.398	-0.511
-136.414	-169.593	-0.171	-0.008
-135.399	509.485	0.131	-0.391
-134.385	-131.639	-0.040	0.007
-133.370	30.275	-0.422	-0.461
-132.356	-200.000	0.048	-0.439
-131.341	114.152	0.136	-0.211
-130.326	11.592	-0.592	0.580
-129.312	12.234	0.375	-0.368
-128.297	74.568	0.543	-0.731
-127.283	60.670	-0.055	-0.070
-126.268	46.408	-0.272	0.322
-125.253	-25.667	-0.184	-0.139
-124.239	-98.455	-0.091	0.029
-123.224	206.731	-0.209	0.417
-122.210	-134.767	-0.089	0.014
