DTS Sentinel unit serial number:	SN409020Multiplexer serial number:	ORYXHardware model number:	OX4-SRSoftware version number:	ORYX F/W v3.00 Oryx Data Collector v3.7.2.0data status	okinstallation	HaddamTimeLapsedifferential loss correction	single-endedforward channel	channel 3reverse channel	N/Adate	2011/06/21time	16:16:18forward acquisition time	30.00reverse acquisition time	0.00gamma	498.7831k internal	0.1791k external	0.1791temperature offset calibration	1.0074default loss term (dB/km)	0.3790temperature slope calibration	1.3530multiplexer offset coefficient	1.0000multiplexer slope coefficient	1.0000fibre end	0.00T internal ref (°C)	34.06T ext. ref 1 (°C)	26.51T ext. ref 2 (°C)	0.23length (m)	temperature (°C)	Stokes	anti-Stokes-747.200	481.276	-0.090	0.267
-746.185	606.218	0.122	0.396
-745.171	228.382	0.150	0.318
-744.156	20.944	-0.125	0.132
-743.142	-116.493	-0.157	0.037
-742.127	248.714	-0.160	0.353
-741.112	800.000	-0.133	0.651
-740.098	-106.818	-0.094	-0.027
-739.083	-78.844	-0.041	-0.018
-738.069	100.276	-0.200	0.301
-737.054	-79.158	0.154	0.067
-736.039	-200.000	-0.083	0.527
-735.025	-23.901	-0.132	0.102
-734.010	3.608	-0.155	-0.147
-732.996	-200.000	-0.001	0.153
-731.981	-192.083	-0.144	-0.002
-730.966	-200.000	0.037	0.260
-729.952	-74.128	0.045	-0.021
-728.937	86.493	-0.367	0.525
-727.923	21.905	-0.489	0.517
-726.908	412.836	-0.057	-0.158
-725.894	-7.536	0.237	-0.208
-724.879	234.959	0.177	-0.380
-723.864	-11.332	0.189	-0.161
-722.850	-49.995	0.238	0.146
-721.835	76.444	-0.213	-0.294
-720.821	-102.898	-0.156	-0.048
-719.806	800.000	0.063	-0.257
-718.791	-130.082	-0.359	-0.063
-717.777	337.689	-0.021	0.054
-716.762	205.694	-0.005	-0.010
-715.748	297.008	-0.187	0.447
-714.733	163.694	-0.157	0.287
-713.718	-94.357	0.224	-0.079
-712.704	-96.432	-0.491	0.167
-711.689	-98.304	-0.424	0.140
-710.675	497.639	0.108	-0.324
-709.660	-200.000	-0.025	-0.261
-708.645	-37.073	-0.402	-0.278
-707.631	-69.651	0.171	0.085
-706.616	-71.626	0.114	-0.055
-705.602	-141.115	0.322	-0.042
-704.587	-200.000	-0.017	-0.130
-703.572	72.824	0.106	-0.143
-702.558	-75.429	0.280	0.129
-701.543	-156.304	-0.556	-0.045
-700.529	105.173	-0.509	0.780
-699.514	15.367	-0.372	-0.378
-698.499	-2.348	0.392	-0.356
-697.485	-42.417	-0.190	0.125
-696.470	-45.579	-0.217	0.139
-695.456	-98.445	-0.172	0.057
-694.441	-200.000	-0.031	0.508
-693.426	-148.381	-0.289	-0.030
-692.412	748.340	-0.014	0.050
-691.397	12.880	0.151	0.151
-690.383	-71.600	-0.461	-0.223
-689.368	800.000	0.026	0.142
-688.354	-95.726	-0.185	-0.064
-687.339	-200.000	-0.000	0.059
-686.324	46.991	-0.227	0.273
-685.310	245.667	-0.071	0.156
-684.295	-114.293	-0.424	0.105
-683.281	-76.679	0.151	-0.068
-682.266	-124.386	-0.425	-0.085
-681.251	-55.070	-0.522	-0.303
-680.237	30.657	0.171	0.189
-679.222	423.828	-0.060	-0.169
-678.208	311.028	0.131	0.319
-677.193	468.980	0.034	-0.100
-676.178	-32.687	-0.368	-0.265
-675.164	11.172	-0.060	-0.060
-674.149	113.528	0.154	0.243
-673.135	-79.094	0.417	0.183
-672.120	485.435	0.058	-0.173
-671.105	105.296	0.133	-0.204
-670.091	-99.696	-0.153	0.049
-669.076	-80.508	0.234	-0.100
-668.062	-87.432	-0.276	-0.108
-667.047	100.990	-0.020	0.030
-666.032	-85.260	0.395	-0.159
-665.018	405.811	-0.117	0.321
-664.003	-71.065	0.198	-0.096
-662.989	212.464	-0.123	-0.252
-661.974	-6.067	-0.088	-0.077
-660.959	-7.022	0.110	0.097
-659.945	-141.932	-0.439	0.056
-658.930	-200.000	0.002	0.064
-657.916	-59.228	-0.202	-0.112
-656.901	15.656	0.171	-0.174
-655.886	-108.697	-0.216	-0.060
-654.872	-126.944	-0.209	-0.039
-653.857	-76.045	0.069	-0.031
-652.843	431.535	-0.122	-0.344
-651.828	-147.792	-0.282	0.030
-650.814	-200.000	-0.031	-0.215
-649.799	-166.901	-0.504	-0.026
-648.784	80.182	0.067	-0.093
-647.770	-118.926	-0.417	-0.094
-646.755	-134.763	-0.268	0.042
-645.741	-200.000	0.040	0.297
-644.726	-103.279	-0.345	-0.105
-643.711	690.725	-0.158	0.540
-642.697	125.242	0.024	-0.040
-641.682	800.000	-0.040	0.188
-640.668	52.048	0.178	-0.219
-639.653	477.805	-0.054	-0.159
-638.638	122.649	-0.249	-0.404
-637.624	601.591	0.075	-0.243
-636.609	518.826	0.111	-0.337
-635.595	800.000	0.057	-0.262
-634.580	-200.000	-0.009	0.063
-633.565	-105.250	-0.483	-0.141
-632.551	23.952	-0.354	-0.377
-631.536	101.198	0.115	0.174
-630.522	112.957	-0.125	0.196
-629.507	-162.657	-0.205	0.013
-628.492	-119.333	-0.380	-0.085
-627.478	25.824	-0.120	-0.129
-626.463	290.908	0.309	0.729
-625.449	-100.545	0.120	0.038
-624.434	-113.797	-0.235	-0.059
-623.419	-131.921	0.147	-0.025
-622.405	-89.973	0.287	-0.108
-621.390	-153.465	0.385	0.034
-620.376	180.794	0.034	-0.065
-619.361	31.828	-0.051	-0.057
-618.346	-122.456	-0.500	-0.104
-617.332	800.000	-0.062	-0.317
-616.317	524.364	-0.184	-0.561
-615.303	-125.010	0.233	0.046
-614.288	-200.000	0.052	0.441
-613.273	-200.000	-0.010	0.142
-612.259	-140.340	0.038	-0.005
-611.244	-132.152	0.119	-0.020
-610.230	-200.000	0.004	-0.105
-609.215	-161.289	-0.384	0.025
-608.201	739.141	0.074	-0.259
-607.186	414.059	-0.067	0.186
-606.171	-177.954	-0.390	-0.012
-605.157	-107.124	0.113	-0.032
-604.142	-8.000	-0.280	-0.243
-603.128	127.474	0.017	-0.027
-602.113	-63.365	0.389	0.206
-601.098	-88.440	0.157	-0.060
-600.084	800.000	-0.129	-0.471
-599.069	-179.953	-0.499	-0.014
-598.055	800.000	0.036	0.169
-597.040	-200.000	-0.029	-0.544
-596.025	-130.513	0.347	-0.060
-595.011	-144.833	0.294	0.034
-593.996	440.042	0.098	-0.278
-592.982	5.253	-0.562	-0.535
-591.967	-15.817	-0.262	0.215
-590.952	-200.000	0.004	0.419
-589.938	-52.082	-0.358	0.214
-588.923	27.822	-0.168	-0.182
-587.909	-86.546	-0.444	-0.175
-586.894	-142.873	0.201	-0.025
-585.879	42.451	0.242	-0.285
-584.865	-99.712	0.314	-0.101
-583.850	-79.204	0.152	0.066
-582.836	-68.026	-0.087	0.043
-581.821	-118.540	0.329	0.074
-580.806	155.247	0.283	-0.504
-579.792	800.000	0.097	-0.484
-578.777	59.821	0.143	-0.182
-577.763	213.280	-0.142	0.290
-576.748	800.000	0.122	-0.587
-575.733	113.266	-0.141	-0.221
-574.719	-120.591	-0.087	-0.019
-573.704	-104.657	-0.309	0.091
-572.690	-200.000	-0.029	0.222
-571.675	-85.750	-0.177	-0.070
-570.661	61.161	0.347	-0.446
-569.646	-200.000	-0.071	0.432
-568.631	800.000	-0.077	0.435
-567.617	-170.547	-0.309	-0.014
-566.602	-47.560	0.205	-0.128
-565.588	556.470	0.103	0.322
-564.573	800.000	0.047	0.219
-563.558	-118.519	0.254	-0.057
-562.544	33.558	0.038	-0.042
-561.529	722.217	0.004	-0.015
-560.515	-94.744	0.171	0.059
-559.500	-57.512	-0.218	0.123
-558.485	7.032	-0.305	-0.293
-557.471	681.620	0.106	0.359
-556.456	-193.195	0.385	0.004
-555.442	34.382	0.265	-0.298
-554.427	62.176	-0.232	-0.299
-553.412	103.209	-0.048	0.073
-552.398	-119.930	-0.385	-0.084
-551.383	370.151	-0.074	0.195
-550.369	229.297	-0.170	0.359
-549.354	-182.094	0.673	0.016
-548.339	2.871	-0.098	0.091
-547.325	-200.000	0.011	0.101
-546.310	-153.179	-0.517	-0.046
-545.296	-200.000	0.014	0.134
-544.281	23.950	-0.048	-0.051
-543.266	188.628	-0.176	-0.340
-542.252	385.221	-0.091	0.243
-541.237	-175.396	0.448	0.016
-540.223	-58.465	-0.172	-0.096
-539.208	-146.266	-0.381	-0.043
-538.193	-76.446	0.060	-0.027
-537.179	434.415	0.031	-0.087
-536.164	-161.060	0.381	-0.025
-535.150	-200.000	-0.023	0.479
-534.135	138.552	-0.089	0.150
-533.121	800.000	0.013	-0.057
-532.106	-39.096	-0.348	0.235
-531.091	89.581	-0.077	0.111
-530.077	227.356	0.171	-0.360
-529.062	-118.038	0.525	-0.120
-528.048	134.359	-0.085	0.143
-527.033	773.689	-0.052	0.183
-526.018	-134.594	-0.181	0.028
-525.004	377.130	-0.023	-0.062
-523.989	349.729	0.066	-0.168
-522.975	-145.095	-0.434	-0.050
-521.960	42.962	-0.169	0.199
-520.945	139.033	-0.119	0.203
-519.931	-89.170	-0.293	0.111
-518.916	466.178	-0.053	-0.153
-517.902	372.989	0.079	-0.208
-516.887	-126.912	-0.297	-0.056
-515.872	-70.500	0.713	0.346
-514.858	-200.000	-0.014	0.096
-513.843	-200.000	-0.070	0.610
-512.829	-92.994	-0.337	-0.120
-511.814	657.248	0.055	0.182
-510.799	137.342	0.120	0.203
-509.785	-18.303	-0.390	-0.313
-508.770	800.000	0.086	0.366
-507.756	-102.558	0.147	-0.045
-506.741	120.958	-0.194	-0.311
-505.726	800.000	0.130	0.478
-504.712	31.244	0.285	-0.315
-503.697	800.000	-0.095	0.478
-502.683	-17.905	0.299	0.241
-501.668	162.149	0.171	0.309
-500.653	-25.724	0.232	-0.175
-499.639	77.621	-0.267	0.366
-498.624	-200.000	0.222	0.001
-497.610	182.639	-0.089	-0.169
-496.595	37.045	0.044	-0.050
-495.581	-200.000	0.076	0.461
-494.566	-170.296	-0.184	-0.008
-493.551	53.892	0.243	0.300
-492.537	-99.560	0.519	-0.167
-491.522	-45.942	0.529	-0.335
-490.508	55.811	0.152	-0.189
-489.493	-103.798	0.158	0.047
-488.478	220.184	0.102	-0.211
-487.464	673.054	0.061	0.204
-486.449	-127.276	-0.058	-0.011
-485.435	-16.034	0.189	-0.154
-484.420	-69.130	0.144	-0.071
-483.405	38.092	0.138	-0.158
-482.391	48.296	0.106	-0.127
-481.376	-120.151	-0.682	0.149
-480.362	-200.000	-0.037	0.540
-479.347	19.186	-0.149	0.154
-478.332	-200.000	0.043	0.725
-477.318	-70.981	-0.225	0.108
-476.303	-50.239	-0.182	-0.110
-475.289	44.422	0.185	0.219
-474.274	-76.317	0.419	0.189
-473.259	-104.328	0.291	0.086
-472.245	416.377	-0.069	0.189
-471.230	800.000	-0.089	0.395
-470.216	-50.318	-0.280	-0.169
-469.201	-200.000	0.039	-0.267
-468.186	187.060	0.129	-0.248
-467.172	-11.942	0.299	-0.252
-466.157	187.762	-0.162	-0.311
-465.143	-163.917	-0.594	0.035
-464.128	-110.058	-0.325	-0.087
-463.113	-96.961	0.301	-0.101
-462.099	-97.702	-0.026	0.009
-461.084	-8.027	0.091	-0.079
-460.070	-181.887	-0.050	0.001
-459.055	-134.587	-0.497	0.077
-458.040	-76.985	0.076	0.034
-457.026	-77.922	-0.280	0.124
-456.011	-200.000	-0.029	-0.176
-454.997	241.176	0.058	-0.124
-453.982	93.817	-0.232	0.338
-452.968	-200.000	0.000	-0.149
-451.953	-200.000	0.003	0.161
-450.938	-200.000	-0.030	0.310
-449.924	311.966	0.236	0.570
-448.909	-175.215	0.407	0.014
-447.895	48.367	-0.355	0.427
-446.880	-124.457	-0.803	0.159
-445.865	181.319	0.197	-0.374
-444.851	-200.000	0.072	-0.572
-443.836	142.449	0.193	-0.330
-442.822	-95.221	0.281	0.097
-441.807	-200.000	-0.016	-0.356
-440.792	-166.638	0.574	0.030
-439.778	-200.000	-0.018	-0.302
-438.763	-62.777	-0.359	-0.190
-437.749	80.030	-0.115	0.159
-436.734	-159.635	0.270	-0.019
-435.719	-200.000	-0.068	-0.430
-434.705	601.419	0.114	-0.366
-433.690	66.634	-0.366	-0.478
-432.676	-83.316	0.406	-0.166
-431.661	800.000	-0.081	0.319
-430.646	800.000	0.086	-0.353
-429.632	-56.659	-0.179	-0.102
-428.617	-20.583	0.234	0.184
-427.603	146.739	-0.050	-0.087
-426.588	-200.000	0.009	0.064
-425.573	-164.506	0.554	0.032
-424.559	-121.150	-0.169	0.036
-423.544	-200.000	-0.001	-0.342
-422.530	-200.000	-0.028	0.326
-421.515	-117.346	0.165	-0.038
-420.500	-92.364	0.349	-0.125
-419.486	13.793	0.167	0.166
-418.471	-181.068	0.471	-0.012
-417.457	-84.863	-0.393	-0.158
-416.442	-9.422	0.524	-0.448
-415.428	-200.000	-0.041	0.385
-414.413	493.994	-0.143	0.424
-413.398	-200.000	0.342	0.000
-412.384	-7.617	0.488	-0.423
-411.369	-133.881	0.129	0.020
-410.355	-200.000	-0.008	0.425
-409.340	-200.000	0.025	0.370
-408.325	7.650	-0.147	0.141
-407.311	-133.519	0.139	0.022
-406.296	-139.744	-0.247	0.033
-405.282	2.336	-0.205	-0.190
-404.267	-44.952	-0.050	0.032
-403.252	-46.612	0.128	0.080
-402.238	-200.000	0.050	-0.310
-401.223	-124.016	0.051	0.010
-400.209	-122.966	-0.177	-0.036
-399.194	-85.251	-0.248	-0.099
-398.179	-102.930	-0.259	0.078
-397.165	-166.573	-0.230	0.012
-396.150	-67.472	0.228	0.114
-395.136	-154.755	0.388	0.032
-394.121	11.625	-0.090	0.088
-393.106	155.297	0.135	0.238
-392.092	-200.000	0.563	0.001
-391.077	-200.000	0.052	0.368
-390.063	795.500	-0.153	0.545
-389.048	800.000	0.101	-0.388
-388.033	-38.874	0.176	0.118
-387.019	26.055	0.219	0.234
-386.004	-24.550	-0.225	-0.171
-384.990	-129.719	0.780	0.136
-383.975	800.000	-0.125	-0.465
-382.960	347.055	-0.155	0.393
-381.946	222.608	-0.068	-0.141
-380.931	-93.697	-0.480	-0.169
-379.917	-152.060	0.632	-0.058
-378.902	-200.000	0.056	-0.362
-377.888	218.326	-0.138	0.284
-376.873	167.638	-0.237	0.433
-375.858	-103.100	0.349	-0.105
-374.844	-83.211	0.174	-0.071
-373.829	-81.080	0.273	0.115
-372.815	-105.469	0.424	0.122
-371.800	-158.115	-0.211	-0.016
-370.785	800.000	-0.104	-0.447
-369.771	-30.654	0.156	-0.112
-368.756	149.733	-0.322	-0.560
-367.742	-200.000	0.029	-0.399
-366.727	-133.393	0.408	-0.065
-365.712	-200.000	-0.023	-0.610
-364.698	-137.954	-0.322	0.046
-363.683	-200.000	0.044	-0.677
-362.669	-162.266	-0.499	-0.031
-361.654	-200.000	0.015	-0.486
-360.639	-200.000	0.039	-0.545
-359.625	-200.000	-0.049	-0.330
-358.610	-171.599	-0.201	-0.008
-357.596	-18.795	-0.161	0.128
-356.581	-107.665	0.345	-0.096
-355.566	-46.809	-0.171	-0.107
-354.552	181.685	0.114	0.215
-353.537	-112.527	0.243	-0.061
-352.523	-67.698	0.151	0.075
-351.508	-110.020	0.412	0.109
-350.493	-200.000	0.244	-0.000
-349.479	-11.465	0.111	-0.093
-348.464	-29.765	0.412	0.300
-347.450	-200.000	0.050	0.301
-346.435	198.141	-0.119	0.233
-345.420	-76.571	-0.395	0.176
-344.406	-115.026	-0.099	-0.024
-343.391	129.232	-0.138	0.225
-342.377	36.623	-0.212	-0.240
-341.362	-64.677	0.214	-0.110
-340.348	64.642	0.183	0.236
-339.333	491.057	-0.146	0.430
-338.318	800.000	0.039	-0.170
-337.304	276.870	0.073	-0.167
-336.289	-120.584	0.396	-0.085
-335.275	127.171	0.072	-0.118
-334.260	-200.000	0.025	-0.143
-333.245	-160.414	0.285	-0.019
-332.231	-0.987	0.228	-0.206
-331.216	-114.438	-0.382	0.093
-330.202	97.402	-0.186	0.273
-329.187	-44.030	-0.226	-0.145
-328.172	-55.704	-0.242	-0.138
-327.158	-104.200	0.182	-0.054
-326.143	314.023	-0.092	-0.223
-325.129	-200.000	-0.042	0.384
-324.114	54.716	-0.263	0.325
-323.099	62.842	-0.374	0.478
-322.085	-160.285	0.221	0.015
-321.070	-120.213	-0.199	0.043
-320.056	167.574	-0.141	0.257
-319.041	-74.685	-0.381	-0.174
-318.026	-151.721	0.135	0.013
-317.012	-168.812	-0.323	-0.015
-315.997	47.088	0.071	0.084
-314.983	84.354	-0.084	-0.118
-313.968	-43.968	0.020	0.013
-312.953	29.246	0.369	0.401
-311.939	-200.000	-0.044	0.336
-310.924	53.888	0.254	-0.312
-309.910	-56.685	0.198	-0.112
-308.895	-123.075	-0.083	-0.017
-307.880	167.392	0.010	0.019
-306.866	-200.000	0.001	-0.200
-305.851	-130.057	-0.337	0.058
-304.837	-140.459	0.284	0.037
-303.822	-131.702	0.348	0.058
-302.807	37.657	0.215	0.244
-301.793	201.731	-0.141	-0.278
-300.778	68.039	-0.296	0.387
-299.764	123.060	-0.265	0.425
-298.749	-79.394	-0.215	-0.092
-297.735	-36.957	-0.205	-0.140
-296.720	-126.160	0.176	0.033
-295.705	726.671	0.021	-0.073
-294.691	74.343	-0.172	0.231
-293.676	-40.514	-0.212	0.140
-292.662	-22.616	0.167	-0.128
-291.647	-85.248	0.218	-0.086
-290.632	-200.000	-0.045	-0.518
-289.618	-136.394	-0.256	-0.038
-288.603	-32.045	-0.239	0.170
-287.589	800.000	0.039	-0.159
-286.574	800.000	0.127	0.666
-285.559	-200.000	0.025	0.465
-284.545	-48.060	0.538	0.331
-283.530	-28.979	0.306	0.224
-282.516	535.419	0.176	0.535
-281.501	33.244	-0.320	0.354
-280.486	-47.010	0.181	0.113
-279.472	-67.817	-0.136	0.068
-278.457	214.074	-0.078	0.158
-277.443	93.999	0.048	-0.070
-276.428	-32.706	-0.329	-0.233
-275.413	285.302	-0.031	-0.072
-274.399	-12.109	0.201	-0.167
-273.384	-80.381	0.251	-0.107
-272.370	-152.096	-0.103	-0.009
-271.355	251.457	-0.078	0.170
-270.340	217.321	-0.138	0.281
-269.326	-152.930	-0.141	0.013
-268.311	-19.602	-0.133	-0.104
-267.297	16.803	0.467	0.471
-266.282	800.000	-0.005	-0.028
-265.267	-103.600	-0.378	0.112
-264.253	800.000	0.019	-0.092
-263.238	-200.000	-0.001	-0.124
-262.224	-149.663	-0.392	-0.039
-261.209	-70.277	0.425	-0.205
-260.195	31.567	0.325	-0.357
-259.180	-18.798	-0.085	-0.067
-258.165	-68.175	0.145	0.072
-257.151	800.000	-0.165	-0.607
-256.136	-53.990	-0.468	-0.271
-255.122	-200.000	-0.012	-0.406
-254.107	-66.492	-0.363	0.183
-253.092	50.442	-0.269	0.325
-252.078	320.516	0.065	0.157
-251.063	-167.485	-0.462	-0.023
-250.049	248.307	0.072	-0.155
-249.034	-28.531	0.191	-0.140
-248.019	-200.000	-0.017	0.298
-247.005	56.465	-0.071	-0.088
-245.990	258.863	-0.022	-0.049
-244.976	800.000	0.078	0.385
-243.961	800.000	0.034	0.154
-242.946	11.931	0.517	0.506
-241.932	454.002	-0.126	0.358
-240.917	57.875	0.114	-0.142
-239.903	-64.409	0.210	0.108
-238.888	90.544	0.141	-0.201
-237.873	-200.000	0.051	-0.332
-236.859	-200.000	0.022	-0.303
-235.844	-109.989	0.075	-0.020
-234.830	154.905	-0.181	-0.318
-233.815	289.319	-0.080	0.186
-232.800	-136.829	-0.234	-0.034
-231.786	-193.042	-0.489	0.005
-230.771	11.534	-0.131	-0.128
-229.757	107.215	0.118	-0.179
-228.742	25.582	-0.106	0.112
-227.727	682.082	-0.055	0.184
-226.713	-122.214	0.236	-0.049
-225.698	-109.541	-0.385	0.103
-224.684	251.618	0.099	-0.216
-223.669	293.618	-0.126	0.294
-222.655	-169.598	0.225	0.010
-221.640	-93.034	0.274	-0.097
-220.625	-31.529	0.241	-0.172
-219.611	-120.765	0.489	-0.104
-218.596	490.215	-0.091	0.267
-217.582	420.650	0.037	0.101
-216.567	-58.614	-0.349	0.192
-215.552	-79.431	-0.709	-0.304
-214.538	-96.800	-0.276	-0.092
-213.523	456.911	-0.195	-0.555
-212.509	-64.262	-0.082	-0.042
-211.494	119.758	0.158	-0.250
-210.479	-88.661	-0.402	0.151
-209.465	-200.000	-0.009	-0.289
-208.450	339.065	-0.177	0.440
-207.436	121.611	0.322	0.511
-206.421	139.555	0.200	-0.336
-205.406	-109.273	-0.614	-0.164
-204.392	-84.968	0.274	-0.109
-203.377	800.000	-0.009	-0.032
-202.363	-8.060	0.244	-0.209
-201.348	-48.332	0.392	-0.239
-200.333	-18.352	0.125	0.099
-199.319	-98.746	0.431	-0.139
-198.304	-97.661	-0.389	-0.127
-197.290	13.644	0.295	0.292
-196.275	-58.805	0.306	-0.168
-195.260	-32.469	-0.350	0.248
-194.246	-200.000	0.035	-0.235
-193.231	94.931	-0.203	-0.294
-192.217	-146.508	-0.273	0.030
-191.202	-150.024	0.263	-0.026
-190.187	-111.945	-0.278	-0.071
-189.173	410.801	-0.043	-0.116
-188.158	-70.076	0.096	0.046
-187.144	800.000	-0.076	-0.326
-186.129	168.814	-0.157	0.286
-185.114	-124.335	-0.097	-0.019
-184.100	-153.453	0.221	-0.019
-183.085	-149.928	-0.045	0.004
-182.071	-200.000	0.004	-0.483
-181.056	217.763	-0.079	-0.161
-180.042	574.778	-0.128	0.400
-179.027	570.246	0.055	-0.170
-178.012	-102.768	0.164	0.049
-176.998	181.410	-0.117	-0.218
-175.983	-55.257	0.581	0.331
-174.969	-29.963	0.133	0.096
-173.954	-43.478	0.214	0.137
-172.939	-200.000	0.097	0.579
-171.925	220.572	0.153	0.312
-170.910	-132.959	0.443	0.071
-169.896	-30.085	0.174	0.125
-168.881	92.335	-0.086	-0.123
-167.866	95.448	-0.377	-0.547
-166.852	536.651	-0.186	-0.562
-165.837	800.000	-0.077	-0.336
-164.823	-64.850	-0.183	-0.094
-163.808	-1.113	-0.169	0.152
-162.793	20.067	-0.064	-0.066
-161.779	-21.596	-0.391	-0.302
-160.764	250.608	-0.059	0.127
-159.750	800.000	-0.109	0.388
-158.735	312.517	-0.115	0.275
-157.720	472.323	0.185	0.531
-156.706	331.905	0.180	0.443
-155.691	98.897	0.271	0.398
-154.677	-200.000	0.002	-0.151
-153.662	-165.329	0.064	0.004
-152.647	-127.147	0.246	0.045
-151.633	-9.249	0.333	0.282
-150.618	800.000	-0.044	0.187
-149.604	-200.000	-0.000	0.349
-148.589	800.000	0.059	0.216
-147.574	87.029	-0.070	0.099
-146.560	-68.649	-0.135	-0.066
-145.545	-18.280	0.265	-0.210
-144.531	-33.464	-0.315	0.220
-143.516	-200.000	-0.011	-0.309
-142.502	-69.982	0.435	-0.210
-141.487	-49.140	-0.372	0.225
-140.472	-53.902	-0.243	-0.140
-139.458	-112.105	-0.451	-0.114
-138.443	-182.025	-0.294	0.007
-137.429	45.979	0.131	0.154
-136.414	-67.773	-0.276	-0.137
-135.399	-200.000	0.005	0.571
-134.385	-105.413	0.092	-0.026
-133.370	-34.197	-0.199	-0.138
-132.356	800.000	-0.194	0.724
-131.341	307.139	0.144	0.343
-130.326	203.522	-0.053	0.104
-129.312	-45.145	-0.151	0.095
-128.297	-54.175	0.172	0.099
-127.283	800.000	-0.055	0.258
-126.268	800.000	0.063	-0.239
-125.253	800.000	-0.094	0.365
-124.239	-200.000	0.047	0.338
-123.224	-200.000	0.072	-0.000
