DTS Sentinel unit serial number:	SN409020Multiplexer serial number:	ORYXHardware model number:	OX4-SRSoftware version number:	ORYX F/W v3.00 Oryx Data Collector v3.7.2.0data status	okinstallation	HaddamTimeLapsedifferential loss correction	single-endedforward channel	channel 3reverse channel	N/Adate	2011/06/22time	01:01:17forward acquisition time	30.00reverse acquisition time	0.00gamma	498.7831k internal	0.1751k external	0.1751temperature offset calibration	1.0074default loss term (dB/km)	0.3790temperature slope calibration	1.3530multiplexer offset coefficient	1.0000multiplexer slope coefficient	1.0000fibre end	0.00T internal ref (°C)	22.53T ext. ref 1 (°C)	17.92T ext. ref 2 (°C)	0.05length (m)	temperature (°C)	Stokes	anti-Stokes-747.200	-140.738	-0.544	0.074
-746.185	-17.189	0.341	0.285
-745.171	-27.827	0.248	-0.191
-744.156	-200.000	-0.034	0.447
-743.142	-32.097	0.187	0.139
-742.127	49.756	-0.331	0.414
-741.112	-200.000	-0.023	-0.180
-740.098	-34.564	-0.252	-0.183
-739.083	86.944	-0.262	-0.386
-738.069	182.292	0.256	0.502
-737.054	-69.623	0.121	0.061
-736.039	50.227	0.247	-0.310
-735.025	-125.451	0.214	-0.043
-734.010	800.000	0.080	-0.350
-732.996	-134.093	0.644	0.105
-731.981	-56.167	0.208	-0.123
-730.966	-53.738	-0.248	-0.150
-729.952	-65.893	0.579	-0.306
-728.937	337.339	-0.261	0.678
-727.923	-200.000	-0.009	0.329
-726.908	-123.306	0.497	0.104
-725.894	-98.501	-0.727	-0.245
-724.879	-107.113	-0.597	-0.174
-723.864	-72.255	-0.195	0.096
-722.850	-65.764	-0.109	0.058
-721.835	-63.407	0.160	0.087
-720.821	-22.075	0.023	-0.019
-719.806	-93.066	-0.120	-0.044
-718.791	-108.536	-0.224	0.063
-717.777	-71.662	0.426	0.210
-716.762	5.711	-0.560	-0.549
-715.748	62.104	0.267	-0.353
-714.733	53.009	-0.109	-0.139
-713.718	800.000	-0.132	-0.489
-712.704	285.953	0.250	-0.600
-711.689	197.511	0.159	0.323
-710.675	-129.253	-0.391	-0.072
-709.660	-166.788	-0.394	-0.021
-708.645	18.293	0.178	-0.188
-707.631	-55.375	-0.341	0.202
-706.616	800.000	0.048	0.273
-705.602	283.504	-0.218	0.521
-704.587	-200.000	0.023	0.387
-703.572	581.707	0.062	0.203
-702.558	-117.298	0.292	-0.070
-701.543	-14.571	-0.394	0.336
-700.529	98.400	-0.160	0.245
-699.514	-37.108	-0.284	0.201
-698.499	-200.000	0.023	-0.257
-697.485	-39.348	-0.176	-0.122
-696.470	-122.828	0.139	-0.029
-695.456	46.329	0.303	0.372
-694.441	70.014	0.209	-0.286
-693.426	413.016	-0.110	-0.310
-692.412	7.747	0.343	0.341
-691.397	-129.797	-0.507	0.092
-690.383	-122.039	0.057	-0.012
-689.368	207.921	0.185	-0.384
-688.354	-200.000	-0.017	-0.117
-687.339	732.192	0.099	0.353
-686.324	44.287	0.259	-0.315
-685.310	117.187	-0.171	0.279
-684.295	-101.755	0.355	0.113
-683.281	-139.868	0.422	-0.059
-682.266	-136.158	-0.228	-0.035
-681.251	-31.573	0.242	0.180
-680.237	274.035	-0.247	0.580
-679.222	5.729	0.265	0.259
-678.208	357.928	0.134	-0.356
-677.193	-200.000	0.054	-0.382
-676.178	-19.720	0.220	0.180
-675.164	-118.783	-0.298	0.069
-674.149	-180.141	-0.395	-0.011
-673.135	53.452	-0.253	-0.321
-672.120	402.313	-0.066	-0.184
-671.105	-101.139	0.244	0.079
-670.091	175.813	-0.186	-0.358
-669.076	-25.494	-0.142	0.111
-668.062	-74.094	0.439	0.210
-667.047	-4.762	0.308	-0.281
-666.032	-82.789	0.216	-0.092
-665.018	154.648	-0.297	0.541
-664.003	-47.417	0.303	0.195
-662.989	300.691	-0.152	0.374
-661.974	800.000	0.025	-0.111
-660.959	147.725	-0.095	-0.169
-659.945	-200.000	-0.009	0.246
-658.930	-155.866	0.273	0.023
-657.916	-25.987	0.157	0.122
-656.901	-19.292	0.218	-0.179
-655.886	-70.841	0.226	0.113
-654.872	-200.000	-0.039	0.233
-653.857	-200.000	-0.024	-0.228
-652.843	-200.000	0.014	-0.433
-651.828	800.000	0.164	-0.698
-650.814	40.785	0.103	0.123
-649.799	-84.232	-0.523	-0.218
-648.784	56.794	-0.062	-0.080
-647.770	-100.209	-0.387	-0.126
-646.755	11.504	-0.020	-0.021
-645.741	-81.338	-0.387	0.168
-644.726	-130.293	-0.156	0.028
-643.711	-73.682	-0.199	0.096
-642.697	-24.178	0.159	0.125
-641.682	-3.009	-0.226	0.209
-640.668	-69.371	0.335	-0.169
-639.653	-42.666	-0.084	-0.056
-638.638	-126.080	-0.444	-0.087
-637.624	-82.425	-0.151	-0.065
-636.609	-70.371	-0.741	0.370
-635.595	-173.451	-0.835	0.033
-634.580	68.304	0.095	-0.129
-633.565	465.502	-0.092	-0.272
-632.551	-110.264	-0.328	0.090
-631.536	-83.411	0.345	0.146
-630.522	21.509	0.225	-0.242
-629.507	-122.269	-0.476	0.102
-628.492	-29.055	-0.295	-0.224
-627.478	-101.371	-0.622	0.199
-626.463	186.079	-0.168	0.332
-625.449	800.000	-0.113	0.569
-624.434	-129.442	0.095	-0.017
-623.419	69.799	-0.040	0.054
-622.405	-28.672	0.259	0.197
-621.390	800.000	-0.112	0.558
-620.376	-200.000	-0.022	-0.213
-619.361	-125.868	-0.076	-0.015
-618.346	108.237	0.163	-0.258
-617.332	256.705	0.105	-0.240
-616.317	100.770	0.112	-0.172
-615.303	6.663	0.152	0.150
-614.288	144.980	-0.127	0.224
-613.273	-91.131	-0.380	-0.143
-612.259	237.234	-0.065	0.144
-611.244	-139.768	-0.260	-0.036
-610.230	207.170	-0.160	-0.332
-609.215	800.000	-0.096	-0.356
-608.201	-48.290	-0.560	-0.356
-607.186	-29.220	-0.520	-0.393
-606.171	-145.002	-0.344	-0.041
-605.157	-200.000	0.058	-0.477
-604.142	-81.404	0.086	-0.037
-603.128	373.878	0.148	-0.401
-602.113	-54.955	-0.370	0.220
-601.098	800.000	0.057	-0.240
-600.084	24.589	-0.170	0.185
-599.069	536.412	-0.078	0.244
-598.055	-14.324	0.070	0.059
-597.040	492.699	0.074	-0.226
-596.025	12.265	0.082	0.083
-595.011	479.830	-0.112	-0.338
-593.996	-18.865	-0.488	-0.401
-592.982	81.464	-0.296	-0.423
-591.967	-101.194	0.127	-0.041
-590.952	-21.628	0.199	0.159
-589.938	-140.482	0.349	-0.047
-588.923	800.000	0.101	0.446
-587.909	-137.559	-0.178	0.026
-586.894	219.372	0.096	0.203
-585.879	242.498	0.124	0.275
-584.865	-11.445	0.075	0.065
-583.850	-77.614	0.561	0.255
-582.836	-200.000	0.059	0.421
-581.821	20.954	0.123	0.132
-580.806	-82.095	0.016	0.007
-579.792	-56.300	-0.487	0.285
-578.777	-30.668	0.435	0.324
-577.763	211.887	0.103	0.215
-576.748	-200.000	0.016	0.422
-575.733	-50.247	0.305	0.190
-574.719	-56.039	-0.273	-0.160
-573.704	-18.495	-0.232	0.191
-572.690	105.926	0.377	0.590
-571.675	327.037	-0.035	0.089
-570.661	475.249	0.060	0.181
-569.646	163.675	0.113	0.211
-568.631	176.223	0.136	0.261
-567.617	170.051	-0.053	-0.099
-566.602	148.704	-0.030	0.054
-565.588	159.807	-0.126	0.231
-564.573	-134.033	0.216	-0.035
-563.558	800.000	0.080	-0.334
-562.544	216.398	-0.051	0.107
-561.529	-43.556	-0.516	-0.342
-560.515	414.590	-0.140	0.395
-559.500	-58.454	0.385	0.220
-558.485	-198.692	0.303	0.002
-557.471	-12.342	-0.476	-0.410
-556.456	21.180	0.238	-0.254
-555.442	147.290	0.249	0.444
-554.427	-50.706	0.205	-0.127
-553.412	-94.460	-0.351	0.126
-552.398	-149.151	-0.321	0.033
-551.383	-139.033	0.078	-0.011
-550.369	-75.937	0.171	-0.080
-549.354	59.949	0.329	-0.428
-548.339	-18.775	-0.326	-0.267
-547.325	-200.000	-0.061	0.631
-546.310	-32.091	-0.090	-0.066
-545.296	-200.000	0.027	-0.192
-544.281	800.000	0.036	-0.204
-543.266	-42.569	0.310	-0.208
-542.252	-200.000	-0.049	-0.354
-541.237	778.279	-0.105	0.379
-540.223	-10.065	-0.219	-0.192
-539.208	-97.034	-0.223	0.076
-538.193	46.603	-0.312	0.382
-537.179	312.110	-0.152	0.378
-536.164	-126.091	-0.515	0.101
-535.150	-200.000	0.039	0.259
-534.135	-92.093	0.397	0.147
-533.121	-77.002	0.154	-0.070
-532.106	-68.842	0.282	-0.143
-531.091	-200.000	0.007	-0.074
-530.077	-200.000	-0.002	-0.040
-529.062	156.334	0.153	-0.280
-528.048	-173.654	0.303	0.012
-527.033	-200.000	0.022	-0.298
-526.018	99.637	0.335	0.511
-525.004	-152.360	-0.615	-0.058
-523.989	800.000	-0.007	0.028
-522.975	626.904	0.066	-0.219
-521.960	-155.978	0.554	0.046
-520.945	-200.000	0.000	0.209
-519.931	-115.275	-0.176	0.044
-518.916	-80.671	-0.357	0.156
-517.902	45.176	-0.378	-0.460
-516.887	168.732	-0.182	0.342
-515.872	333.716	-0.097	0.248
-514.858	24.694	-0.080	-0.087
-513.843	92.510	-0.332	0.494
-512.829	700.490	-0.037	0.128
-511.814	-200.000	0.014	0.125
-510.799	-19.805	-0.246	-0.200
-509.785	-93.542	-0.477	0.172
-508.770	800.000	-0.035	0.139
-507.756	-200.000	0.007	-0.083
-506.741	-40.781	-0.216	0.147
-505.726	-74.001	0.176	0.084
-504.712	-179.387	-0.254	-0.007
-503.697	-200.000	-0.003	-0.319
-502.683	-91.314	0.428	0.160
-501.668	-129.807	-0.504	-0.090
-500.653	31.966	-0.184	0.209
-499.639	377.922	0.035	0.095
-498.624	258.531	0.161	0.367
-497.610	-85.840	0.276	0.112
-496.595	-200.000	-0.131	0.001
-495.581	-100.328	0.243	0.079
-494.566	781.096	-0.074	-0.270
-493.551	74.344	0.274	0.379
-492.537	-200.000	-0.000	-0.312
-491.522	-84.266	0.246	0.102
-490.508	183.414	-0.138	0.269
-489.493	155.189	0.292	-0.530
-488.478	-168.268	-0.319	-0.016
-487.464	-90.308	-0.377	-0.143
-486.449	-110.958	-0.090	0.024
-485.435	-108.938	-0.189	-0.053
-484.420	800.000	0.152	0.658
-483.405	-132.794	0.341	-0.057
-482.391	332.965	-0.083	-0.211
-481.376	-26.060	-0.085	0.066
-480.362	-13.874	0.231	0.196
-479.347	-109.248	0.193	-0.053
-478.332	-12.032	0.200	-0.172
-477.318	-200.000	0.029	-0.197
-476.303	-10.576	0.173	0.151
-475.289	-65.902	0.270	0.142
-474.274	-200.000	0.024	0.290
-473.259	-91.341	0.132	-0.049
-472.245	-200.000	0.013	-0.265
-471.230	386.623	-0.075	-0.204
-470.216	-38.743	-0.219	0.152
-469.201	-97.657	0.704	-0.238
-468.186	222.404	0.133	0.281
-467.172	79.152	0.328	0.462
-466.157	459.561	0.110	0.322
-465.143	371.810	-0.173	-0.462
-464.128	151.602	-0.141	-0.254
-463.113	800.000	0.067	0.362
-462.099	-26.592	-0.360	-0.276
-461.084	-92.365	-0.680	-0.250
-460.070	-174.626	-0.664	0.024
-459.055	-114.103	-0.335	0.085
-458.040	-18.896	0.132	0.108
-457.026	-48.869	0.126	-0.079
-456.011	-130.431	0.250	0.044
-454.997	425.596	-0.127	0.361
-453.982	96.564	-0.172	0.258
-452.968	550.776	0.170	0.540
-451.953	614.992	0.110	0.364
-450.938	515.624	0.048	-0.149
-449.924	-200.000	0.025	-0.152
-448.909	325.395	-0.033	0.083
-447.895	70.171	-0.111	0.150
-446.880	-152.633	0.228	-0.021
-445.865	-58.531	-0.276	0.157
-444.851	-144.907	0.200	-0.024
-443.836	-123.044	0.519	-0.109
-442.822	61.081	-0.474	-0.618
-441.807	-142.740	0.371	-0.047
-440.792	-53.564	0.258	-0.154
-439.778	-88.917	-0.066	0.026
-438.763	35.903	-0.235	0.271
-437.749	-39.367	-0.556	-0.382
-436.734	-108.243	-0.305	0.086
-435.719	-8.018	-0.249	-0.220
-434.705	-200.000	0.051	0.332
-433.690	-10.620	-0.312	0.271
-432.676	-97.793	-0.111	0.037
-431.661	-92.384	-0.220	0.081
-430.646	50.964	-0.036	0.045
-429.632	-7.792	-0.231	-0.205
-428.617	-133.012	-0.412	-0.068
-427.603	-41.770	0.388	-0.261
-426.588	-110.712	-0.386	-0.104
-425.573	704.504	-0.088	-0.308
-424.559	-200.000	0.039	-0.672
-423.544	800.000	-0.058	0.238
-422.530	-141.374	0.038	0.005
-421.515	-200.000	0.005	-0.159
-420.500	-189.846	0.541	-0.008
-419.486	-200.000	-0.024	-0.375
-418.471	-5.091	-0.301	-0.271
-417.457	161.792	0.137	-0.253
-416.442	-81.609	0.216	-0.093
-415.428	800.000	-0.051	0.200
-414.413	-44.029	0.106	-0.070
-413.398	85.068	-0.280	-0.404
-412.384	-97.421	0.363	0.123
-411.369	-18.808	0.136	0.111
-410.355	-106.932	0.377	0.109
-409.340	-158.057	0.308	-0.023
-408.325	-78.163	-0.413	-0.185
-407.311	-183.309	0.118	0.003
-406.296	-129.572	-0.540	0.097
-405.282	-57.157	-0.304	-0.175
-404.267	63.079	0.063	0.083
-403.252	-74.458	0.282	0.133
-402.238	-111.319	0.276	-0.073
-401.223	123.815	0.100	0.164
-400.209	-19.550	0.389	-0.315
-399.194	-200.000	-0.013	0.144
-398.179	-89.876	-0.404	0.154
-397.165	-66.544	0.511	0.265
-396.150	-111.795	0.445	0.117
-395.136	-60.944	-0.361	-0.199
-394.121	-200.000	-0.011	-0.234
-393.106	-82.510	0.137	0.058
-392.092	-200.000	0.040	-0.298
-391.077	92.722	0.149	0.221
-390.063	-103.326	0.527	-0.162
-389.048	70.264	-0.142	0.192
-388.033	-58.823	0.094	0.053
-387.019	800.000	-0.041	-0.173
-386.004	-77.785	-0.145	0.065
-384.990	-188.929	-0.139	0.002
-383.975	-200.000	0.008	0.215
-382.960	29.316	0.047	0.053
-381.946	-132.129	-0.306	0.052
-380.931	-5.031	-0.138	-0.124
-379.917	193.403	0.109	0.217
-378.902	-200.000	0.012	0.511
-377.888	800.000	-0.021	0.079
-376.873	-200.000	0.020	-0.251
-375.858	247.515	-0.142	-0.315
-374.844	-120.249	0.287	0.064
-373.829	209.300	0.192	0.396
-372.815	285.822	-0.057	-0.134
-371.800	133.349	-0.245	-0.415
-370.785	-110.948	-0.241	-0.064
-369.771	800.000	-0.125	-0.586
-368.756	-60.274	-0.201	-0.112
-367.742	-21.789	0.389	-0.309
-366.727	-200.000	-0.002	-0.402
-365.712	733.839	-0.188	-0.661
-364.698	57.014	0.100	-0.128
-363.683	-125.343	0.580	-0.115
-362.669	165.825	0.134	0.248
-361.654	9.997	-0.182	0.181
-360.639	328.555	0.161	0.407
-359.625	129.070	0.220	0.368
-358.610	-61.816	-0.436	-0.238
-357.596	-24.449	-0.436	-0.340
-356.581	-24.161	0.161	0.125
-355.566	311.679	0.075	0.186
-354.552	-148.429	-0.626	0.066
-353.537	-47.742	-0.318	-0.201
-352.523	-81.532	-0.210	0.090
-351.508	-137.426	-0.192	-0.028
-350.493	198.262	0.137	-0.275
-349.479	-7.515	0.461	-0.408
-348.464	127.871	0.251	0.418
-347.450	23.351	-0.283	0.305
-346.435	97.243	-0.079	-0.119
-345.420	-40.850	0.551	0.372
-344.406	-121.823	0.385	0.082
-343.391	69.770	0.091	0.123
-342.377	-200.000	-0.040	-0.271
-341.362	-64.942	0.296	-0.156
-340.348	-82.305	0.412	0.175
-339.333	-78.270	-0.265	0.119
-338.318	-178.170	-0.304	-0.009
-337.304	10.058	0.486	0.482
-336.289	-200.000	0.013	0.286
-335.275	-43.593	-0.200	0.131
-334.260	172.738	0.103	-0.195
-333.245	800.000	-0.124	0.514
-332.231	-200.000	0.072	-0.441
-331.216	-60.390	-0.056	0.031
-330.202	-47.241	0.420	-0.267
-329.187	363.491	0.035	0.093
-328.172	-129.009	-0.161	-0.029
-327.158	762.063	-0.107	-0.380
-326.143	-167.997	-0.360	-0.018
-325.129	800.000	-0.082	-0.461
-324.114	18.451	0.357	-0.373
-323.099	-150.635	-0.169	0.017
-322.085	-11.463	-0.257	0.221
-321.070	-200.000	-0.016	0.521
-320.056	-47.344	0.329	-0.209
-319.041	-101.465	0.133	-0.042
-318.026	5.010	-0.304	0.292
-317.012	36.110	-0.233	-0.268
-315.997	25.392	-0.326	-0.353
-314.983	73.376	0.173	-0.236
-313.968	11.856	-0.373	-0.374
-312.953	-159.567	0.396	-0.028
-311.939	110.783	0.228	0.359
-310.924	-30.779	0.371	-0.274
-309.910	-200.000	-0.015	-0.468
-308.895	197.244	0.091	0.181
-307.880	-167.621	0.158	-0.008
-306.866	78.971	0.131	0.183
-305.851	103.975	0.237	-0.364
-304.837	-71.785	-0.097	0.047
-303.822	-104.759	0.564	-0.168
-302.807	480.252	-0.074	-0.220
-301.793	-59.051	0.346	0.194
-300.778	152.567	-0.162	0.290
-299.764	-83.612	-0.325	0.135
-298.749	-56.213	0.085	0.049
-297.735	800.000	0.048	0.218
-296.720	300.443	0.199	0.481
-295.705	-106.316	-0.320	-0.093
-294.691	70.088	-0.145	0.195
-293.676	386.615	0.071	-0.193
-292.662	-92.389	-0.144	-0.053
-291.647	800.000	0.011	0.064
-290.632	593.394	-0.142	-0.460
-289.618	88.393	-0.287	0.417
-288.603	-119.082	0.244	0.055
-287.589	-178.262	0.170	-0.005
-286.574	459.533	0.100	0.292
-285.559	-121.582	0.426	-0.091
-284.545	178.331	-0.312	-0.595
-283.530	800.000	-0.097	-0.413
-282.516	109.043	0.108	0.169
-281.501	-133.841	0.366	0.059
-280.486	91.486	0.246	-0.361
-279.472	-200.000	-0.007	-0.382
-278.457	511.220	0.133	0.405
-277.443	-17.917	-0.298	0.244
-276.428	-74.415	-0.073	-0.034
-275.413	-160.085	-0.381	-0.027
-274.399	-92.046	-0.492	-0.180
-273.384	-200.000	0.004	-0.054
-272.370	-161.731	-0.372	0.024
-271.355	9.003	-0.175	-0.172
-270.340	-169.889	0.626	-0.029
-269.326	-200.000	0.003	0.128
-268.311	-123.529	-0.081	-0.017
-267.297	-55.699	0.369	0.215
-266.282	800.000	0.053	-0.260
-265.267	-200.000	-0.002	-0.118
-264.253	-39.968	-0.026	0.017
-263.238	190.844	-0.090	-0.177
-262.224	-21.532	-0.092	0.073
-261.209	-105.128	-0.375	0.111
-260.195	38.975	0.133	0.155
-259.180	-107.259	0.267	-0.076
-258.165	-132.665	0.280	0.046
-257.151	-48.111	0.551	0.346
-256.136	-180.866	-0.113	-0.003
-255.122	-101.095	0.268	-0.085
-254.107	48.119	-0.173	0.211
-253.092	-80.822	-0.019	0.008
-252.078	-200.000	-0.026	-0.373
-251.063	414.702	-0.081	-0.225
-250.049	-105.672	0.423	0.124
-249.034	-102.409	0.217	0.067
-248.019	352.576	-0.087	0.226
-247.005	-80.372	0.134	-0.058
-245.990	135.655	0.135	0.229
-244.976	-166.431	-0.380	-0.020
-243.961	800.000	0.106	-0.490
-242.946	-89.643	-0.091	0.034
-241.932	-20.925	0.385	-0.306
-240.917	-75.476	0.250	0.115
-239.903	-73.757	-0.335	-0.158
-238.888	800.000	-0.084	-0.397
-237.873	140.559	0.317	0.547
-236.859	167.656	0.168	-0.311
-235.844	366.697	0.064	0.169
-234.830	-84.918	0.235	-0.096
-233.815	-100.818	0.140	-0.045
-232.800	-61.695	0.274	0.149
-231.786	64.525	0.186	0.245
-230.771	-44.832	0.459	0.297
-229.757	212.517	0.057	-0.118
-228.742	-200.000	0.026	0.200
-227.727	128.691	-0.152	0.252
-226.713	-114.047	0.248	0.062
-225.698	-113.877	-0.398	0.100
-224.684	-159.508	0.404	0.029
-223.669	-50.622	0.062	-0.038
-222.655	-141.743	-0.298	0.039
-221.640	-102.268	-0.299	-0.093
-220.625	108.967	0.182	0.284
-219.611	-24.214	0.255	0.198
-218.596	-200.000	-0.033	0.315
-217.582	-167.512	0.678	-0.035
-216.567	-200.000	0.010	0.250
-215.552	746.698	-0.088	0.311
-214.538	-117.060	-0.233	-0.055
-213.523	-194.305	0.340	0.003
-212.509	184.088	-0.140	-0.271
-211.494	-154.705	-0.377	0.032
-210.479	278.385	-0.067	0.155
-209.465	-22.947	-0.163	0.128
-208.450	-114.568	-0.297	0.073
-207.436	-6.323	0.154	0.137
-206.421	800.000	0.034	-0.157
-205.406	-41.064	0.168	-0.112
-204.392	319.249	-0.196	-0.485
-203.377	11.702	-0.309	0.308
-202.363	-145.527	0.227	-0.026
-201.348	-200.000	0.005	-0.469
-200.333	-138.342	-0.168	-0.024
-199.319	-54.322	0.009	-0.006
-198.304	800.000	0.058	-0.277
-197.290	-18.354	-0.568	0.461
-196.275	-121.300	0.096	0.021
-195.260	-96.555	-0.367	-0.125
-194.246	47.720	0.261	0.317
-193.231	800.000	-0.070	0.354
-192.217	396.352	0.211	0.577
-191.202	206.799	-0.086	-0.175
-190.187	71.438	0.373	-0.504
-189.173	511.893	0.082	-0.250
-188.158	-140.050	0.378	0.051
-187.144	800.000	-0.108	-0.435
-186.129	-78.452	0.182	0.081
-185.114	-0.138	0.457	-0.422
-184.100	-48.080	0.351	0.220
-183.085	-69.006	0.227	0.113
-182.071	106.642	0.083	0.129
-181.056	-19.952	0.046	0.037
-180.042	-20.532	0.179	-0.143
-179.027	-79.536	0.271	0.118
-178.012	-200.000	0.024	0.234
-176.998	-8.046	0.081	-0.071
-175.983	-103.420	0.359	0.109
-174.969	216.516	0.156	0.324
-173.954	745.595	-0.182	-0.640
-172.939	-31.864	0.331	0.240
-171.925	-159.932	0.249	-0.017
-170.910	0.102	-0.213	-0.197
-169.896	-71.164	-0.175	0.085
-168.881	-200.000	-0.003	-0.079
-167.866	-200.000	-0.077	-0.671
-166.852	1.502	-0.562	-0.525
-165.837	-184.367	0.522	0.011
-164.823	-43.281	0.099	-0.065
-163.808	-109.844	-0.360	0.097
-162.793	696.753	0.062	-0.212
-161.779	780.516	0.060	-0.213
-160.764	73.972	-0.158	-0.216
-159.750	189.031	0.150	0.292
-158.735	-200.000	0.035	0.223
-157.720	29.300	0.068	-0.075
-156.706	188.407	-0.085	-0.165
-155.691	-170.366	0.478	0.021
-154.677	-51.647	0.636	0.384
-153.662	199.202	0.161	-0.321
-152.647	144.649	0.127	-0.220
-151.633	-1.824	-0.286	-0.261
-150.618	-8.287	-0.221	0.193
-149.604	65.966	0.167	0.220
-148.589	302.026	-0.118	0.283
-147.574	-200.000	0.046	0.380
-146.560	-200.000	-0.069	-0.463
-145.545	-200.000	0.042	-0.282
-144.531	-132.622	-0.278	-0.046
-143.516	-155.098	-0.195	0.016
-142.502	92.368	0.025	-0.037
-141.487	1.690	0.176	0.164
-140.472	12.182	-0.300	0.299
-139.458	4.592	-0.559	-0.532
-138.443	44.166	-0.172	-0.205
-137.429	5.868	-0.119	-0.114
-136.414	800.000	0.029	-0.124
-135.399	-128.747	-0.475	0.086
-134.385	208.716	-0.056	0.114
-133.370	-70.694	0.379	-0.185
-132.356	-43.159	-0.330	-0.216
-131.341	171.616	0.090	0.168
-130.326	29.340	0.157	0.172
-129.312	532.206	0.089	-0.274
-128.297	65.321	-0.405	-0.532
-127.283	-40.942	-0.087	-0.058
-126.268	-21.238	0.426	-0.337
-125.253	494.798	-0.037	0.112
-124.239	764.631	-0.085	0.303
-123.224	-53.462	-0.473	-0.280
-122.210	-22.088	0.168	-0.132
-121.195	800.000	-0.055	-0.252
