DTS Sentinel unit serial number:	SN409020Multiplexer serial number:	ORYXHardware model number:	OX4-SRSoftware version number:	ORYX F/W v3.00 Oryx Data Collector v3.7.2.0data status	okinstallation	HaddamTimeLapsedifferential loss correction	single-endedforward channel	channel 3reverse channel	N/Adate	2011/06/21time	16:21:17forward acquisition time	30.00reverse acquisition time	0.00gamma	498.7831k internal	0.1789k external	0.1789temperature offset calibration	1.0074default loss term (dB/km)	0.3790temperature slope calibration	1.3530multiplexer offset coefficient	1.0000multiplexer slope coefficient	1.0000fibre end	0.00T internal ref (°C)	33.69T ext. ref 1 (°C)	26.40T ext. ref 2 (°C)	0.22length (m)	temperature (°C)	Stokes	anti-Stokes-747.200	-200.000	-0.041	-0.283
-746.185	800.000	-0.147	0.704
-745.171	-108.231	0.134	-0.037
-744.156	12.878	0.094	-0.095
-743.142	-130.040	0.192	-0.034
-742.127	-200.000	0.017	0.416
-741.112	-140.586	-0.314	-0.042
-740.098	-200.000	0.098	0.575
-739.083	-200.000	-0.026	0.392
-738.069	56.731	0.222	0.281
-737.054	140.307	0.030	-0.052
-736.039	318.440	-0.029	0.071
-735.025	-200.000	-0.041	0.488
-734.010	635.909	-0.079	0.261
-732.996	-200.000	0.009	-0.081
-731.981	195.973	-0.313	-0.620
-730.966	454.771	-0.210	0.608
-729.952	36.127	-0.386	-0.442
-728.937	362.758	-0.055	-0.145
-727.923	73.288	0.130	-0.177
-726.908	179.678	0.092	0.176
-725.894	34.513	-0.230	-0.261
-724.879	-200.000	-0.000	-0.024
-723.864	60.150	0.370	-0.476
-722.850	152.233	0.208	-0.370
-721.835	-128.227	0.536	-0.099
-720.821	-116.308	0.443	-0.106
-719.806	-57.608	0.219	-0.124
-718.791	118.643	-0.126	-0.202
-717.777	68.039	-0.094	0.126
-716.762	-13.209	-0.183	-0.154
-715.748	149.696	-0.120	-0.212
-714.733	359.221	0.101	-0.264
-713.718	736.301	-0.058	0.201
-712.704	167.752	-0.139	-0.258
-711.689	277.869	0.164	-0.381
-710.675	103.287	-0.102	-0.155
-709.660	89.634	-0.249	0.361
-708.645	-88.855	0.207	-0.079
-707.631	365.179	0.195	-0.512
-706.616	-43.156	0.061	0.040
-705.602	45.668	0.092	-0.110
-704.587	47.604	-0.229	-0.277
-703.572	616.974	-0.072	-0.235
-702.558	-162.520	-0.450	0.028
-701.543	-159.764	0.510	-0.036
-700.529	-51.394	-0.255	0.154
-699.514	800.000	0.050	0.241
-698.499	-200.000	0.014	0.294
-697.485	201.210	-0.093	0.186
-696.470	-86.446	-0.123	0.049
-695.456	263.503	-0.081	-0.182
-694.441	-130.380	-0.165	-0.029
-693.426	-4.388	0.063	-0.056
-692.412	-200.000	-0.036	0.354
-691.397	-16.281	0.145	-0.119
-690.383	-200.000	-0.007	-0.416
-689.368	160.270	0.019	-0.034
-688.354	-200.000	-0.025	-0.165
-687.339	103.384	0.283	-0.432
-686.324	-120.458	0.399	-0.087
-685.310	-116.379	0.331	0.079
-684.295	51.060	-0.265	-0.327
-683.281	56.560	-0.173	0.219
-682.266	-157.898	0.343	-0.026
-681.251	260.757	-0.048	-0.108
-680.237	157.153	0.129	-0.233
-679.222	10.401	-0.221	0.218
-678.208	-200.000	-0.049	0.642
-677.193	-200.000	0.013	0.419
-676.178	565.221	-0.084	-0.265
-675.164	625.940	0.112	0.370
-674.149	233.141	-0.085	0.181
-673.135	76.400	0.224	-0.308
-672.120	-200.000	-0.076	-0.641
-671.105	255.984	-0.234	0.523
-670.091	139.700	-0.319	0.546
-669.076	-106.272	0.497	-0.143
-668.062	-78.506	0.294	0.130
-667.047	17.070	-0.039	0.040
-666.032	-65.500	0.445	-0.231
-665.018	148.493	0.276	-0.483
-664.003	-83.736	-0.483	0.199
-662.989	462.711	0.103	0.301
-661.974	525.857	-0.058	0.179
-660.959	78.040	-0.136	0.188
-659.945	800.000	0.083	-0.445
-658.930	-51.060	-0.453	0.275
-657.916	-130.471	0.388	0.067
-656.901	-98.250	-0.513	0.170
-655.886	15.609	-0.360	-0.366
-654.872	-80.393	0.245	0.106
-653.857	65.728	-0.164	-0.216
-652.843	-104.477	-0.153	0.045
-651.828	-57.013	-0.407	0.232
-650.814	238.685	-0.064	-0.138
-649.799	-31.058	-0.249	0.182
-648.784	-171.820	-0.168	-0.007
-647.770	419.499	0.098	-0.274
-646.755	-117.476	-0.080	-0.019
-645.741	344.304	0.174	-0.445
-644.726	-110.860	-0.099	-0.026
-643.711	745.350	0.025	0.087
-642.697	800.000	-0.025	0.118
-641.682	-200.000	0.050	0.517
-640.668	-95.469	-0.038	0.013
-639.653	-168.584	-0.626	-0.030
-638.638	-104.424	-0.090	0.027
-637.624	13.255	-0.294	-0.295
-636.609	151.889	-0.048	0.086
-635.595	-144.408	0.208	-0.025
-634.580	-43.100	-0.425	-0.278
-633.565	-97.618	-0.369	-0.123
-632.551	-200.000	0.003	0.470
-631.536	-153.016	-0.290	0.026
-630.522	158.754	0.201	0.362
-629.507	645.992	-0.118	0.393
-628.492	-200.000	0.071	0.445
-627.478	-162.514	0.360	0.023
-626.463	-83.379	0.289	0.119
-625.449	643.030	-0.108	-0.359
-624.434	-96.003	0.271	-0.093
-623.419	-200.000	0.013	-0.083
-622.405	83.470	0.043	-0.060
-621.390	-200.000	-0.004	-0.038
-620.376	-121.953	-0.352	0.074
-619.361	767.870	0.059	0.207
-618.346	-107.077	0.479	-0.136
-617.332	-145.624	-0.307	-0.035
-616.317	-145.838	0.215	-0.024
-615.303	-46.734	0.292	0.185
-614.288	-22.107	0.070	0.055
-613.273	645.316	-0.117	0.387
-612.259	-200.000	0.055	0.343
-611.244	-104.398	0.192	-0.057
-610.230	-200.000	-0.007	-0.102
-609.215	-78.761	0.199	0.088
-608.201	-139.971	0.268	0.036
-607.186	28.661	-0.430	0.471
-606.171	-200.000	-0.025	-0.239
-605.157	-200.000	-0.004	0.146
-604.142	30.459	-0.212	0.234
-603.128	20.692	-0.201	-0.211
-602.113	-91.504	0.142	-0.052
-601.098	-52.243	-0.406	0.243
-600.084	22.369	0.235	0.249
-599.069	-144.597	0.203	0.024
-598.055	-20.999	0.281	0.222
-597.040	228.915	-0.174	0.367
-596.025	-178.698	-0.100	0.003
-595.011	20.872	-0.373	0.391
-593.996	338.537	0.209	0.529
-592.982	800.000	-0.053	0.264
-591.967	-76.988	-0.224	0.101
-590.952	1.981	0.259	-0.242
-589.938	-142.059	-0.157	-0.020
-588.923	800.000	-0.033	-0.158
-587.909	86.629	-0.039	-0.056
-586.894	94.492	-0.193	0.284
-585.879	-85.673	-0.270	0.108
-584.865	718.982	-0.045	-0.154
-583.850	-48.388	0.492	-0.305
-582.836	-54.753	-0.446	0.260
-581.821	109.804	-0.082	0.127
-580.806	-52.564	-0.281	0.167
-579.792	358.519	-0.059	0.152
-578.777	14.983	-0.122	0.124
-577.763	689.792	-0.001	-0.004
-576.748	800.000	0.033	0.149
-575.733	-53.428	-0.433	-0.256
-574.719	412.989	-0.128	0.352
-573.704	-30.719	0.264	-0.192
-572.690	-40.543	-0.343	0.230
-571.675	253.439	-0.107	-0.238
-570.661	23.867	0.156	-0.166
-569.646	22.979	-0.306	0.324
-568.631	179.401	0.137	0.260
-567.617	-200.000	0.078	0.448
-566.602	244.524	0.043	-0.094
-565.588	738.019	0.040	-0.139
-564.573	190.241	-0.121	-0.235
-563.558	-29.680	-0.124	-0.091
-562.544	-38.622	0.209	-0.142
-561.529	-58.696	0.368	0.205
-560.515	-83.213	0.197	0.081
-559.500	-131.266	-0.237	-0.040
-558.485	30.117	0.141	-0.156
-557.471	800.000	-0.087	0.388
-556.456	-152.047	-0.631	0.059
-555.442	-56.807	0.273	0.155
-554.427	-200.000	-0.354	0.001
-553.412	-28.513	-0.206	0.153
-552.398	-200.000	0.055	0.334
-551.383	116.668	-0.238	0.377
-550.369	278.977	-0.153	0.354
-549.354	-45.183	-0.276	-0.177
-548.339	363.788	0.089	-0.231
-547.325	-38.765	-0.299	0.203
-546.310	240.329	-0.185	-0.398
-545.296	-90.001	0.255	0.095
-544.281	114.276	0.083	0.131
-543.266	39.399	0.063	0.073
-542.252	-111.484	-0.229	0.060
-541.237	-101.057	0.081	0.025
-540.223	-22.109	-0.253	-0.198
-539.208	-112.055	-0.370	-0.095
-538.193	5.330	-0.110	-0.105
-537.179	-90.802	0.404	0.149
-536.164	-47.255	0.083	-0.052
-535.150	-133.906	-0.387	0.061
-534.135	800.000	-0.025	0.110
-533.121	800.000	-0.107	-0.385
-532.106	785.047	-0.050	0.179
-531.091	461.492	0.048	-0.138
-530.077	-152.489	0.656	-0.060
-529.062	-200.000	0.018	0.143
-528.048	-161.566	-0.401	0.026
-527.033	-164.656	-0.486	0.028
-526.018	104.205	0.179	-0.272
-525.004	30.888	0.186	-0.205
-523.989	-118.600	0.251	0.057
-522.975	490.660	0.042	-0.124
-521.960	168.783	0.152	-0.280
-520.945	-0.399	-0.241	-0.221
-519.931	-200.000	0.020	-0.257
-518.916	103.268	0.238	-0.361
-517.902	-147.064	0.315	-0.034
-516.887	145.302	0.103	0.178
-515.872	661.475	0.139	0.464
-514.858	-72.139	0.469	0.223
-513.843	-58.089	0.089	0.050
-512.829	103.466	-0.113	0.170
-511.814	-169.710	-0.242	-0.011
-510.799	89.834	-0.302	0.435
-509.785	22.002	0.079	0.083
-508.770	-48.856	0.256	-0.158
-507.756	-105.809	0.404	0.117
-506.741	-5.918	0.620	0.546
-505.726	800.000	-0.079	0.425
-504.712	-200.000	0.027	-0.180
-503.697	-41.668	0.272	-0.180
-502.683	-106.208	-0.286	-0.082
-501.668	-64.872	-0.187	-0.097
-500.653	-3.836	0.319	-0.285
-499.639	278.876	-0.057	0.131
-498.624	800.000	-0.029	0.123
-497.610	-200.000	0.077	0.723
-496.595	-175.256	0.428	0.015
-495.581	103.367	0.238	0.360
-494.566	269.920	0.157	0.357
-493.551	800.000	-0.106	-0.412
-492.537	-94.518	-0.056	0.019
-491.522	47.539	-0.095	0.114
-490.508	-43.807	0.179	-0.116
-489.493	67.074	0.046	0.060
-488.478	800.000	-0.078	-0.393
-487.464	-200.000	-0.009	0.075
-486.449	55.437	0.246	0.306
-485.435	499.806	0.205	-0.612
-484.420	581.149	0.122	0.386
-483.405	-28.554	0.260	0.193
-482.391	-11.498	0.482	0.408
-481.376	-38.472	-0.170	0.115
-480.362	-200.000	-0.019	-0.122
-479.347	-173.062	0.311	0.012
-478.332	-119.446	0.235	0.052
-477.318	-200.000	0.017	0.581
-476.303	-7.529	-0.248	-0.216
-475.289	20.198	-0.310	0.322
-474.274	-62.075	-0.145	0.078
-473.259	31.688	0.182	0.202
-472.245	-134.951	-0.070	-0.011
-471.230	-197.386	0.265	0.002
-470.216	-7.057	-0.042	0.037
-469.201	6.457	0.150	-0.143
-468.186	6.420	-0.318	0.303
-467.172	-164.682	0.298	-0.017
-466.157	-166.270	-0.088	-0.005
-465.143	-183.603	-0.330	-0.007
-464.128	5.328	-0.504	-0.477
-463.113	598.782	-0.028	-0.091
-462.099	-15.035	0.262	0.216
-461.084	45.882	0.257	0.306
-460.070	-200.000	0.050	-0.345
-459.055	-36.627	0.469	-0.323
-458.040	-200.000	0.003	-0.295
-457.026	-200.000	0.034	0.207
-456.011	40.373	-0.107	0.124
-454.997	-112.242	-0.220	-0.056
-453.982	800.000	0.061	0.268
-452.968	-83.909	0.162	-0.066
-451.953	197.988	0.291	-0.574
-450.938	-61.470	-0.413	-0.223
-449.924	294.408	-0.065	-0.154
-448.909	-135.007	-0.242	0.037
-447.895	17.419	0.095	0.097
-446.880	-25.434	-0.300	0.227
-445.865	-89.553	0.339	0.127
-444.851	66.614	-0.346	0.452
-443.836	-92.781	0.243	0.087
-442.822	-161.375	0.308	0.020
-441.807	88.617	0.114	-0.163
-440.792	-200.000	0.039	0.289
-439.778	-23.144	-0.399	0.308
-438.763	-114.060	-0.319	0.079
-437.749	-159.968	-0.066	0.005
-436.734	-24.608	0.156	0.119
-435.719	143.548	-0.194	-0.333
-434.705	792.386	0.091	0.323
-433.690	-45.830	-0.113	-0.071
-432.676	-61.084	-0.312	-0.168
-431.661	790.828	0.127	0.451
-430.646	800.000	-0.024	0.104
-429.632	-156.562	-0.200	0.016
-428.617	-107.988	0.119	-0.033
-427.603	165.069	-0.146	0.265
-426.588	-142.006	0.168	-0.021
-425.573	-98.776	-0.590	0.192
-424.559	126.825	-0.207	-0.338
-423.544	800.000	0.087	0.396
-422.530	-78.784	0.335	0.146
-421.515	-95.272	-0.265	0.091
-420.500	37.965	-0.445	0.508
-419.486	-200.000	-0.012	0.310
-418.471	-6.544	-0.164	0.143
-417.457	27.810	0.181	0.196
-416.442	11.150	0.415	-0.408
-415.428	150.131	-0.120	-0.210
-414.413	-71.376	0.181	-0.087
-413.398	-6.967	0.409	0.357
-412.384	120.576	0.070	-0.112
-411.369	40.897	-0.107	0.124
-410.355	-128.592	0.224	0.040
-409.340	-126.309	-0.464	-0.088
-408.325	-200.000	0.034	0.284
-407.311	-200.000	0.065	-0.448
-406.296	-96.117	0.365	0.124
-405.282	-65.708	-0.116	0.059
-404.267	-79.060	0.375	-0.163
-403.252	-9.078	-0.198	0.170
-402.238	-131.218	-0.243	-0.041
-401.223	104.161	-0.371	-0.560
-400.209	-182.909	0.499	-0.011
-399.194	-200.000	0.012	0.215
-398.179	-103.442	0.418	-0.125
-397.165	-10.166	0.136	-0.116
-396.150	125.767	-0.141	0.230
-395.136	-200.000	0.009	-0.091
-394.121	-112.155	0.520	-0.133
-393.106	39.025	0.131	0.150
-392.092	-161.031	0.028	-0.002
-391.077	800.000	-0.067	-0.380
-390.063	80.844	-0.171	-0.236
-389.048	8.688	-0.374	0.361
-388.033	-133.806	-0.518	-0.082
-387.019	-75.529	-0.375	-0.170
-386.004	129.755	0.171	0.281
-384.990	-149.712	0.148	-0.015
-383.975	115.918	-0.211	-0.331
-382.960	-4.346	-0.167	0.148
-381.946	45.266	-0.140	-0.165
-380.931	-126.432	0.054	0.010
-379.917	-153.569	0.423	0.037
-378.902	-68.271	0.243	0.120
-377.888	800.000	0.055	0.280
-376.873	-25.640	0.057	0.043
-375.858	131.416	0.358	-0.591
-374.844	528.169	-0.131	0.399
-373.829	73.420	0.282	-0.379
-372.815	316.818	-0.155	-0.376
-371.800	338.061	-0.045	-0.112
-370.785	130.175	0.119	0.196
-369.771	396.379	-0.141	0.379
-368.756	-53.108	0.113	-0.066
-367.742	-17.458	0.276	-0.222
-366.727	82.147	-0.369	0.513
-365.712	558.472	-0.131	-0.408
-364.698	81.902	-0.299	-0.416
-363.683	-200.000	-0.000	-0.200
-362.669	-176.663	-0.729	0.023
-361.654	-35.420	0.265	0.184
-360.639	800.000	0.031	0.152
-359.625	250.672	0.132	-0.288
-358.610	79.344	-0.052	-0.072
-357.596	-5.984	0.180	0.158
-356.581	800.000	0.044	-0.234
-355.566	16.919	-0.142	-0.144
-354.552	73.201	-0.326	-0.437
-353.537	-122.176	-0.136	0.028
-352.523	-156.460	0.365	-0.029
-351.508	35.584	-0.223	-0.251
-350.493	-200.000	-0.037	-0.308
-349.479	-90.431	0.579	0.214
-348.464	95.361	0.114	0.166
-347.450	-75.558	0.225	-0.102
-346.435	-153.872	0.390	0.034
-345.420	-55.166	0.093	0.054
-344.406	29.042	-0.222	-0.241
-343.391	1.146	-0.301	-0.276
-342.377	-21.151	0.367	-0.287
-341.362	-3.571	-0.100	-0.089
-340.348	124.053	0.121	0.194
-339.333	-113.048	-0.526	0.132
-338.318	-122.114	0.118	0.025
-337.304	172.932	-0.188	-0.347
-336.289	800.000	0.059	0.299
-335.275	650.607	-0.090	0.296
-334.260	-49.968	0.137	-0.083
-333.245	-200.000	-0.035	0.425
-332.231	-6.591	0.202	-0.176
-331.216	-35.317	0.173	0.120
-330.202	-14.236	-0.266	0.219
-329.187	-116.529	0.368	-0.086
-328.172	93.483	0.212	-0.308
-327.158	284.989	-0.124	-0.288
-326.143	30.053	-0.247	-0.269
-325.129	-49.079	-0.405	-0.247
-324.114	-72.677	0.475	-0.223
-323.099	64.983	-0.344	-0.445
-322.085	-200.000	0.075	-0.432
-321.070	124.913	-0.059	-0.096
-320.056	-77.478	0.425	-0.188
-319.041	48.666	0.211	0.253
-318.026	-154.028	-0.248	-0.021
-317.012	-110.534	-0.224	-0.059
-315.997	5.054	-0.110	0.103
-314.983	800.000	-0.039	0.182
-313.968	-174.788	-0.206	-0.007
-312.953	800.000	0.061	0.322
-311.939	800.000	0.081	-0.344
-310.924	253.210	-0.071	0.155
-309.910	-61.158	-0.261	-0.140
-308.895	-97.748	-0.527	-0.173
-307.880	800.000	-0.041	-0.207
-306.866	52.940	-0.033	-0.040
-305.851	-29.803	0.304	-0.221
-304.837	-106.307	-0.083	0.024
-303.822	744.570	-0.128	-0.444
-302.807	-172.953	0.557	0.022
-301.793	31.088	-0.275	0.302
-300.778	-179.697	-0.386	0.010
-299.764	-124.120	0.412	0.082
-298.749	794.145	0.097	0.344
-297.735	70.814	-0.039	-0.051
-296.720	800.000	-0.081	-0.318
-295.705	-88.971	0.296	-0.111
-294.691	215.949	0.258	-0.525
-293.676	552.043	-0.019	-0.060
-292.662	423.577	0.062	-0.172
-291.647	180.782	0.165	-0.311
-290.632	85.481	0.387	-0.544
-289.618	103.122	-0.083	-0.125
-288.603	-172.650	-0.494	-0.019
-287.589	-78.258	-0.265	0.116
-286.574	-1.453	-0.198	0.178
-285.559	800.000	0.056	0.220
-284.545	138.046	0.184	-0.308
-283.530	-200.000	0.049	-0.374
-282.516	136.176	0.022	0.037
-281.501	61.188	0.342	0.435
-280.486	-0.399	0.217	0.197
-279.472	617.034	-0.109	0.352
-278.457	84.027	-0.159	0.222
-277.443	800.000	-0.020	-0.078
-276.428	-145.539	0.247	0.028
-275.413	473.878	0.102	0.294
-274.399	51.606	-0.189	0.230
-273.384	-16.063	-0.098	0.079
-272.370	-199.530	0.144	0.001
-271.355	-200.000	0.002	-0.095
-270.340	12.572	-0.072	0.071
-269.326	-20.200	-0.037	0.029
-268.311	281.447	-0.060	-0.138
-267.297	68.682	0.210	0.276
-266.282	-200.000	0.015	0.085
-265.267	-113.956	0.270	-0.066
-264.253	223.736	0.215	-0.443
-263.238	567.872	0.112	-0.350
-262.224	-71.852	-0.216	0.102
-261.209	-128.813	-0.331	0.059
-260.195	-200.000	0.023	-0.327
-259.180	-66.300	0.263	-0.133
-258.165	-11.537	-0.187	0.156
-257.151	-161.604	0.305	-0.020
-256.136	21.767	0.127	-0.132
-255.122	47.873	-0.090	0.108
-254.107	-62.536	-0.234	-0.124
-253.092	-200.000	-0.014	-0.249
-252.078	349.274	0.088	0.223
-251.063	-79.708	-0.545	-0.233
-250.049	-200.000	-0.011	-0.264
-249.034	-19.755	-0.244	-0.192
-248.019	-128.445	-0.353	0.063
-247.005	388.027	-0.066	-0.176
-245.990	431.543	-0.070	0.194
-244.976	-114.435	-0.413	0.100
-243.961	-65.943	-0.079	-0.040
-242.946	-33.416	-0.216	-0.152
-241.932	-24.536	0.259	0.196
-240.917	428.165	-0.269	0.745
-239.903	-200.000	0.031	-0.310
-238.888	-28.163	0.072	-0.053
-237.873	-200.000	-0.012	-0.288
-236.859	-38.757	0.042	0.028
-235.844	-200.000	0.022	-0.175
-234.830	37.798	-0.033	-0.037
-233.815	28.328	-0.242	-0.261
-232.800	-200.000	-0.021	-0.227
-231.786	-25.303	0.155	-0.117
-230.771	-124.229	-0.258	-0.051
-229.757	-200.000	-0.004	0.160
-228.742	41.231	-0.334	0.385
-227.727	-139.119	0.171	-0.023
-226.713	46.287	0.492	-0.581
-225.698	-192.969	0.506	-0.006
-224.684	-55.901	0.132	0.075
-223.669	-104.071	-0.209	-0.062
-222.655	-141.286	-0.349	-0.045
-221.640	160.041	-0.252	-0.448
-220.625	-200.000	0.016	0.507
-219.611	95.549	0.108	0.158
-218.596	-32.006	0.299	0.212
-217.582	-13.805	0.241	0.198
-216.567	-125.864	-0.520	-0.099
-215.552	165.984	-0.140	0.253
-214.538	-87.497	0.341	0.131
-213.523	24.764	0.190	0.200
-212.509	-151.912	0.617	-0.057
-211.494	190.479	0.171	0.328
-210.479	126.733	-0.119	0.193
-209.465	-54.695	0.412	0.237
-208.450	-200.000	-0.002	0.161
-207.436	85.880	0.099	0.138
-206.421	170.634	-0.102	-0.186
-205.406	195.061	0.230	-0.446
-204.392	-118.767	0.220	0.049
-203.377	-65.335	-0.154	-0.079
-202.363	195.267	0.125	0.243
-201.348	-200.000	-0.056	0.377
-200.333	-12.672	0.349	-0.289
-199.319	70.466	-0.232	0.306
-198.304	42.458	0.274	-0.317
-197.290	-107.649	-0.555	-0.153
-196.275	47.193	0.155	-0.184
-195.260	-200.000	0.162	-0.996
-194.246	800.000	-0.039	0.148
-193.231	77.733	-0.203	-0.276
-192.217	-98.313	0.539	-0.175
-191.202	-200.000	-0.001	-0.215
-190.187	-200.000	-0.036	0.291
-189.173	291.044	-0.175	-0.406
-188.158	-68.251	-0.358	-0.176
-187.144	800.000	0.086	0.316
-186.129	-200.000	0.004	-0.403
-185.114	-200.000	0.005	-0.579
-184.100	-200.000	-0.005	-0.030
-183.085	752.661	-0.053	-0.183
-182.071	-101.538	0.308	-0.095
-181.056	-83.816	0.347	-0.140
-180.042	-165.374	-0.136	-0.007
-179.027	12.901	0.189	0.186
-178.012	800.000	-0.058	-0.272
-176.998	39.601	0.126	0.143
-175.983	-26.746	0.194	-0.144
-174.969	791.844	0.099	0.347
-173.954	-151.306	0.177	-0.017
-172.939	800.000	0.091	-0.476
-171.925	-113.447	-0.197	0.049
-170.910	-115.844	0.098	0.023
-169.896	-53.867	-0.222	-0.128
-168.881	-200.000	-0.042	-0.710
-167.866	451.574	0.273	-0.770
-166.852	-101.810	-0.384	-0.117
-165.837	-200.000	-0.046	-0.353
-164.823	116.475	-0.230	0.360
-163.808	637.089	0.045	0.145
-162.793	-200.000	0.032	0.188
-161.779	232.377	-0.088	-0.184
-160.764	-12.909	-0.214	-0.177
-159.750	3.880	-0.115	0.107
-158.735	-121.955	0.381	0.079
-157.720	-104.226	0.110	-0.032
-156.706	-95.717	0.259	0.088
-155.691	-139.173	-0.344	-0.047
-154.677	800.000	-0.023	-0.124
-153.662	209.511	-0.126	-0.252
-152.647	-200.000	-0.001	0.020
-151.633	65.997	0.129	0.167
-150.618	53.745	-0.195	0.238
-149.604	189.536	0.245	0.469
-148.589	96.069	0.046	-0.066
-147.574	-147.518	0.228	0.024
-146.560	321.384	0.173	-0.420
-145.545	299.030	0.109	-0.256
-144.531	-49.832	0.328	-0.198
-143.516	800.000	-0.102	-0.392
-142.502	-200.000	0.023	-0.414
-141.487	-71.264	-0.312	0.148
-140.472	-200.000	0.005	-0.268
-139.458	339.938	-0.226	-0.563
-138.443	55.549	0.208	0.256
-137.429	133.397	-0.057	0.093
-136.414	-99.437	0.485	-0.154
-135.399	42.326	0.108	0.124
-134.385	60.494	0.073	0.092
-133.370	800.000	-0.128	0.523
-132.356	800.000	0.122	-0.433
-131.341	16.897	0.164	0.165
-130.326	-71.201	-0.495	0.235
-129.312	-53.120	-0.278	-0.162
-128.297	-76.004	0.528	0.236
-127.283	-88.885	0.182	0.068
-126.268	-184.260	0.680	0.014
-125.253	-200.000	-0.010	0.503
-124.239	-123.379	-0.234	0.047
-123.224	-144.077	-0.384	0.045
-122.210	68.083	0.228	-0.297
-121.195	-175.852	-0.151	-0.005
