DTS Sentinel unit serial number:	SN409020Multiplexer serial number:	ORYXHardware model number:	OX4-SRSoftware version number:	ORYX F/W v3.00 Oryx Data Collector v3.7.2.0data status	okinstallation	HaddamTimeLapsedifferential loss correction	single-endedforward channel	channel 3reverse channel	N/Adate	2011/06/21time	14:26:18forward acquisition time	30.00reverse acquisition time	0.00gamma	498.7831k internal	0.1830k external	0.1830temperature offset calibration	1.0074default loss term (dB/km)	0.3790temperature slope calibration	1.3530multiplexer offset coefficient	1.0000multiplexer slope coefficient	1.0000fibre end	0.00T internal ref (°C)	38.84T ext. ref 1 (°C)	29.19T ext. ref 2 (°C)	0.24length (m)	temperature (°C)	Stokes	anti-Stokes-747.200	50.421	-0.313	-0.377
-746.185	186.711	0.087	-0.165
-745.171	192.869	-0.209	-0.403
-744.156	-29.273	0.366	-0.266
-743.142	-72.779	0.183	-0.085
-742.127	225.919	-0.170	0.352
-741.112	800.000	0.062	0.306
-740.098	-70.049	0.668	0.322
-739.083	228.457	0.032	0.067
-738.069	-200.000	0.026	0.811
-737.054	-200.000	-0.029	-0.258
-736.039	-78.579	-0.249	0.108
-735.025	48.766	-0.293	-0.349
-734.010	-200.000	-0.015	-0.143
-732.996	-17.694	0.515	0.410
-731.981	768.231	0.203	0.705
-730.966	-179.265	0.152	-0.004
-729.952	547.632	-0.140	-0.427
-728.937	-200.000	0.015	-0.315
-727.923	125.881	0.227	-0.365
-726.908	-102.411	0.263	-0.080
-725.894	336.752	0.186	0.461
-724.879	139.097	-0.250	-0.419
-723.864	305.200	0.072	-0.170
-722.850	-63.081	0.305	-0.159
-721.835	-200.000	-0.003	-0.487
-720.821	46.148	0.196	-0.230
-719.806	-121.191	-0.188	0.040
-718.791	-168.800	-0.613	0.029
-717.777	-182.026	-0.226	-0.005
-716.762	-82.808	-0.276	-0.113
-715.748	41.124	-0.104	-0.119
-714.733	4.857	0.358	0.334
-713.718	-137.687	-0.603	-0.085
-712.704	-39.021	-0.264	0.176
-711.689	78.169	0.196	-0.266
-710.675	-200.000	-0.003	-0.578
-709.660	-150.955	0.461	0.044
-708.645	-129.726	-0.186	0.032
-707.631	-200.000	0.007	-0.343
-706.616	787.071	0.040	-0.139
-705.602	-182.788	-0.657	0.015
-704.587	195.341	-0.152	-0.294
-703.572	381.727	0.118	0.310
-702.558	-200.000	0.065	-0.485
-701.543	-200.000	-0.013	-0.098
-700.529	-58.976	-0.470	0.257
-699.514	-69.686	0.443	0.214
-698.499	12.676	-0.165	0.161
-697.485	-153.486	0.061	-0.005
-696.470	-191.682	0.061	-0.001
-695.456	-71.053	0.290	-0.138
-694.441	10.639	-0.202	-0.195
-693.426	183.026	-0.198	0.372
-692.412	-184.070	-0.122	0.003
-691.397	-76.937	-0.240	0.106
-690.383	-137.891	-0.186	-0.026
-689.368	-12.624	0.044	0.037
-688.354	28.850	0.190	0.204
-687.339	-51.635	0.438	-0.258
-686.324	-96.737	0.152	-0.050
-685.310	-200.000	-0.021	0.689
-684.295	-55.409	0.152	-0.086
-683.281	39.914	0.098	-0.112
-682.266	-152.502	-0.229	-0.021
-681.251	-79.927	-0.248	-0.105
-680.237	-200.000	0.006	-0.144
-679.222	134.949	0.130	-0.214
-678.208	-87.965	-0.164	-0.062
-677.193	-27.203	-0.342	-0.252
-676.178	-64.175	-0.439	0.226
-675.164	-37.905	0.273	-0.184
-674.149	37.790	-0.199	-0.224
-673.135	-200.000	0.084	-0.634
-672.120	37.061	0.297	0.333
-671.105	-190.162	-0.248	0.003
-670.091	-53.296	-0.265	-0.153
-669.076	76.925	-0.232	-0.313
-668.062	-52.748	-0.634	0.369
-667.047	43.604	-0.201	0.234
-666.032	185.652	0.127	-0.241
-665.018	800.000	-0.088	-0.382
-664.003	-200.000	-0.035	0.234
-662.989	-157.348	-0.377	0.028
-661.974	-65.219	0.138	0.070
-660.959	-146.594	0.429	-0.047
-659.945	-200.000	-0.048	-0.317
-658.930	-70.544	-0.175	-0.083
-657.916	-164.023	-0.465	-0.027
-656.901	-104.066	0.361	-0.106
-655.886	390.859	-0.120	0.317
-654.872	-113.480	-0.372	-0.092
-653.857	77.968	0.071	-0.096
-652.843	-61.349	-0.095	-0.051
-651.828	-147.575	-0.374	0.039
-650.814	34.257	-0.324	0.358
-649.799	-131.216	-0.330	-0.055
-648.784	61.945	0.199	-0.251
-647.770	-119.025	0.174	0.038
-646.755	398.211	0.083	0.221
-645.741	-68.559	-0.190	-0.093
-644.726	-157.365	-0.202	-0.015
-643.711	-73.158	-0.244	0.113
-642.697	196.319	0.302	0.583
-641.682	-89.363	0.080	0.030
-640.668	99.786	0.294	0.431
-639.653	-200.000	0.065	-0.474
-638.638	-200.000	-0.006	-0.045
-637.624	-200.000	0.012	0.134
-636.609	-91.311	0.383	-0.138
-635.595	-136.708	0.174	-0.025
-634.580	-157.945	-0.178	0.013
-633.565	95.497	0.244	-0.352
-632.551	-108.335	0.178	0.048
-631.536	-200.000	0.052	0.302
-630.522	250.336	-0.013	-0.027
-629.507	-86.243	-0.534	0.207
-628.492	60.383	-0.166	-0.208
-627.478	-77.576	-0.241	-0.105
-626.463	155.029	0.080	0.139
-625.449	-55.205	-0.179	-0.102
-624.434	54.818	-0.134	-0.163
-623.419	137.068	-0.144	-0.238
-622.405	-19.280	-0.254	0.199
-621.390	-127.884	-0.243	-0.044
-620.376	28.479	-0.201	-0.215
-619.361	79.964	0.023	0.032
-618.346	800.000	0.035	-0.189
-617.332	635.366	-0.065	-0.209
-616.317	-110.795	-0.496	-0.128
-615.303	800.000	-0.015	0.062
-614.288	-57.045	0.308	-0.171
-613.273	-94.922	0.266	0.090
-612.259	319.354	0.044	0.106
-611.244	138.025	-0.199	0.330
-610.230	19.043	-0.081	-0.082
-609.215	-200.000	-0.086	-0.570
-608.201	-144.053	-0.198	0.023
-607.186	800.000	0.066	-0.294
-606.171	1.210	-0.393	0.356
-605.157	-200.000	-0.034	0.205
-604.142	9.081	0.432	0.412
-603.128	439.836	0.057	0.159
-602.113	-122.155	-0.277	0.057
-601.098	-200.000	0.027	0.194
-600.084	-200.000	-0.082	0.685
-599.069	93.301	-0.255	0.365
-598.055	-132.594	-0.607	0.097
-597.040	800.000	0.156	0.591
-596.025	0.595	-0.454	0.410
-595.011	-150.480	0.199	0.019
-593.996	-141.694	0.469	0.059
-592.982	94.929	-0.089	-0.128
-591.967	800.000	0.017	-0.072
-590.952	-188.423	-0.504	0.008
-589.938	-200.000	0.024	-0.148
-588.923	-10.812	0.172	-0.143
-587.909	800.000	0.102	-0.455
-586.894	-26.778	-0.113	0.084
-585.879	-28.949	0.353	0.256
-584.865	-82.243	0.307	0.126
-583.850	-13.364	-0.252	-0.206
-582.836	35.214	-0.148	-0.164
-581.821	-67.363	0.395	0.195
-580.806	-200.000	0.012	0.157
-579.792	-99.416	0.539	0.170
-578.777	54.772	-0.211	0.258
-577.763	49.304	0.402	-0.478
-576.748	529.039	-0.073	0.218
-575.733	182.082	-0.039	-0.073
-574.719	-70.798	-0.462	-0.219
-573.704	-22.088	0.563	-0.431
-572.690	-66.732	0.717	-0.357
-571.675	52.435	0.191	-0.231
-570.661	-115.641	0.486	0.114
-569.646	41.518	0.143	-0.163
-568.631	-81.380	-0.311	0.129
-567.617	-137.593	0.218	0.031
-566.602	87.265	0.233	0.326
-565.588	-161.022	-0.486	-0.032
-564.573	-42.177	-0.285	0.184
-563.558	800.000	0.023	0.104
-562.544	-130.691	-0.201	0.034
-561.529	-29.811	-0.440	0.316
-560.515	800.000	-0.088	-0.385
-559.500	-36.286	-0.323	0.219
-558.485	292.472	0.102	0.236
-557.471	372.167	0.121	-0.312
-556.456	220.713	0.147	-0.298
-555.442	-82.166	0.276	0.113
-554.427	-12.844	0.445	0.365
-553.412	-80.628	-0.277	-0.116
-552.398	137.203	-0.313	-0.517
-551.383	117.428	0.063	-0.098
-550.369	-200.000	0.023	-0.445
-549.354	-108.773	-0.197	-0.053
-548.339	618.720	0.111	-0.355
-547.325	-200.000	0.024	-0.257
-546.310	139.811	0.091	0.151
-545.296	-85.812	0.142	-0.055
-544.281	-200.000	-0.022	0.294
-543.266	-45.679	0.136	-0.085
-542.252	-12.138	0.298	-0.246
-541.237	-30.520	-0.263	-0.187
-540.223	-108.883	0.118	0.032
-539.208	485.945	-0.090	0.261
-538.193	40.043	-0.036	-0.041
-537.179	-10.642	-0.039	0.033
-536.164	513.302	0.088	-0.260
-535.150	800.000	0.152	0.560
-534.135	43.441	0.247	0.285
-533.121	-82.205	0.018	0.007
-532.106	213.430	0.084	0.168
-531.091	-141.954	0.324	-0.040
-530.077	800.000	0.009	0.042
-529.062	-200.000	0.039	0.434
-528.048	-110.573	-0.120	0.031
-527.033	-89.168	0.240	0.089
-526.018	-82.801	-0.220	-0.089
-525.004	440.565	0.102	-0.283
-523.989	60.840	-0.160	-0.201
-522.975	69.869	-0.190	-0.247
-521.960	-66.020	-0.303	-0.152
-520.945	-73.222	-0.217	-0.100
-519.931	322.908	0.049	0.117
-518.916	800.000	0.055	-0.193
-517.902	-92.540	0.225	0.079
-516.887	444.646	-0.170	0.472
-515.872	800.000	0.070	-0.279
-514.858	-99.776	0.249	0.078
-513.843	40.328	0.300	-0.341
-512.829	71.326	-0.111	-0.145
-511.814	37.804	0.170	0.190
-510.799	-120.989	0.278	0.058
-509.785	800.000	0.101	-0.411
-508.770	800.000	-0.121	-0.612
-507.756	-67.668	0.210	-0.103
-506.741	35.215	-0.228	0.252
-505.726	159.219	0.197	0.345
-504.712	-140.880	0.440	0.056
-503.697	-131.889	-0.283	0.046
-502.683	110.879	-0.349	0.529
-501.668	63.611	-0.265	-0.335
-500.653	32.528	0.242	0.263
-499.639	107.424	-0.102	-0.153
-498.624	-110.210	0.407	-0.106
-497.610	-180.126	0.596	0.016
-496.595	-196.266	-0.130	0.001
-495.581	-154.183	-0.391	0.033
-494.566	133.610	0.103	0.169
-493.551	104.933	0.130	-0.193
-492.537	-200.000	-0.031	-0.362
-491.522	-131.219	0.274	0.045
-490.508	-56.295	-0.394	-0.220
-489.493	354.586	-0.129	0.324
-488.478	608.768	0.076	-0.241
-487.464	-118.581	0.127	-0.028
-486.449	79.307	0.223	-0.301
-485.435	-80.123	-0.580	0.244
-484.420	-169.497	-0.234	-0.011
-483.405	-35.188	-0.240	0.164
-482.391	99.430	0.148	-0.216
-481.376	-200.000	0.035	-0.240
-480.362	82.261	-0.173	-0.236
-479.347	-200.000	0.019	0.111
-478.332	-200.000	0.061	-0.382
-477.318	-74.704	0.468	-0.211
-476.303	29.608	0.486	-0.521
-475.289	85.341	-0.132	0.182
-474.274	22.727	0.077	-0.080
-473.259	-97.938	0.291	0.094
-472.245	43.164	-0.179	0.206
-471.230	148.279	0.364	-0.620
-470.216	536.359	0.085	-0.254
-469.201	16.110	-0.087	0.086
-468.186	203.587	-0.065	-0.126
-467.172	18.291	0.190	-0.191
-466.157	-119.630	0.040	0.009
-465.143	-135.636	-0.375	-0.055
-464.128	-200.000	-0.031	0.492
-463.113	-30.228	0.332	0.237
-462.099	-75.890	-0.164	-0.073
-461.084	-13.186	-0.232	-0.189
-460.070	-1.669	-0.367	-0.325
-459.055	162.686	-0.252	-0.445
-458.040	-164.303	0.211	0.012
-457.026	-109.208	0.112	-0.030
-456.011	172.265	0.039	0.070
-454.997	123.190	0.363	0.573
-453.982	17.951	0.181	-0.181
-452.968	-3.442	-0.307	-0.269
-451.953	-152.500	0.143	-0.013
-450.938	-120.490	0.441	-0.093
-449.924	451.938	-0.087	-0.243
-448.909	653.807	-0.075	-0.242
-447.895	140.314	0.019	-0.031
-446.880	-180.170	-0.587	-0.015
-445.865	3.517	0.228	0.209
-444.851	-75.293	0.348	-0.155
-443.836	-46.060	-0.427	-0.264
-442.822	-200.000	-0.017	-0.204
-441.807	-99.036	-0.284	0.090
-440.792	800.000	-0.051	0.257
-439.778	454.053	0.049	0.138
-438.763	71.845	0.237	0.310
-437.749	-16.253	0.060	0.048
-436.734	-200.000	-0.013	-0.191
-435.719	141.638	-0.188	-0.313
-434.705	-51.201	-0.158	0.092
-433.690	-96.957	-0.121	0.039
-432.676	-200.000	0.128	0.803
-431.661	-44.876	-0.249	0.155
-430.646	-200.000	-0.073	0.441
-429.632	249.818	-0.121	-0.259
-428.617	-87.487	-0.368	-0.139
-427.603	-200.000	-0.035	-0.493
-426.588	-200.000	0.103	0.000
-425.573	-98.498	-0.259	-0.083
-424.559	-124.643	-0.341	0.066
-423.544	47.397	-0.514	0.602
-422.530	3.166	0.386	0.352
-421.515	-200.000	0.008	0.464
-420.500	194.906	0.140	0.267
-419.486	61.149	0.037	-0.046
-418.471	96.556	-0.378	0.544
-417.457	-197.405	-0.337	0.003
-416.442	349.119	-0.018	-0.044
-415.428	-21.609	-0.340	0.259
-414.413	-91.739	0.535	0.190
-413.398	-200.000	0.002	-0.111
-412.384	50.497	0.146	-0.173
-411.369	-127.010	-0.059	-0.011
-410.355	415.792	0.197	0.531
-409.340	-156.628	0.399	0.031
-408.325	12.460	-0.193	0.186
-407.311	800.000	0.049	-0.190
-406.296	64.416	0.249	-0.315
-405.282	23.793	0.101	0.104
-404.267	3.285	-0.097	-0.089
-403.252	-128.735	-0.299	0.052
-402.238	-200.000	0.013	0.350
-401.223	-148.238	-0.346	0.035
-400.209	-200.000	0.012	-0.119
-399.194	153.673	0.164	-0.283
-398.179	-63.928	0.302	-0.154
-397.165	238.777	-0.251	0.526
-396.150	-142.916	-0.437	0.053
-395.136	74.487	0.076	0.101
-394.121	211.482	-0.122	0.242
-393.106	-56.749	-0.303	-0.168
-392.092	-200.000	0.024	-0.306
-391.077	-200.000	0.013	0.206
-390.063	128.353	-0.087	-0.139
-389.048	-108.488	0.121	0.032
-388.033	60.970	-0.410	-0.510
-387.019	-116.494	-0.122	0.028
-386.004	-47.585	0.345	-0.209
-384.990	-136.106	-0.323	-0.047
-383.975	-200.000	-0.022	0.162
-382.960	-136.702	0.538	0.077
-381.946	-93.050	0.102	0.035
-380.931	390.000	-0.006	0.016
-379.917	800.000	-0.088	0.424
-378.902	629.854	-0.183	0.584
-377.888	-77.233	0.270	0.117
-376.873	37.937	0.231	-0.257
-375.858	-13.969	0.220	-0.177
-374.844	337.335	-0.122	-0.298
-373.829	800.000	0.076	-0.359
-372.815	-34.816	-0.392	0.268
-371.800	238.065	-0.108	0.226
-370.785	-156.470	-0.054	-0.004
-369.771	-104.659	-0.479	-0.137
-368.756	222.130	-0.223	0.451
-367.742	75.246	0.184	0.243
-366.727	-74.605	0.233	0.105
-365.712	-148.500	0.522	-0.053
-364.698	126.565	-0.182	0.289
-363.683	-139.471	0.428	-0.057
-362.669	-153.801	0.297	0.025
-361.654	139.902	-0.108	-0.179
-360.639	-5.583	-0.034	0.029
-359.625	53.599	0.380	-0.456
-358.610	-87.524	0.418	0.157
-357.596	-140.085	-0.136	0.018
-356.581	349.655	0.161	0.399
-355.566	71.003	0.143	-0.186
-354.552	58.164	0.106	0.130
-353.537	49.887	-0.326	0.385
-352.523	-136.416	-0.333	0.048
-351.508	-15.971	-0.072	0.057
-350.493	800.000	0.139	0.610
-349.479	-130.632	0.215	0.036
-348.464	-200.000	0.227	0.001
-347.450	-95.647	-0.082	-0.027
-346.435	-49.260	0.397	-0.237
-345.420	-200.000	0.099	0.567
-344.406	-200.000	-0.011	-0.422
-343.391	100.523	-0.158	-0.230
-342.377	-148.897	-0.267	0.027
-341.362	242.348	-0.158	-0.332
-340.348	-103.778	0.269	-0.078
-339.333	-73.621	-0.229	-0.104
-338.318	271.683	-0.202	-0.447
-337.304	-200.000	0.011	-0.103
-336.289	-70.712	-0.470	-0.221
-335.275	-7.698	-0.321	0.271
-334.260	80.150	-0.062	-0.083
-333.245	716.065	-0.043	0.142
-332.231	800.000	-0.108	-0.538
-331.216	8.282	0.236	-0.221
-330.202	-0.052	-0.083	-0.074
-329.187	-46.756	-0.270	-0.165
-328.172	800.000	-0.054	0.208
-327.158	-200.000	-0.027	-0.586
-326.143	241.060	-0.192	-0.401
-325.129	-100.235	-0.424	0.131
-324.114	117.047	-0.126	0.194
-323.099	242.166	-0.150	0.314
-322.085	-103.764	-0.184	-0.053
-321.070	-166.134	-0.351	0.018
-320.056	288.381	0.257	0.584
-319.041	800.000	0.049	-0.226
-318.026	-38.456	0.327	0.216
-317.012	-8.707	-0.190	-0.160
-315.997	-105.099	-0.301	-0.085
-314.983	197.120	-0.198	0.378
-313.968	-148.988	0.702	0.070
-312.953	135.237	-0.227	-0.369
-311.939	-20.965	-0.129	-0.099
-310.924	800.000	0.021	0.112
-309.910	-81.826	0.363	-0.148
-308.895	-82.937	0.207	0.083
-307.880	52.581	-0.031	0.037
-306.866	405.041	-0.119	0.316
-305.851	-69.233	-0.195	0.093
-304.837	214.501	-0.213	0.423
-303.822	-130.423	0.201	0.034
-302.807	-200.000	-0.042	0.430
-301.793	94.331	-0.144	0.204
-300.778	94.114	0.313	-0.445
-299.764	-123.180	-0.103	-0.020
-298.749	-9.725	0.305	0.254
-297.735	-184.246	0.386	-0.008
-296.720	29.270	-0.196	0.208
-295.705	204.756	0.135	-0.262
-294.691	-44.049	0.142	0.089
-293.676	-54.913	0.219	-0.123
-292.662	-186.939	-0.229	-0.004
-291.647	-200.000	0.043	0.253
-290.632	76.161	-0.047	-0.062
-289.618	-119.824	0.135	-0.029
-288.603	143.835	0.155	0.259
-287.589	125.089	-0.062	-0.098
-286.574	-61.790	0.292	0.152
-285.559	-123.942	-0.254	-0.049
-284.545	800.000	-0.036	-0.132
-283.530	67.558	0.087	0.111
-282.516	-93.509	-0.358	-0.123
-281.501	-200.000	-0.015	-0.607
-280.486	519.353	0.080	0.235
-279.472	-152.197	-0.245	0.022
-278.457	-88.964	-0.053	0.019
-277.443	-68.477	-0.447	-0.215
-276.428	-125.623	0.383	0.072
-275.413	-198.878	0.189	0.001
-274.399	-96.589	-0.132	0.043
-273.384	800.000	0.133	0.483
-272.370	-96.458	-0.196	0.064
-271.355	800.000	-0.024	-0.132
-270.340	221.857	-0.125	0.252
-269.326	343.945	-0.205	0.504
-268.311	-88.911	-0.442	-0.162
-267.297	-119.895	0.065	0.014
-266.282	-98.238	0.569	0.181
-265.267	27.834	0.263	0.276
-264.253	-78.846	0.219	-0.093
-263.238	-117.248	0.481	-0.108
-262.224	176.748	-0.110	0.201
-261.209	794.303	-0.118	-0.408
-260.195	59.480	0.142	-0.174
-259.180	-60.820	0.165	-0.087
-258.165	105.810	0.350	-0.517
-257.151	-163.023	0.697	0.041
-256.136	-71.963	-0.067	-0.031
-255.122	-37.346	-0.596	-0.396
-254.107	22.444	-0.147	-0.150
-253.092	-88.439	0.282	0.104
-252.078	72.656	-0.200	0.260
-251.063	-200.000	-0.009	-0.131
-250.049	-111.388	0.315	-0.079
-249.034	-175.574	0.468	-0.016
-248.019	-50.797	0.360	0.210
-247.005	-72.360	-0.047	0.022
-245.990	-11.600	-0.200	-0.163
-244.976	48.812	-0.189	0.221
-243.961	-4.230	0.310	-0.267
-242.946	-104.036	0.152	-0.044
-241.932	-97.889	-0.228	0.073
-240.917	270.171	-0.116	0.256
-239.903	-122.956	-0.366	0.073
-238.888	-143.199	-0.244	-0.029
-237.873	-95.282	-0.247	-0.082
-236.859	230.522	0.131	0.268
-235.844	33.901	0.093	-0.101
-234.830	-66.124	0.266	-0.132
-233.815	-200.000	0.011	0.501
-232.800	202.162	-0.093	-0.180
-231.786	-58.188	-0.141	-0.076
-230.771	-200.000	-0.002	0.478
-229.757	-200.000	-0.031	-0.207
-228.742	32.131	-0.290	0.312
-227.727	-200.000	-0.011	0.628
-226.713	800.000	0.046	0.201
-225.698	-47.482	-0.349	0.210
-224.684	290.694	0.192	-0.435
-223.669	-119.706	0.354	0.076
-222.655	101.560	-0.382	0.556
-221.640	28.456	-0.266	-0.280
-220.625	81.616	0.222	0.300
-219.611	132.765	0.255	0.410
-218.596	-7.191	-0.242	0.204
-217.582	-99.985	0.234	-0.072
-216.567	-76.977	-0.141	-0.061
-215.552	800.000	-0.103	-0.367
-214.538	786.184	-0.106	-0.363
-213.523	199.183	-0.126	-0.241
-212.509	641.136	-0.041	0.131
-211.494	-200.000	0.011	-0.799
-210.479	52.205	-0.228	-0.271
-209.465	-47.147	-0.242	0.146
-208.450	-159.705	0.427	0.029
-207.436	64.374	-0.322	0.404
-206.421	800.000	-0.068	-0.301
-205.406	213.171	-0.083	-0.163
-204.392	-200.000	0.078	-0.447
-203.377	-200.000	0.014	-0.274
-202.363	795.155	0.005	0.016
-201.348	-55.177	-0.458	0.256
-200.333	-200.000	-0.002	0.171
-199.319	143.442	0.280	0.465
-198.304	80.792	0.120	0.161
-197.290	-22.851	-0.469	-0.352
-196.275	-83.369	0.120	-0.047
-195.260	-158.840	-0.177	0.012
-194.246	57.493	0.025	0.031
-193.231	800.000	-0.075	-0.302
-192.217	800.000	0.059	-0.286
-191.202	-1.539	0.394	0.345
-190.187	-109.135	0.201	0.053
-189.173	504.112	-0.041	-0.118
-188.158	84.603	0.432	0.589
-187.144	161.238	0.202	-0.353
-186.129	-118.646	0.349	0.076
-185.114	-163.560	0.226	0.013
-184.100	-117.167	-0.141	-0.032
-183.085	109.691	0.141	-0.210
-182.071	-19.673	0.514	0.395
-181.056	67.746	0.304	0.387
-180.042	53.154	-0.069	-0.083
-179.027	-136.699	0.326	0.046
-178.012	604.912	-0.110	-0.343
-176.998	130.436	0.243	-0.387
-175.983	133.977	0.069	-0.111
-174.969	197.755	-0.045	0.086
-173.954	443.923	-0.063	-0.173
-172.939	2.026	-0.143	-0.128
-171.925	432.413	0.165	-0.446
-170.910	-36.617	0.115	0.076
-169.896	-136.844	-0.187	-0.026
-168.881	99.599	-0.412	0.594
-167.866	-25.259	-0.234	-0.172
-166.852	-200.000	-0.026	0.145
-165.837	-200.000	0.060	-0.384
-164.823	90.511	0.435	-0.605
-163.808	-138.167	0.024	0.003
-162.793	-99.204	-0.098	0.031
-161.779	-119.841	-0.500	-0.106
-160.764	800.000	-0.106	-0.426
-159.750	-0.718	0.407	0.358
-158.735	-115.776	0.237	-0.055
-157.720	-40.819	-0.170	0.109
-156.706	552.348	0.191	0.574
-155.691	45.972	-0.182	0.210
-154.677	455.614	0.209	-0.579
-153.662	-177.071	-0.719	-0.022
-152.647	-200.000	-0.020	-0.155
-151.633	422.213	-0.267	-0.714
-150.618	-136.243	0.458	0.066
-149.604	-120.645	0.290	0.060
-148.589	40.621	0.269	-0.301
-147.574	-46.289	0.377	-0.230
-146.560	-106.989	0.128	-0.035
-145.545	-139.396	0.132	-0.017
-144.531	383.213	0.100	0.256
-143.516	800.000	-0.023	0.119
-142.502	-90.490	0.110	0.039
-141.487	-109.375	0.199	-0.052
-140.472	-126.477	-0.252	0.046
-139.458	-5.210	0.298	0.254
-138.443	-110.790	-0.276	0.070
-137.429	307.746	0.256	-0.594
-136.414	-106.580	-0.489	-0.134
-135.399	-124.744	-0.256	0.049
-134.385	264.058	0.100	0.216
-133.370	-183.235	0.542	-0.012
-132.356	-109.965	-0.304	-0.078
-131.341	188.249	-0.198	-0.368
-130.326	-34.796	0.155	-0.105
-129.312	-41.490	-0.176	0.112
-128.297	-3.105	0.220	0.191
-127.283	-158.192	-0.365	0.026
-126.268	-157.947	0.108	0.008
-125.253	-147.645	0.189	-0.019
-124.239	190.036	0.098	-0.183
-123.224	-71.615	-0.147	-0.068
-122.210	71.379	0.176	0.227
