DTS Sentinel unit serial number:	SN409020Multiplexer serial number:	ORYXHardware model number:	OX4-SRSoftware version number:	ORYX F/W v3.00 Oryx Data Collector v3.7.2.0data status	okinstallation	HaddamTimeLapsedifferential loss correction	single-endedforward channel	channel 3reverse channel	N/Adate	2011/06/22time	02:11:17forward acquisition time	30.00reverse acquisition time	0.00gamma	498.7831k internal	0.1751k external	0.1751temperature offset calibration	1.0074default loss term (dB/km)	0.3790temperature slope calibration	1.3530multiplexer offset coefficient	1.0000multiplexer slope coefficient	1.0000fibre end	0.00T internal ref (°C)	22.44T ext. ref 1 (°C)	17.61T ext. ref 2 (°C)	0.02length (m)	temperature (°C)	Stokes	anti-Stokes-747.200	440.896	0.144	-0.421
-746.185	-140.899	0.047	0.006
-745.171	28.174	-0.451	-0.505
-744.156	-77.644	0.671	0.307
-743.142	27.096	-0.357	0.398
-742.127	62.343	-0.237	0.314
-741.112	-65.870	-0.221	0.117
-740.098	280.642	-0.260	0.619
-739.083	800.000	-0.033	0.194
-738.069	800.000	0.073	0.335
-737.054	-85.178	-0.511	-0.211
-736.039	-200.000	0.067	0.526
-735.025	-1.375	-0.342	0.320
-734.010	-31.263	-0.327	0.244
-732.996	74.683	-0.267	-0.373
-731.981	-86.426	0.267	-0.108
-730.966	335.503	0.148	0.384
-729.952	-84.766	-0.254	0.105
-728.937	-4.976	-0.538	-0.491
-727.923	34.669	0.185	-0.214
-726.908	-101.454	0.119	0.038
-725.894	-104.742	-0.214	-0.065
-724.879	-102.883	-0.263	-0.082
-723.864	-65.971	0.781	0.412
-722.850	-86.104	-0.593	0.242
-721.835	196.249	0.213	0.432
-720.821	176.180	0.098	-0.190
-719.806	161.717	-0.125	-0.233
-718.791	-146.363	-0.472	-0.054
-717.777	408.177	-0.082	0.232
-716.762	-89.641	0.319	-0.123
-715.748	66.784	0.115	-0.156
-714.733	436.048	-0.113	-0.327
-713.718	-102.824	0.299	-0.094
-712.704	636.651	0.146	-0.496
-711.689	-91.949	-0.496	0.185
-710.675	-121.672	-0.348	-0.076
-709.660	-14.594	0.174	-0.149
-708.645	-28.232	-0.443	0.339
-707.631	5.467	-0.144	0.141
-706.616	-118.975	-0.490	-0.113
-705.602	27.255	-0.217	0.242
-704.587	800.000	-0.063	0.234
-703.572	-39.569	-0.382	-0.264
-702.558	-169.514	-0.416	0.020
-701.543	-24.821	-0.337	0.265
-700.529	21.722	0.090	-0.097
-699.514	-10.010	0.067	0.059
-698.499	-200.000	-0.011	0.205
-697.485	-200.000	-0.025	-0.179
-696.470	-90.117	-0.316	0.121
-695.456	-72.098	0.482	-0.236
-694.441	49.197	-0.232	-0.290
-693.426	-163.074	-0.207	0.013
-692.412	143.564	0.007	0.013
-691.397	-73.451	-0.281	-0.135
-690.383	46.770	0.312	-0.384
-689.368	332.881	-0.087	-0.224
-688.354	-176.262	0.258	0.009
-687.339	-100.597	0.261	0.085
-686.324	-21.659	-0.154	-0.124
-685.310	-144.741	0.390	-0.047
-684.295	-191.659	-0.542	0.007
-683.281	-24.462	-0.265	0.209
-682.266	-5.833	-0.581	-0.527
-681.251	26.210	0.099	0.110
-680.237	800.000	0.006	0.034
-679.222	-43.854	-0.158	-0.105
-678.208	-93.191	-0.167	0.061
-677.193	417.590	0.122	-0.347
-676.178	6.271	0.137	-0.135
-675.164	-70.389	-0.233	-0.117
-674.149	53.491	-0.437	-0.556
-673.135	-200.000	0.016	-0.405
-672.120	-200.000	-0.079	0.613
-671.105	-200.000	0.019	0.160
-670.091	-70.411	-0.336	-0.168
-669.076	-94.208	-0.120	-0.043
-668.062	60.592	0.180	-0.236
-667.047	-55.665	-0.152	-0.090
-666.032	-6.652	0.534	-0.481
-665.018	30.542	0.290	-0.328
-664.003	-29.926	-0.162	-0.122
-662.989	43.400	-0.194	-0.235
-661.974	-38.813	-0.194	-0.135
-660.959	-141.070	-0.036	0.005
-659.945	185.685	0.100	0.197
-658.930	198.260	-0.118	0.240
-657.916	465.950	0.067	-0.200
-656.901	800.000	0.051	0.217
-655.886	637.465	0.110	-0.373
-654.872	-200.000	0.053	-0.487
-653.857	-157.545	-0.420	0.033
-652.843	93.604	0.188	0.282
-651.828	543.209	0.144	0.458
-650.814	17.671	0.441	0.464
-649.799	-90.712	0.074	0.028
-648.784	-135.427	-0.346	0.054
-647.770	-102.024	0.163	-0.052
-646.755	-102.553	-0.213	0.067
-645.741	-98.426	-0.288	-0.097
-644.726	59.876	0.238	-0.311
-643.711	-125.575	-0.323	0.064
-642.697	-82.323	-0.058	0.025
-641.682	-40.937	-0.149	0.102
-640.668	326.842	0.039	0.100
-639.653	-8.491	0.429	0.381
-638.638	-11.555	0.172	0.150
-637.624	309.892	-0.090	-0.224
-636.609	138.845	0.316	-0.550
-635.595	800.000	-0.090	-0.399
-634.580	193.318	0.157	-0.315
-633.565	34.083	0.189	-0.218
-632.551	527.125	-0.080	0.251
-631.536	33.329	-0.091	0.104
-630.522	-95.878	-0.503	0.176
-629.507	-129.976	-0.178	0.032
-628.492	-200.000	0.051	0.372
-627.478	325.986	-0.103	0.261
-626.463	323.265	0.114	0.288
-625.449	62.092	-0.134	-0.177
-624.434	94.579	-0.255	-0.383
-623.419	-194.703	-0.580	-0.006
-622.405	223.724	-0.071	-0.152
-621.390	-83.956	0.097	0.040
-620.376	-110.416	-0.057	-0.015
-619.361	292.327	-0.134	0.323
-618.346	8.517	0.131	0.130
-617.332	-54.435	-0.474	-0.283
-616.317	-77.544	0.108	-0.049
-615.303	-24.501	-0.279	-0.219
-614.288	4.584	0.167	-0.162
-613.273	-139.081	0.187	0.026
-612.259	-132.494	-0.374	-0.063
-611.244	-125.319	-0.367	0.073
-610.230	111.456	0.076	-0.121
-609.215	705.692	-0.043	-0.152
-608.201	8.672	0.251	-0.250
-607.186	-200.000	0.001	0.087
-606.171	-66.669	0.567	0.296
-605.157	-200.000	-0.030	-0.343
-604.142	-72.554	-0.159	-0.077
-603.128	5.170	-0.440	0.428
-602.113	-118.176	-0.138	0.032
-601.098	-76.869	0.271	-0.124
-600.084	183.961	0.029	-0.057
-599.069	141.825	-0.084	0.147
-598.055	-81.625	0.404	-0.174
-597.040	-104.885	-0.446	0.134
-596.025	-52.061	0.316	0.193
-595.011	-138.956	0.422	-0.060
-593.996	193.145	0.248	0.497
-592.982	800.000	0.087	0.453
-591.967	315.768	0.047	0.118
-590.952	-50.141	-0.212	-0.132
-589.938	-127.609	-0.094	0.018
-588.923	523.572	-0.089	0.277
-587.909	800.000	-0.053	-0.211
-586.894	-120.137	0.393	0.088
-585.879	189.927	-0.142	-0.283
-584.865	372.324	-0.160	0.431
-583.850	177.423	0.076	-0.146
-582.836	119.109	-0.028	-0.046
-581.821	-16.417	-0.242	0.202
-580.806	149.880	0.117	0.210
-579.792	-34.307	-0.103	0.074
-578.777	5.185	-0.101	0.098
-577.763	0.492	-0.108	0.102
-576.748	62.269	0.299	-0.394
-575.733	800.000	-0.075	0.395
-574.719	800.000	0.029	-0.130
-573.704	-87.003	-0.399	-0.160
-572.690	127.998	-0.026	-0.043
-571.675	256.637	0.147	-0.333
-570.661	-200.000	0.010	0.377
-569.646	-200.000	0.004	0.645
-568.631	-49.217	-0.160	-0.101
-567.617	-49.731	-0.107	0.067
-566.602	800.000	0.130	0.516
-565.588	-94.056	-0.320	-0.115
-564.573	198.109	0.232	-0.469
-563.558	110.683	-0.088	0.140
-562.544	-47.883	0.501	0.319
-561.529	800.000	0.077	-0.335
-560.515	315.305	-0.227	-0.566
-559.500	4.312	-0.193	-0.186
-558.485	-20.495	-0.436	-0.353
-557.471	-85.447	-0.476	-0.194
-556.456	-118.714	-0.390	0.090
-555.442	800.000	-0.055	0.251
-554.427	-78.743	0.099	0.044
-553.412	182.023	-0.185	0.360
-552.398	-91.794	-0.293	0.109
-551.383	-28.240	0.438	-0.333
-550.369	800.000	0.073	-0.416
-549.354	-15.683	0.249	-0.209
-548.339	147.956	0.218	-0.388
-547.325	800.000	0.100	-0.483
-546.310	-200.000	0.040	-0.391
-545.296	4.165	-0.238	0.229
-544.281	118.532	-0.033	0.054
-543.266	-200.000	-0.008	-0.208
-542.252	-90.406	-0.394	-0.150
-541.237	-200.000	-0.042	-0.519
-540.223	-200.000	0.119	0.760
-539.208	0.027	0.152	-0.142
-538.193	-104.461	0.621	0.188
-537.179	-30.221	0.197	-0.148
-536.164	-47.577	-0.138	0.088
-535.150	241.396	-0.196	0.433
-534.135	-62.978	0.204	0.111
-533.121	-99.209	-0.175	-0.058
-532.106	-200.000	-0.016	0.329
-531.091	-200.000	-0.007	0.169
-530.077	-200.000	-0.010	-0.671
-529.062	-200.000	0.074	0.459
-528.048	-18.906	-0.209	0.171
-527.033	-88.626	0.291	-0.114
-526.018	81.000	0.077	0.109
-525.004	-144.296	0.139	0.017
-523.989	-200.000	0.042	0.310
-522.975	104.308	0.343	-0.532
-521.960	-90.403	-0.236	-0.090
-520.945	133.378	0.115	0.196
-519.931	238.771	0.212	0.466
-518.916	-157.729	0.402	-0.031
-517.902	-200.000	-0.028	-0.465
-516.887	-110.938	0.072	0.019
-515.872	20.017	-0.193	0.204
-514.858	242.452	-0.080	-0.177
-513.843	800.000	0.066	0.330
-512.829	165.644	0.128	0.239
-511.814	-41.904	-0.379	0.255
-510.799	-70.779	-0.544	0.269
-509.785	-114.117	-0.325	-0.082
-508.770	193.267	0.154	0.307
-507.756	198.155	-0.103	-0.208
-506.741	50.974	0.216	0.269
-505.726	-155.438	0.359	0.030
-504.712	593.176	-0.179	0.585
-503.697	22.911	-0.157	-0.170
-502.683	-21.372	-0.378	0.303
-501.668	-139.551	0.117	0.016
-500.653	-200.000	-0.046	-0.414
-499.639	-200.000	0.110	-0.736
-498.624	800.000	0.075	-0.362
-497.610	800.000	-0.016	-0.081
-496.595	-200.000	-0.008	-0.180
-495.581	800.000	-0.110	-0.418
-494.566	-2.902	-0.134	0.123
-493.551	252.037	-0.231	0.519
-492.537	413.766	0.045	-0.125
-491.522	800.000	-0.029	0.120
-490.508	800.000	-0.075	-0.312
-489.493	46.556	0.309	-0.378
-488.478	276.759	-0.127	-0.298
-487.464	800.000	0.015	0.076
-486.449	330.712	-0.148	0.376
-485.435	-39.066	-0.294	-0.203
-484.420	-99.358	-0.180	-0.059
-483.405	125.687	-0.201	0.335
-482.391	-28.569	0.181	0.137
-481.376	164.210	-0.123	0.229
-480.362	-200.000	0.007	-0.106
-479.347	166.773	-0.078	-0.145
-478.332	-200.000	0.004	0.236
-477.318	-29.344	0.273	0.205
-476.303	800.000	-0.050	-0.235
-475.289	133.682	-0.176	0.299
-474.274	270.764	0.066	-0.152
-473.259	-90.532	0.244	-0.092
-472.245	-52.923	-0.123	-0.074
-471.230	81.105	-0.071	0.101
-470.216	800.000	-0.064	-0.314
-469.201	-48.391	-0.245	0.155
-468.186	-47.373	0.453	-0.289
-467.172	800.000	0.074	-0.282
-466.157	-71.278	-0.103	-0.050
-465.143	243.857	-0.184	0.407
-464.128	-127.793	-0.285	0.054
-463.113	201.623	-0.179	0.364
-462.099	96.268	0.030	0.045
-461.084	215.145	0.215	-0.450
-460.070	-139.734	-0.259	0.036
-459.055	-130.837	-0.185	-0.032
-458.040	800.000	0.104	0.391
-457.026	-78.737	-0.423	-0.189
-456.011	-1.096	-0.274	0.254
-454.997	560.349	0.073	0.232
-453.982	-139.541	-0.067	0.009
-452.968	-200.000	-0.058	-0.489
-451.953	800.000	0.090	-0.466
-450.938	175.285	0.045	-0.086
-449.924	-149.412	0.598	0.062
-448.909	-153.119	0.095	0.009
-447.895	-76.924	-0.247	-0.113
-446.880	-46.677	-0.172	-0.110
-445.865	138.221	-0.071	0.122
-444.851	240.816	0.021	-0.045
-443.836	14.188	0.039	0.040
-442.822	-45.164	0.219	-0.143
-441.807	800.000	0.086	-0.422
-440.792	121.587	-0.198	0.324
-439.778	-200.000	0.790	0.005
-438.763	-104.990	0.291	-0.087
-437.749	-4.560	-0.120	0.109
-436.734	-83.134	0.091	0.038
-435.719	55.829	-0.383	-0.488
-434.705	201.551	-0.085	-0.173
-433.690	-106.036	0.404	0.118
-432.676	5.860	0.434	0.421
-431.661	-104.725	0.248	0.074
-430.646	-122.146	0.194	-0.041
-429.632	-147.126	-0.109	0.012
-428.617	-61.517	-0.164	-0.090
-427.603	114.158	-0.205	-0.328
-426.588	800.000	-0.034	-0.137
-425.573	639.572	-0.133	0.445
-424.559	-71.943	-0.776	-0.377
-423.544	202.051	-0.214	0.435
-422.530	-200.000	0.005	0.136
-421.515	747.187	0.139	-0.496
-420.500	69.767	0.310	-0.420
-419.486	39.175	-0.208	-0.245
-418.471	264.698	0.183	0.420
-417.457	14.883	0.217	-0.223
-416.442	130.861	-0.079	0.133
-415.428	28.796	-0.216	0.240
-414.413	-132.209	0.585	0.098
-413.398	393.060	0.207	0.568
-412.384	46.535	-0.162	-0.197
-411.369	-108.940	0.043	-0.012
-410.355	305.996	0.146	0.358
-409.340	-200.000	0.009	-0.177
-408.325	-130.951	0.343	0.060
-407.311	342.750	0.207	-0.534
-406.296	-48.237	0.467	-0.295
-405.282	344.550	-0.105	0.271
-404.267	203.061	0.146	0.297
-403.252	10.791	-0.332	-0.332
-402.238	-156.939	-0.298	0.024
-401.223	71.756	0.087	0.118
-400.209	-133.399	-0.410	-0.067
-399.194	-140.791	-0.452	-0.060
-398.179	-46.970	0.288	0.184
-397.165	-200.000	0.023	-0.413
-396.150	399.178	0.231	-0.638
-395.136	77.200	0.175	-0.244
-394.121	-200.000	-0.005	0.438
-393.106	-41.511	-0.223	0.150
-392.092	-89.123	0.042	0.016
-391.077	-200.000	-0.016	0.542
-390.063	-137.445	0.161	-0.024
-389.048	239.500	0.206	-0.450
-388.033	-132.133	-0.376	-0.063
-387.019	434.356	0.035	0.099
-386.004	800.000	-0.036	0.168
-384.990	-200.000	0.010	0.485
-383.975	385.580	-0.123	-0.335
-382.960	16.296	-0.031	0.032
-381.946	-30.446	-0.085	-0.063
-380.931	-1.641	-0.184	-0.169
-379.917	-127.947	-0.342	-0.064
-378.902	61.494	-0.215	-0.281
-377.888	-119.252	0.494	0.112
-376.873	-142.241	-0.379	0.049
-375.858	5.473	-0.344	0.332
-374.844	75.869	0.297	0.412
-373.829	20.507	0.138	0.146
-372.815	-167.299	-0.193	-0.010
-371.800	-181.275	0.424	0.011
-370.785	-49.331	-0.193	-0.120
-369.771	-74.090	-0.576	0.272
-368.756	-200.000	-0.013	-0.436
-367.742	-54.864	-0.134	0.079
-366.727	343.717	-0.023	0.058
-365.712	-49.579	0.201	0.125
-364.698	-3.183	-0.349	-0.318
-363.683	19.018	-0.255	0.268
-362.669	13.858	0.214	0.218
-361.654	800.000	-0.029	-0.141
-360.639	35.587	-0.276	0.317
-359.625	266.518	0.262	-0.600
-358.610	-26.202	-0.177	-0.136
-357.596	-200.000	0.065	-0.385
-356.581	93.132	0.049	-0.073
-355.566	-102.499	-0.212	-0.066
-354.552	-63.405	-0.302	0.162
-353.537	-84.415	0.252	0.103
-352.523	-200.000	-0.034	0.302
-351.508	800.000	0.037	0.155
-350.493	132.806	-0.222	0.375
-349.479	-139.313	0.188	-0.026
-348.464	800.000	0.165	-0.605
-347.450	239.394	-0.186	-0.406
-346.435	150.802	-0.054	0.097
-345.420	800.000	0.060	0.327
-344.406	-6.342	-0.165	-0.147
-343.391	-12.716	-0.092	-0.078
-342.377	-104.544	-0.264	0.079
-341.362	32.736	0.141	-0.159
-340.348	-31.479	-0.085	-0.063
-339.333	-95.771	0.237	-0.082
-338.318	496.582	-0.116	-0.349
-337.304	800.000	-0.092	-0.380
-336.289	-31.613	-0.138	-0.101
-335.275	201.899	0.149	0.302
-334.260	-118.251	0.169	0.039
-333.245	-71.021	0.471	0.230
-332.231	800.000	0.153	0.592
-331.216	-40.890	0.319	-0.215
-330.202	429.859	0.137	0.390
-329.187	-162.051	-0.220	-0.014
-328.172	-200.000	-0.037	0.361
-327.158	800.000	-0.011	0.041
-326.143	800.000	0.055	0.257
-325.129	15.044	-0.043	-0.044
-324.114	-68.066	0.550	0.279
-323.099	-18.970	-0.240	0.195
-322.085	-104.400	0.108	-0.032
-321.070	-152.912	0.481	0.044
-320.056	202.379	0.076	0.154
-319.041	-92.200	0.259	-0.095
-318.026	-29.686	-0.099	-0.074
-317.012	-125.624	-0.188	0.037
-315.997	-88.937	-0.158	0.061
-314.983	-7.305	-0.327	0.289
-313.968	-163.193	-0.054	0.003
-312.953	26.792	0.221	-0.242
-311.939	-88.006	-0.572	-0.223
-310.924	-98.212	0.367	0.122
-309.910	393.176	0.058	0.157
-308.895	-200.000	-0.026	-0.224
-307.880	-31.610	-0.324	0.237
-306.866	181.626	-0.112	0.217
-305.851	122.214	-0.054	0.087
-304.837	253.727	0.225	-0.503
-303.822	800.000	-0.047	0.218
-302.807	-89.973	-0.144	-0.054
-301.793	-200.000	-0.005	0.072
-300.778	-186.098	0.407	0.008
-299.764	401.159	-0.078	0.215
-298.749	-200.000	0.108	-0.747
-297.735	-118.622	0.295	0.068
-296.720	800.000	-0.035	0.141
-295.705	54.632	0.250	-0.314
-294.691	-200.000	0.015	0.286
-293.676	-27.656	-0.181	-0.137
-292.662	-86.005	-0.472	0.189
-291.647	-180.626	-0.400	-0.011
-290.632	-200.000	0.001	-0.057
-289.618	-122.348	0.327	-0.069
-288.603	212.068	0.099	0.203
-287.589	-47.772	0.142	0.089
-286.574	679.483	-0.070	-0.239
-285.559	106.079	-0.193	-0.299
-284.545	-5.645	0.503	-0.450
-283.530	631.575	0.018	-0.060
-282.516	-1.498	0.100	0.092
-281.501	219.718	-0.143	0.301
-280.486	137.769	-0.034	0.058
-279.472	800.000	-0.048	-0.230
-278.457	800.000	-0.113	-0.432
-277.443	-200.000	0.039	-0.323
-276.428	800.000	-0.015	-0.073
-275.413	21.539	-0.480	-0.509
-274.399	800.000	0.063	0.341
-273.384	-200.000	-0.078	0.546
-272.370	168.773	0.098	-0.183
-271.355	-89.681	0.465	-0.177
-270.340	-75.455	0.244	0.113
-269.326	-80.103	0.084	0.037
-268.311	52.952	0.148	0.185
-267.297	100.877	-0.149	0.226
-266.282	-2.529	-0.285	0.260
-265.267	383.913	0.302	0.815
-264.253	-72.623	0.242	-0.116
-263.238	325.765	0.312	-0.781
-262.224	-155.583	0.329	0.027
-261.209	-153.907	0.169	0.015
-260.195	-140.192	0.365	-0.049
-259.180	102.665	-0.150	0.229
-258.165	31.308	-0.517	0.578
-257.151	109.400	0.061	0.095
-256.136	800.000	-0.071	0.338
-255.122	9.735	-0.163	-0.161
-254.107	-45.059	0.300	-0.194
-253.092	-200.000	-0.024	0.137
-252.078	-71.785	-0.286	0.138
-251.063	-95.861	-0.301	0.104
-250.049	54.662	-0.150	0.188
-249.034	132.607	0.434	0.731
-248.019	-200.000	0.037	0.386
-247.005	-56.706	0.072	-0.042
-245.990	43.838	0.176	-0.210
-244.976	800.000	-0.013	0.051
-243.961	90.006	-0.515	-0.751
-242.946	121.270	-0.126	-0.205
-241.932	800.000	-0.099	0.501
-240.917	-3.773	0.248	-0.224
-239.903	-144.471	-0.778	-0.093
-238.888	-200.000	-0.013	0.102
-237.873	-19.061	0.177	-0.143
-236.859	758.608	0.126	0.446
-235.844	47.544	-0.249	0.302
-234.830	-48.199	0.346	0.217
-233.815	-121.772	0.559	0.119
-232.800	-71.927	0.156	-0.075
-231.786	-110.107	-0.546	-0.148
-230.771	-126.630	0.105	-0.020
-229.757	98.478	0.241	-0.363
-228.742	-123.864	0.535	-0.109
-227.727	227.211	0.005	-0.011
-226.713	-133.755	0.198	0.032
-225.698	-129.892	-0.047	0.008
-224.684	46.100	0.207	-0.250
-223.669	-117.063	0.610	0.144
-222.655	119.683	-0.068	-0.110
-221.640	2.098	0.187	0.176
-220.625	-46.622	0.212	0.135
-219.611	-116.411	-0.420	0.100
-218.596	-200.000	-0.022	-0.301
-217.582	-139.913	0.222	-0.030
-216.567	230.246	0.159	0.340
-215.552	-33.443	0.127	-0.091
-214.538	-33.135	0.313	-0.225
-213.523	-125.370	0.684	0.134
-212.509	-49.063	0.302	-0.187
-211.494	206.801	0.131	0.266
-210.479	491.861	0.262	-0.785
-209.465	257.734	0.143	0.321
-208.450	-2.292	0.070	0.064
-207.436	109.294	-0.243	0.379
-206.421	800.000	-0.026	0.108
-205.406	118.560	0.240	-0.387
-204.392	4.441	0.362	-0.345
-203.377	481.695	-0.042	-0.124
-202.363	38.896	-0.054	-0.062
-201.348	-64.583	0.356	0.187
-200.333	800.000	0.044	0.245
-199.319	-166.161	-0.308	-0.017
-198.304	6.500	0.273	-0.263
-197.290	-3.424	-0.057	-0.051
-196.275	800.000	0.064	0.316
-195.260	-200.000	-0.050	-0.316
-194.246	54.517	0.127	0.160
-193.231	136.457	0.164	0.278
-192.217	-200.000	0.359	-0.002
-191.202	560.688	-0.150	0.475
-190.187	-200.000	0.027	0.275
-189.173	-122.490	0.234	0.049
-188.158	-80.450	-0.175	0.076
-187.144	-117.590	-0.258	-0.060
-186.129	-152.115	-0.061	-0.006
-185.114	-46.029	0.037	0.024
-184.100	-117.570	-0.619	0.144
-183.085	-115.867	-0.167	-0.040
-182.071	-200.000	0.005	-0.241
-181.056	282.853	-0.102	0.240
-180.042	533.904	-0.044	-0.137
-179.027	169.701	0.254	-0.472
-178.012	21.756	-0.172	-0.182
-176.998	-200.000	-0.034	0.602
-175.983	800.000	-0.108	-0.545
-174.969	800.000	0.150	-0.663
-173.954	60.233	0.112	0.144
-172.939	108.028	-0.112	-0.174
-171.925	15.126	0.160	-0.163
-170.910	-183.270	0.076	0.002
-169.896	577.508	0.026	0.083
-168.881	54.891	0.175	-0.220
-167.866	-69.052	-0.513	0.256
-166.852	800.000	0.063	-0.288
-165.837	-76.144	-0.146	-0.067
-164.823	-63.477	-0.177	0.094
-163.808	62.065	0.157	0.203
-162.793	64.055	-0.316	0.413
-161.779	-200.000	0.026	-0.235
-160.764	-200.000	0.002	0.174
-159.750	-93.298	-0.244	-0.088
-158.735	411.124	-0.245	-0.679
-157.720	-110.498	0.419	-0.112
-156.706	-88.896	0.327	-0.125
-155.691	609.403	-0.088	0.287
-154.677	-200.000	-0.039	-0.457
-153.662	-56.882	-0.218	-0.125
-152.647	-38.035	-0.028	-0.020
-151.633	361.407	-0.204	0.532
-150.618	-200.000	-0.023	-0.202
-149.604	444.100	-0.073	0.210
-148.589	292.720	0.079	-0.188
-147.574	-179.309	-0.162	-0.005
-146.560	-100.967	0.648	-0.205
-145.545	-25.394	0.037	-0.029
-144.531	800.000	0.155	0.659
-143.516	-200.000	-0.008	0.325
-142.502	175.746	0.065	0.123
-141.487	-200.000	-0.051	0.320
-140.472	-57.632	-0.339	-0.192
-139.458	-200.000	-0.002	0.028
-138.443	17.777	0.140	-0.144
-137.429	-112.947	-0.362	-0.092
-136.414	200.240	0.235	-0.471
-135.399	-125.120	-0.153	0.030
-134.385	800.000	-0.035	-0.185
-133.370	-179.857	0.324	-0.009
-132.356	-63.676	-0.115	-0.061
-131.341	484.729	-0.220	-0.654
-130.326	-134.886	0.264	0.041
-129.312	-62.529	-0.455	0.244
-128.297	289.771	0.154	-0.363
-127.283	-0.083	0.282	-0.260
-126.268	474.785	-0.132	-0.387
-125.253	62.877	0.092	-0.120
-124.239	-114.334	0.373	-0.092
-123.224	-9.320	-0.084	0.073
-122.210	-110.815	-0.445	0.118
-121.195	-102.590	-0.187	-0.058
