DTS Sentinel unit serial number:	SN409020Multiplexer serial number:	ORYXHardware model number:	OX4-SRSoftware version number:	ORYX F/W v3.00 Oryx Data Collector v3.7.2.0data status	okinstallation	HaddamTimeLapsedifferential loss correction	single-endedforward channel	channel 3reverse channel	N/Adate	2011/06/22time	05:06:17forward acquisition time	30.00reverse acquisition time	0.00gamma	498.7831k internal	0.1752k external	0.1752temperature offset calibration	1.0074default loss term (dB/km)	0.3790temperature slope calibration	1.3530multiplexer offset coefficient	1.0000multiplexer slope coefficient	1.0000fibre end	0.00T internal ref (°C)	22.69T ext. ref 1 (°C)	17.58T ext. ref 2 (°C)	0.16length (m)	temperature (°C)	Stokes	anti-Stokes-747.200	-86.018	0.073	-0.030
-746.185	800.000	0.058	0.265
-745.171	-70.984	-0.182	-0.091
-744.156	-95.101	-0.165	0.059
-743.142	-54.722	-0.346	0.207
-742.127	7.561	0.300	0.298
-741.112	-123.558	-0.343	0.072
-740.098	36.713	0.240	-0.282
-739.083	-94.819	0.259	-0.093
-738.069	-89.465	0.278	0.108
-737.054	-124.176	-0.727	-0.150
-736.039	89.584	-0.184	-0.272
-735.025	53.256	0.267	0.340
-734.010	-119.395	-0.278	-0.064
-732.996	-125.484	0.215	-0.043
-731.981	-52.489	-0.159	-0.097
-730.966	-111.158	-0.263	-0.071
-729.952	-200.000	-0.018	0.544
-728.937	-128.743	0.313	0.058
-727.923	-33.312	-0.107	-0.078
-726.908	192.258	0.081	0.163
-725.894	-161.206	-0.545	0.037
-724.879	6.535	-0.509	-0.502
-723.864	-101.818	0.163	0.052
-722.850	247.868	-0.247	-0.555
-721.835	47.300	-0.144	-0.179
-720.821	-179.321	-0.450	-0.013
-719.806	-67.019	0.400	-0.208
-718.791	-42.107	-0.145	0.098
-717.777	-122.206	-0.320	-0.069
-716.762	-76.733	-0.028	-0.013
-715.748	-79.473	0.326	-0.146
-714.733	800.000	0.030	0.174
-713.718	-120.093	-0.533	0.120
-712.704	-145.284	-0.279	-0.033
-711.689	532.307	-0.196	-0.620
-710.675	-33.745	-0.300	-0.219
-709.660	-86.540	-0.170	-0.069
-708.645	-100.925	0.385	-0.124
-707.631	-200.000	0.456	0.003
-706.616	493.885	-0.123	-0.377
-705.602	12.413	-0.269	-0.275
-704.587	96.697	-0.103	0.157
-703.572	800.000	0.023	0.134
-702.558	141.645	-0.130	0.229
-701.543	50.320	0.234	-0.293
-700.529	-200.000	-0.043	0.275
-699.514	-132.866	-0.480	-0.080
-698.499	-200.000	0.037	0.306
-697.485	800.000	0.030	-0.132
-696.470	-7.554	-0.520	-0.466
-695.456	-0.552	0.360	0.338
-694.441	-123.284	0.282	0.059
-693.426	-84.717	-0.502	0.208
-692.412	-63.787	0.174	-0.094
-691.397	-78.768	-0.526	-0.237
-690.383	-99.548	-0.285	-0.094
-689.368	-200.000	-0.050	-0.355
-688.354	-135.981	0.176	-0.027
-687.339	11.122	-0.248	-0.251
-686.324	143.156	-0.196	-0.347
-685.310	-87.670	0.194	-0.077
-684.295	111.811	0.056	0.090
-683.281	207.198	-0.093	-0.194
-682.266	63.686	0.262	-0.349
-681.251	-6.334	0.138	0.124
-680.237	-86.818	-0.133	0.054
-679.222	-174.936	0.251	0.009
-678.208	800.000	0.052	0.207
-677.193	-108.767	0.691	0.195
-676.178	800.000	-0.074	-0.301
-675.164	243.769	0.130	-0.290
-674.149	-50.905	0.222	0.138
-673.135	-180.670	-0.319	0.008
-672.120	-108.213	0.388	0.110
-671.105	175.172	-0.148	0.285
-670.091	800.000	0.100	0.426
-669.076	-102.097	0.054	-0.017
-668.062	-115.069	-0.305	0.076
-667.047	-200.000	0.044	-0.368
-666.032	19.793	0.397	-0.424
-665.018	74.416	-0.040	0.056
-664.003	35.970	-0.241	0.281
-662.989	95.031	-0.058	-0.087
-661.974	-122.504	-0.249	-0.053
-660.959	-66.529	0.606	-0.317
-659.945	-132.780	0.551	-0.092
-658.930	-112.297	0.392	-0.103
-657.916	-126.437	0.355	0.069
-656.901	-118.527	0.153	0.036
-655.886	-149.452	0.438	-0.045
-654.872	131.982	0.157	-0.268
-653.857	51.359	-0.410	0.516
-652.843	-49.144	-0.323	-0.204
-651.828	269.061	-0.129	0.300
-650.814	506.308	-0.212	-0.652
-649.799	-40.702	0.100	0.069
-648.784	-116.716	0.502	-0.121
-647.770	249.526	0.131	-0.296
-646.755	-26.550	0.476	-0.369
-645.741	17.910	0.309	-0.325
-644.726	4.777	0.296	0.288
-643.711	-34.158	-0.438	0.317
-642.697	-163.902	0.256	0.016
-641.682	-200.000	0.037	-0.497
-640.668	-175.260	-0.172	0.006
-639.653	37.083	-0.400	-0.469
-638.638	-70.398	0.317	-0.158
-637.624	580.237	-0.034	-0.112
-636.609	385.103	0.088	-0.240
-635.595	-113.993	0.133	0.034
-634.580	140.337	-0.195	-0.342
-633.565	-69.398	-0.223	0.113
-632.551	-2.937	-0.178	-0.164
-631.536	-200.000	-0.021	-0.284
-630.522	53.433	-0.116	-0.147
-629.507	-33.029	0.525	0.384
-628.492	-62.788	0.359	-0.196
-627.478	-200.000	0.023	-0.199
-626.463	100.920	-0.260	0.401
-625.449	503.541	0.073	0.224
-624.434	63.654	-0.135	0.179
-623.419	151.485	0.176	0.318
-622.405	-45.704	-0.249	0.162
-621.390	-89.357	0.099	-0.038
-620.376	511.370	0.057	0.176
-619.361	44.678	-0.058	-0.070
-618.346	-71.495	-0.352	0.173
-617.332	79.281	-0.268	0.380
-616.317	50.772	-0.187	0.234
-615.303	-134.094	0.213	0.034
-614.288	10.221	0.139	0.139
-613.273	-102.029	-0.561	0.177
-612.259	800.000	0.075	-0.296
-611.244	93.739	-0.249	-0.373
-610.230	-200.000	0.001	-0.293
-609.215	47.516	-0.280	-0.346
-608.201	55.703	-0.091	-0.117
-607.186	284.610	-0.117	-0.278
-606.171	-188.872	-0.509	-0.008
-605.157	399.571	0.137	-0.380
-604.142	-90.025	0.365	-0.140
-603.128	-70.180	0.122	-0.061
-602.113	-61.585	0.112	-0.062
-601.098	-136.491	0.057	-0.009
-600.084	-60.303	0.205	0.115
-599.069	-45.829	-0.298	-0.193
-598.055	800.000	-0.119	0.443
-597.040	40.458	-0.255	0.303
-596.025	-127.774	-0.301	0.057
-595.011	-117.361	-0.469	-0.111
-593.996	800.000	-0.074	-0.357
-592.982	381.278	0.012	-0.033
-591.967	-200.000	-0.003	0.356
-590.952	-132.782	0.661	-0.110
-589.938	197.005	0.171	0.345
-588.923	800.000	0.032	-0.134
-587.909	377.928	-0.131	-0.356
-586.894	146.979	0.051	0.092
-585.879	-23.020	0.075	-0.060
-584.865	198.675	0.194	0.393
-583.850	-102.809	0.086	0.027
-582.836	-2.927	0.137	-0.126
-581.821	-200.000	0.019	-0.269
-580.806	-133.582	-0.309	-0.051
-579.792	-122.659	0.362	0.077
-578.777	-200.000	-0.057	-0.431
-577.763	800.000	-0.154	-0.641
-576.748	-200.000	-0.021	-0.136
-575.733	-125.602	-0.259	-0.051
-574.719	80.900	-0.228	0.325
-573.704	63.970	-0.250	-0.331
-572.690	-58.445	-0.420	-0.240
-571.675	0.908	0.247	-0.233
-570.661	-151.695	-0.516	-0.050
-569.646	-200.000	-0.416	0.000
-568.631	-200.000	-0.045	0.537
-567.617	-113.791	-0.264	0.067
-566.602	372.037	-0.106	-0.286
-565.588	-200.000	-0.037	0.311
-564.573	-200.000	0.018	-0.262
-563.558	451.911	-0.035	-0.101
-562.544	662.569	0.112	0.383
-561.529	387.855	-0.191	0.524
-560.515	-90.375	0.329	0.125
-559.500	-200.000	0.026	-0.161
-558.485	146.637	0.299	0.530
-557.471	230.831	-0.084	-0.182
-556.456	-13.925	0.242	0.206
-555.442	-32.708	-0.053	0.039
-554.427	800.000	-0.078	-0.379
-553.412	10.090	0.098	-0.099
-552.398	-200.000	-0.009	-0.178
-551.383	-110.436	-0.537	-0.146
-550.369	-90.203	-0.191	-0.073
-549.354	-200.000	-0.001	-0.343
-548.339	-183.420	-0.079	-0.002
-547.325	384.666	0.052	0.141
-546.310	800.000	-0.116	0.587
-545.296	-106.353	0.127	-0.037
-544.281	185.276	0.240	0.470
-543.266	146.084	0.142	-0.252
-542.252	138.721	-0.160	-0.277
-541.237	-17.788	-0.067	-0.055
-540.223	800.000	-0.093	-0.513
-539.208	800.000	0.104	-0.491
-538.193	-200.000	0.050	-0.295
-537.179	62.090	0.147	0.194
-536.164	-56.142	-0.458	0.268
-535.150	-45.053	-0.389	-0.254
-534.135	-200.000	0.007	0.091
-533.121	-29.574	-0.285	0.214
-532.106	274.930	0.058	-0.137
-531.091	-200.000	-0.013	0.476
-530.077	89.660	-0.211	-0.311
-529.062	-49.647	0.408	-0.255
-528.048	-87.104	0.617	-0.246
-527.033	73.319	0.367	-0.506
-526.018	-6.174	-0.372	-0.334
-525.004	-190.387	-0.311	0.004
-523.989	-73.048	0.166	-0.080
-522.975	-88.032	0.165	-0.065
-521.960	-109.961	0.151	-0.041
-520.945	-161.257	0.407	-0.027
-519.931	-117.172	0.115	0.027
-518.916	-60.330	0.205	-0.115
-517.902	-109.877	-0.566	0.155
-516.887	-38.551	0.038	0.026
-515.872	-74.973	-0.164	-0.077
-514.858	-148.572	-0.530	-0.056
-513.843	-158.182	-0.151	-0.011
-512.829	-200.000	-0.029	-0.305
-511.814	72.128	-0.083	-0.114
-510.799	-50.641	-0.073	-0.045
-509.785	-145.360	0.117	0.014
-508.770	-121.278	0.527	0.115
-507.756	-200.000	-0.025	0.191
-506.741	800.000	-0.105	0.425
-505.726	-12.619	0.206	-0.177
-504.712	128.963	0.114	-0.192
-503.697	72.971	-0.135	-0.186
-502.683	289.798	0.268	-0.643
-501.668	136.585	0.223	0.384
-500.653	318.657	0.131	0.329
-499.639	-115.749	0.491	0.120
-498.624	264.317	0.115	0.264
-497.610	-27.976	-0.131	-0.100
-496.595	-24.296	-0.110	0.086
-495.581	-200.000	0.052	-0.436
-494.566	800.000	-0.133	0.706
-493.551	-122.439	-0.369	0.078
-492.537	104.404	-0.357	0.554
-491.522	800.000	0.060	-0.231
-490.508	103.617	0.181	0.280
-489.493	-200.000	0.026	-0.364
-488.478	800.000	-0.048	0.206
-487.464	530.362	0.080	-0.250
-486.449	-200.000	0.051	-0.335
-485.435	-200.000	-0.009	-0.584
-484.420	-157.205	0.252	-0.020
-483.405	800.000	-0.088	0.341
-482.391	-200.000	0.075	0.543
-481.376	-109.619	-0.481	0.132
-480.362	19.936	-0.154	0.163
-479.347	-128.381	-0.303	0.056
-478.332	-15.878	0.142	-0.118
-477.318	-77.801	0.384	0.174
-476.303	578.818	0.101	0.328
-475.289	354.786	0.100	-0.263
-474.274	110.990	0.018	-0.028
-473.259	535.976	-0.047	0.146
-472.245	-124.209	0.248	0.050
-471.230	-102.758	0.107	0.033
-470.216	800.000	0.042	-0.193
-469.201	-137.399	-0.226	0.033
-468.186	36.619	0.119	0.138
-467.172	-200.000	-0.073	-0.689
-466.157	-101.700	-0.155	0.049
-465.143	-132.277	-0.054	0.009
-464.128	363.742	-0.157	-0.416
-463.113	53.937	0.137	0.173
-462.099	800.000	-0.070	0.274
-461.084	-166.138	0.428	-0.024
-460.070	-143.745	0.289	-0.035
-459.055	800.000	-0.125	0.530
-458.040	65.102	0.063	0.083
-457.026	-129.092	-0.135	0.025
-456.011	7.911	0.115	-0.113
-454.997	18.013	0.505	0.528
-453.982	-98.054	0.294	-0.099
-452.968	-200.000	-0.000	-0.341
-451.953	304.732	0.057	-0.139
-450.938	29.635	-0.326	0.364
-449.924	665.691	0.151	0.516
-448.909	-50.949	-0.282	0.173
-447.895	-93.206	-0.304	-0.110
-446.880	800.000	0.058	-0.265
-445.865	-43.477	-0.316	0.209
-444.851	-16.150	0.032	0.027
-443.836	225.335	-0.099	0.210
-442.822	-159.867	-0.179	0.013
-441.807	800.000	-0.015	-0.058
-440.792	-200.000	-0.071	0.674
-439.778	-102.887	-0.317	0.098
-438.763	-64.736	0.375	0.199
-437.749	25.537	0.325	-0.355
-436.734	-13.941	-0.236	-0.199
-435.719	648.129	-0.008	0.027
-434.705	-6.599	-0.377	0.336
-433.690	-146.836	-0.207	-0.023
-432.676	125.085	0.134	-0.221
-431.661	-54.214	0.308	-0.183
-430.646	472.602	-0.247	-0.733
-429.632	-134.646	-0.082	0.013
-428.617	246.210	-0.108	-0.239
-427.603	-83.073	-0.542	-0.228
-426.588	800.000	0.031	0.166
-425.573	-145.829	0.249	-0.029
-424.559	101.381	-0.102	-0.157
-423.544	222.388	0.063	-0.133
-422.530	-66.406	0.430	0.223
-421.515	800.000	-0.115	-0.578
-420.500	-80.206	0.149	-0.065
-419.486	-121.322	-0.205	-0.045
-418.471	-120.764	-0.294	0.064
-417.457	411.465	0.146	-0.409
-416.442	-85.594	0.384	0.156
-415.428	-200.000	0.012	0.252
-414.413	-51.898	-0.404	0.245
-413.398	13.593	0.073	0.074
-412.384	-27.815	0.176	0.134
-411.369	-46.112	0.202	0.130
-410.355	222.401	0.092	-0.195
-409.340	-152.049	-0.601	0.057
-408.325	-200.000	0.028	-0.290
-407.311	-53.536	-0.209	0.125
-406.296	-172.772	0.132	0.005
-405.282	-200.000	0.021	0.488
-404.267	493.972	-0.049	-0.147
-403.252	-47.788	0.395	-0.250
-402.238	-130.933	-0.242	-0.042
-401.223	-37.386	0.587	0.410
-400.209	-108.289	-0.039	0.011
-399.194	-200.000	0.010	-0.147
-398.179	-88.512	0.289	-0.112
-397.165	-200.000	-0.015	-0.192
-396.150	-150.494	-0.512	0.051
-395.136	-37.312	0.299	-0.209
-394.121	-56.646	-0.261	-0.151
-393.106	-45.317	-0.795	0.515
-392.092	0.195	0.018	0.017
-391.077	19.788	0.331	0.349
-390.063	-84.996	-0.072	0.029
-389.048	-146.515	0.457	0.051
-388.033	-55.259	0.441	-0.259
-387.019	-57.672	-0.256	0.146
-386.004	-171.430	0.329	-0.014
-384.990	-145.865	0.150	0.017
-383.975	-200.000	-0.026	-0.275
-382.960	-52.667	0.231	-0.139
-381.946	-200.000	0.011	0.098
-380.931	800.000	0.088	-0.396
-379.917	-139.724	0.664	-0.091
-378.902	-72.932	0.448	-0.215
-377.888	-132.568	-0.633	0.105
-376.873	-7.419	-0.183	0.162
-375.858	434.229	0.078	0.224
-374.844	-91.810	0.218	-0.080
-373.829	14.265	-0.331	0.337
-372.815	76.361	0.287	-0.398
-371.800	-200.000	-0.038	-0.721
-370.785	-67.144	-0.216	0.111
-369.771	5.535	0.334	0.322
-368.756	773.472	0.118	0.425
-367.742	227.905	-0.186	0.397
-366.727	-7.176	-0.384	-0.340
-365.712	800.000	0.076	0.287
-364.698	-14.126	-0.138	0.116
-363.683	-69.916	-0.099	0.049
-362.669	-200.000	-0.022	-0.173
-361.654	-86.611	0.634	0.253
-360.639	-200.000	0.020	-0.349
-359.625	-74.829	-0.164	-0.077
-358.610	478.231	0.076	-0.227
-357.596	357.242	0.056	0.146
-356.581	-123.905	-0.332	-0.068
-355.566	-119.634	0.195	-0.044
-354.552	-69.798	-0.563	0.280
-353.537	-200.000	0.000	-0.333
-352.523	162.192	-0.139	0.255
-351.508	-155.227	-0.731	0.061
-350.493	-3.636	0.221	0.201
-349.479	154.218	0.290	-0.522
-348.464	-53.909	0.218	0.130
-347.450	-16.408	-0.048	0.040
-346.435	-64.480	0.178	-0.094
-345.420	-200.000	0.003	-0.066
-344.406	-200.000	-0.042	-0.352
-343.391	-17.157	0.230	0.189
-342.377	201.787	-0.064	0.129
-341.362	86.898	-0.110	0.159
-340.348	-126.394	-0.182	-0.035
-339.333	-98.628	-0.426	0.141
-338.318	358.014	0.136	-0.357
-337.304	-33.333	0.567	0.409
-336.289	-14.433	-0.336	-0.283
-335.275	89.064	0.451	0.658
-334.260	-200.000	-0.008	-0.348
-333.245	72.742	0.013	-0.018
-332.231	-20.742	-0.157	-0.126
-331.216	-125.677	-0.103	0.020
-330.202	-87.342	0.513	-0.202
-329.187	-92.346	0.175	-0.064
-328.172	-23.992	-0.348	-0.271
-327.158	-17.522	0.471	0.386
-326.143	287.585	-0.026	-0.062
-325.129	-73.256	0.252	0.120
-324.114	-200.000	0.006	0.112
-323.099	-64.438	0.181	0.096
-322.085	-28.428	0.266	-0.200
-321.070	-54.162	0.193	-0.114
-320.056	6.299	0.086	0.083
-319.041	225.632	-0.129	0.274
-318.026	3.235	0.177	-0.168
-317.012	-101.240	0.128	0.041
-315.997	12.459	0.196	-0.197
-314.983	47.226	0.124	-0.151
-313.968	-139.627	-0.444	0.061
-312.953	6.250	0.324	-0.314
-311.939	466.177	-0.059	-0.174
-310.924	-79.911	-0.698	0.305
-309.910	7.562	0.552	0.539
-308.895	183.064	0.200	0.387
-307.880	311.116	-0.057	0.139
-306.866	2.454	0.184	0.174
-305.851	77.899	-0.230	0.321
-304.837	634.079	-0.082	0.274
-303.822	-24.662	0.212	0.164
-302.807	56.491	-0.139	0.176
-301.793	-79.022	-0.243	0.107
-300.778	-81.494	0.255	-0.109
-299.764	-143.548	-0.267	0.033
-298.749	-129.200	0.331	0.060
-297.735	-200.000	-0.024	-0.182
-296.720	-99.740	0.348	-0.113
-295.705	-147.229	0.146	0.016
-294.691	-200.000	-0.006	0.227
-293.676	94.196	0.090	-0.134
-292.662	-155.062	0.569	-0.048
-291.647	543.388	0.071	-0.222
-290.632	-200.000	-0.032	-0.356
-289.618	-149.476	-0.265	0.027
-288.603	-22.961	-0.142	-0.111
-287.589	-60.748	-0.144	0.079
-286.574	-0.099	0.172	0.159
-285.559	-200.000	-0.001	0.088
-284.545	526.268	-0.044	-0.136
-283.530	-200.000	-0.703	-0.001
-282.516	37.360	-0.084	0.097
-281.501	800.000	-0.067	0.261
-280.486	-20.714	0.480	0.383
-279.472	179.481	0.256	0.491
-278.457	-167.158	0.273	0.014
-277.443	-79.940	-0.536	0.234
-276.428	-125.147	0.582	-0.115
-275.413	122.291	-0.172	0.281
-274.399	58.520	-0.117	0.150
-273.384	-125.756	0.215	-0.042
-272.370	125.315	-0.086	-0.141
-271.355	35.015	-0.075	-0.085
-270.340	-27.710	-0.226	-0.170
-269.326	800.000	0.079	-0.325
-268.311	13.291	0.529	-0.534
-267.297	-43.218	0.226	-0.149
-266.282	-65.000	-0.223	-0.117
-265.267	41.561	-0.073	-0.087
-264.253	-25.673	0.519	-0.398
-263.238	-150.313	-0.075	0.007
-262.224	-15.371	0.342	0.284
-261.209	104.654	0.192	0.295
-260.195	744.959	-0.091	-0.321
-259.180	-62.584	0.284	0.153
-258.165	-126.367	-0.038	-0.007
-257.151	44.778	0.109	0.131
-256.136	-121.432	0.192	0.041
-255.122	-43.216	0.324	-0.213
-254.107	10.299	0.113	0.112
-253.092	-52.951	0.168	0.100
-252.078	82.503	-0.076	-0.108
-251.063	-92.191	-0.488	-0.178
-250.049	-31.181	-0.344	-0.252
-249.034	-128.891	0.105	0.019
-248.019	-78.923	-0.195	-0.086
-247.005	-120.271	-0.521	0.115
-245.990	-24.825	-0.349	0.269
-244.976	-65.818	-0.103	-0.053
-243.961	-200.000	-0.053	0.326
-242.946	-18.692	0.257	0.208
-241.932	-7.977	0.224	0.197
-240.917	-104.085	0.327	-0.099
-239.903	-145.964	-0.359	0.041
-238.888	108.039	0.279	0.434
-237.873	-200.000	0.053	-0.319
-236.859	-11.716	0.642	-0.548
-235.844	-77.871	-0.520	-0.233
-234.830	-200.000	0.016	0.178
-233.815	-199.949	0.189	0.001
-232.800	-107.756	-0.173	0.049
-231.786	-90.188	-0.144	0.054
-230.771	135.031	-0.095	-0.162
-229.757	-65.937	-0.402	0.208
-228.742	15.496	0.264	0.270
-227.727	-100.031	-0.493	0.159
-226.713	56.138	-0.132	-0.167
-225.698	-124.383	0.295	0.059
-224.684	-72.103	-0.223	0.107
-223.669	66.572	-0.045	-0.059
-222.655	-42.261	0.061	-0.040
-221.640	-24.623	0.276	0.213
-220.625	74.957	0.050	0.068
-219.611	-155.510	-0.311	0.026
-218.596	-90.574	-0.331	0.124
-217.582	800.000	-0.030	0.168
-216.567	-138.169	-0.264	-0.038
-215.552	800.000	0.061	-0.255
-214.538	-191.684	-0.294	0.004
-213.523	231.771	-0.221	0.474
-212.509	-61.379	0.171	-0.093
-211.494	269.302	-0.291	-0.667
-210.479	56.840	0.095	-0.121
-209.465	195.141	0.151	-0.299
-208.450	438.530	-0.034	-0.098
-207.436	128.068	-0.159	0.263
-206.421	61.090	0.199	0.258
-205.406	-92.946	0.338	0.122
-204.392	58.647	0.263	-0.336
-203.377	-60.162	0.162	-0.089
-202.363	-200.000	-0.001	-0.058
-201.348	62.640	0.137	-0.178
-200.333	216.610	-0.036	0.074
-199.319	250.519	-0.144	-0.319
-198.304	-79.623	0.676	0.295
-197.290	-157.834	-0.648	-0.049
-196.275	-131.480	-0.569	0.097
-195.260	283.009	0.032	0.074
-194.246	48.310	-0.221	0.269
-193.231	-108.494	-0.231	0.064
-192.217	58.453	-0.272	-0.347
-191.202	-132.843	-0.620	-0.102
-190.187	25.462	0.159	0.171
-189.173	-186.196	-0.225	0.004
-188.158	12.861	-0.226	-0.227
-187.144	-0.734	0.175	-0.161
-186.129	800.000	0.082	0.417
-185.114	163.415	-0.164	0.300
-184.100	-44.751	-0.501	0.324
-183.085	-200.000	0.083	0.512
-182.071	-68.614	0.480	-0.241
-181.056	-143.112	-0.313	-0.039
-180.042	-145.897	-0.210	-0.024
-179.027	-19.907	0.233	0.186
-178.012	-103.835	-0.275	-0.083
-176.998	-154.005	0.407	-0.036
-175.983	787.049	0.144	-0.515
-174.969	-43.552	-0.182	0.119
-173.954	-58.150	-0.134	-0.075
-172.939	-178.436	0.318	0.009
-171.925	7.906	-0.126	0.122
-170.910	152.658	0.245	-0.436
-169.896	800.000	-0.054	0.197
-168.881	-136.276	-0.414	-0.062
-167.866	276.742	0.056	0.130
-166.852	130.555	-0.152	0.253
-165.837	496.196	-0.065	0.195
-164.823	509.890	0.065	0.196
-163.808	-110.541	0.296	0.079
-162.793	482.148	-0.104	0.307
-161.779	-18.944	-0.089	-0.072
-160.764	-200.000	-0.004	-0.123
-159.750	-6.741	-0.293	0.258
-158.735	302.733	0.096	0.232
-157.720	-125.009	-0.161	-0.032
-156.706	-51.818	0.295	-0.178
-155.691	-90.913	0.680	0.253
-154.677	157.539	0.108	0.194
-153.662	-73.778	-0.361	0.170
-152.647	-45.473	0.206	0.132
-151.633	245.177	0.065	0.142
-150.618	1.428	-0.255	0.238
-149.604	-166.978	-0.380	-0.020
-148.589	-118.926	0.653	-0.147
-147.574	257.899	-0.011	-0.025
-146.560	29.240	-0.216	-0.238
-145.545	86.210	0.242	0.346
-144.531	526.090	-0.161	-0.495
-143.516	355.015	0.079	0.203
-142.502	-34.184	0.210	0.150
-141.487	-160.842	0.074	-0.005
-140.472	-5.716	0.319	0.283
-139.458	-37.543	-0.118	-0.082
-138.443	-200.000	0.013	-0.182
-137.429	221.700	0.201	0.421
-136.414	31.560	0.117	0.130
-135.399	-56.178	-0.138	-0.079
-134.385	-200.000	0.061	0.388
-133.370	52.081	-0.265	0.328
-132.356	-101.289	0.306	0.096
-131.341	-42.487	-0.394	0.259
-130.326	-60.495	0.168	0.092
-129.312	-200.000	-0.028	-0.243
-128.297	-166.287	0.620	-0.033
-127.283	395.333	0.120	-0.327
-126.268	800.000	-0.095	-0.418
-125.253	1.973	-0.654	0.612
-124.239	-36.765	-0.580	0.403
-123.224	-200.000	-0.000	0.360
-122.210	238.361	0.106	0.229
