DTS Sentinel unit serial number:	SN409020Multiplexer serial number:	ORYXHardware model number:	OX4-SRSoftware version number:	ORYX F/W v3.00 Oryx Data Collector v3.7.2.0data status	okinstallation	HaddamTimeLapsedifferential loss correction	single-endedforward channel	channel 3reverse channel	N/Adate	2011/06/21time	15:36:17forward acquisition time	30.00reverse acquisition time	0.00gamma	498.7831k internal	0.1811k external	0.1811temperature offset calibration	1.0074default loss term (dB/km)	0.3790temperature slope calibration	1.3530multiplexer offset coefficient	1.0000multiplexer slope coefficient	1.0000fibre end	0.00T internal ref (°C)	37.22T ext. ref 1 (°C)	27.96T ext. ref 2 (°C)	0.24length (m)	temperature (°C)	Stokes	anti-Stokes-747.200	253.186	-0.148	-0.325
-746.185	330.742	0.157	0.389
-745.171	-28.153	-0.457	-0.339
-744.156	368.469	0.213	0.555
-743.142	800.000	0.087	-0.332
-742.127	-200.000	0.050	0.562
-741.112	60.758	0.057	-0.072
-740.098	41.086	0.556	0.645
-739.083	182.197	0.265	0.503
-738.069	141.102	0.200	0.341
-737.054	-128.270	-0.661	0.120
-736.039	119.485	-0.421	0.670
-735.025	-98.082	0.090	-0.030
-734.010	-86.400	0.269	0.106
-732.996	-29.190	-0.342	0.251
-731.981	-200.000	-0.032	0.275
-730.966	241.708	0.180	-0.389
-729.952	-58.757	0.386	0.214
-728.937	40.285	0.193	0.223
-727.923	-182.930	-0.350	0.008
-726.908	-200.000	0.042	-0.744
-725.894	800.000	-0.116	-0.430
-724.879	120.618	0.143	-0.229
-723.864	13.517	-0.100	-0.099
-722.850	-30.836	-0.371	-0.269
-721.835	-200.000	0.074	0.434
-720.821	-200.000	-0.021	-0.208
-719.806	136.115	0.168	-0.281
-718.791	-71.886	-0.416	-0.198
-717.777	123.552	-0.163	0.262
-716.762	-200.000	-0.000	-0.479
-715.748	-116.282	-0.153	-0.036
-714.733	-200.000	-0.036	0.466
-713.718	-170.403	0.686	0.030
-712.704	-84.444	0.433	-0.175
-711.689	33.706	0.145	0.162
-710.675	-67.093	0.502	-0.253
-709.660	-104.672	0.300	-0.088
-708.645	-11.111	-0.041	0.035
-707.631	-200.000	0.010	0.341
-706.616	-69.869	0.131	0.064
-705.602	-115.049	-0.480	0.116
-704.587	41.091	0.240	-0.278
-703.572	7.902	-0.141	-0.136
-702.558	34.657	0.093	-0.105
-701.543	683.446	-0.090	-0.302
-700.529	-22.555	-0.073	0.057
-699.514	105.741	-0.284	0.432
-698.499	38.161	0.318	-0.362
-697.485	-15.276	0.318	-0.261
-696.470	-61.884	0.306	0.163
-695.456	-99.478	-0.060	0.019
-694.441	-116.696	-0.238	0.056
-693.426	-106.575	0.236	-0.067
-692.412	149.421	-0.110	0.192
-691.397	-200.000	-0.008	0.138
-690.383	-76.234	-0.546	-0.246
-689.368	-29.866	0.156	0.114
-688.354	-34.232	-0.222	-0.156
-687.339	-97.490	-0.496	-0.164
-686.324	13.265	0.110	0.109
-685.310	216.429	0.255	-0.520
-684.295	-200.000	-0.005	-0.041
-683.281	-127.044	-0.387	0.072
-682.266	3.214	-0.191	0.178
-681.251	-87.540	-0.226	-0.087
-680.237	-67.288	0.116	-0.058
-679.222	126.569	0.217	-0.353
-678.208	-39.040	0.080	-0.054
-677.193	206.318	-0.233	-0.467
-676.178	-200.000	-0.010	0.396
-675.164	-86.075	-0.103	-0.040
-674.149	800.000	0.015	-0.078
-673.135	-39.425	-0.309	0.207
-672.120	85.245	0.187	0.263
-671.105	165.999	0.056	0.101
-670.091	83.230	0.167	0.233
-669.076	78.120	0.090	0.124
-668.062	373.857	-0.111	-0.289
-667.047	-50.868	0.038	0.023
-666.032	147.648	0.181	-0.313
-665.018	-46.872	-0.182	0.114
-664.003	-90.917	0.324	0.119
-662.989	298.731	0.041	-0.097
-661.974	800.000	-0.067	0.266
-660.959	-129.908	-0.150	-0.026
-659.945	-49.308	0.227	0.138
-658.930	-155.366	0.392	0.032
-657.916	-163.964	0.625	0.037
-656.901	321.353	0.209	0.511
-655.886	112.834	0.207	-0.321
-654.872	-142.612	-0.944	0.117
-653.857	-200.000	0.075	0.603
-652.843	-110.590	0.194	-0.051
-651.828	570.927	0.034	0.108
-650.814	-3.778	-0.157	0.139
-649.799	-200.000	-0.033	-0.226
-648.784	800.000	-0.138	0.534
-647.770	194.261	-0.131	0.256
-646.755	-175.934	0.054	0.002
-645.741	29.820	-0.102	0.111
-644.726	-167.606	0.444	-0.022
-643.711	-200.000	0.001	0.018
-642.697	2.115	-0.455	-0.420
-641.682	800.000	-0.121	0.504
-640.668	147.076	0.101	-0.174
-639.653	-104.653	-0.368	0.108
-638.638	800.000	0.086	-0.321
-637.624	-121.625	-0.481	-0.101
-636.609	-20.414	-0.203	-0.160
-635.595	-159.591	-0.148	0.010
-634.580	150.249	0.067	-0.116
-633.565	796.889	-0.026	0.093
-632.551	260.990	-0.113	-0.251
-631.536	-58.087	-0.303	0.168
-630.522	-139.838	-0.323	0.043
-629.507	-147.860	0.222	-0.023
-628.492	123.171	0.239	-0.383
-627.478	23.973	-0.153	0.161
-626.463	765.753	0.086	0.300
-625.449	82.598	-0.222	-0.309
-624.434	371.624	0.052	0.135
-623.419	-123.986	-0.200	0.040
-622.405	-4.331	-0.172	-0.152
-621.390	-118.148	-0.317	0.072
-620.376	-180.009	0.302	0.008
-619.361	21.587	-0.331	-0.344
-618.346	207.420	0.172	0.344
-617.332	-11.679	-0.138	0.116
-616.317	-72.234	-0.031	-0.015
-615.303	-112.365	-0.371	0.094
-614.288	-200.000	-0.024	0.450
-613.273	-124.211	0.197	0.039
-612.259	-187.030	-0.238	0.004
-611.244	-118.736	-0.352	0.079
-610.230	335.266	-0.123	0.306
-609.215	234.303	0.048	-0.101
-608.201	248.002	0.234	-0.507
-607.186	-72.011	-0.315	-0.149
-606.171	-135.090	-0.356	-0.054
-605.157	16.597	-0.201	0.203
-604.142	695.752	0.097	0.326
-603.128	586.223	0.234	0.741
-602.113	204.094	0.114	0.226
-601.098	800.000	-0.077	-0.388
-600.084	-100.848	-0.152	-0.047
-599.069	-0.870	-0.150	0.135
-598.055	55.071	0.192	0.237
-597.040	-20.517	0.346	0.271
-596.025	-164.064	-0.110	0.006
-595.011	267.054	-0.102	-0.227
-593.996	-10.954	0.113	0.095
-592.982	-70.112	0.274	-0.132
-591.967	78.033	-0.373	-0.508
-590.952	561.338	-0.115	-0.358
-589.938	12.205	-0.148	0.146
-588.923	800.000	0.070	-0.253
-587.909	-72.209	-0.184	0.087
-586.894	-26.485	0.280	0.209
-585.879	73.878	-0.220	-0.295
-584.865	-126.033	0.353	-0.067
-583.850	-200.000	0.004	0.074
-582.836	-118.477	-0.362	-0.081
-581.821	742.860	-0.107	-0.369
-580.806	-91.597	-0.343	0.124
-579.792	-200.000	-0.015	0.102
-578.777	-118.135	0.122	0.028
-577.763	356.020	-0.058	0.149
-576.748	-200.000	-0.082	0.515
-575.733	-60.235	-0.153	-0.083
-574.719	-106.484	0.117	-0.033
-573.704	177.188	0.086	0.160
-572.690	-93.168	0.254	-0.089
-571.675	261.321	0.079	-0.174
-570.661	-176.056	-0.270	-0.009
-569.646	414.591	-0.115	0.313
-568.631	795.631	0.046	-0.162
-567.617	790.058	0.192	-0.676
-566.602	208.181	-0.176	-0.353
-565.588	200.341	-0.127	-0.250
-564.573	260.035	0.119	0.262
-563.558	-9.181	-0.204	-0.174
-562.544	-49.483	0.243	-0.147
-561.529	138.943	0.188	-0.316
-560.515	-57.559	0.310	-0.173
-559.500	-43.924	0.229	-0.147
-558.485	-37.383	-0.202	0.137
-557.471	76.387	-0.086	-0.116
-556.456	-85.679	-0.260	-0.102
-555.442	800.000	0.037	-0.146
-554.427	-200.000	0.412	0.001
-553.412	142.195	0.119	-0.202
-552.398	-84.356	0.625	0.251
-551.383	-200.000	0.551	-0.000
-550.369	-200.000	0.005	-0.204
-549.354	28.439	0.350	-0.377
-548.339	297.780	-0.092	-0.216
-547.325	102.401	-0.373	0.557
-546.310	-80.424	0.171	0.072
-545.296	-101.396	-0.319	-0.099
-544.281	86.387	-0.205	-0.288
-543.266	800.000	-0.058	0.257
-542.252	-200.000	0.018	0.469
-541.237	148.049	-0.129	0.223
-540.223	742.411	-0.131	0.451
-539.208	-17.078	0.520	-0.417
-538.193	150.529	-0.268	-0.465
-537.179	54.974	0.177	-0.218
-536.164	-200.000	0.031	-0.303
-535.150	237.654	0.247	-0.524
-534.135	-85.903	-0.449	-0.176
-533.121	800.000	-0.057	0.257
-532.106	228.439	-0.213	-0.444
-531.091	800.000	0.058	0.210
-530.077	800.000	0.076	-0.384
-529.062	-73.187	0.178	0.083
-528.048	-6.669	-0.106	0.092
-527.033	122.774	0.132	-0.211
-526.018	181.805	0.057	-0.106
-525.004	59.164	0.302	0.379
-523.989	-200.000	0.005	0.158
-522.975	800.000	0.081	-0.413
-521.960	49.943	0.353	0.424
-520.945	408.636	0.117	-0.318
-519.931	-115.792	-0.197	-0.047
-518.916	37.372	0.085	0.096
-517.902	-20.531	0.275	0.215
-516.887	-200.000	0.021	0.137
-515.872	85.358	0.121	0.169
-514.858	-102.210	-0.380	0.116
-513.843	-34.007	-0.135	0.094
-512.829	751.568	0.095	-0.327
-511.814	-200.000	0.009	0.156
-510.799	-200.000	0.039	-0.454
-509.785	-22.835	-0.231	0.177
-508.770	-56.178	-0.196	-0.111
-507.756	-200.000	0.019	-0.259
-506.741	152.922	-0.129	-0.225
-505.726	31.341	0.486	0.531
-504.712	-93.531	0.238	-0.083
-503.697	-95.533	0.285	-0.097
-502.683	65.919	0.130	-0.169
-501.668	-166.991	0.531	-0.027
-500.653	315.988	-0.087	0.210
-499.639	-82.112	0.752	0.311
-498.624	800.000	-0.049	0.265
-497.610	402.521	-0.106	0.286
-496.595	-138.396	0.494	0.069
-495.581	-105.239	-0.588	0.169
-494.566	37.007	-0.086	-0.096
-493.551	-59.078	-0.262	0.143
-492.537	-200.000	0.001	-0.056
-491.522	83.498	0.212	-0.294
-490.508	-30.089	0.229	0.165
-489.493	-160.481	-0.214	-0.014
-488.478	-65.238	0.350	0.179
-487.464	-25.275	-0.244	-0.184
-486.449	118.949	-0.260	0.409
-485.435	-67.890	-0.104	-0.051
-484.420	-133.887	0.383	-0.060
-483.405	171.037	-0.151	0.276
-482.391	10.894	-0.539	0.523
-481.376	-200.000	0.019	-0.262
-480.362	-26.610	-0.125	0.093
-479.347	245.807	0.016	-0.035
-478.332	-200.000	-0.018	-0.234
-477.318	69.827	-0.211	-0.277
-476.303	-10.223	0.260	-0.219
-475.289	-200.000	-0.053	-0.396
-474.274	-183.201	-0.097	0.002
-473.259	-50.821	0.389	0.232
-472.245	23.720	0.137	0.144
-471.230	-31.889	-0.215	0.153
-470.216	-144.015	-0.278	0.033
-469.201	-110.349	0.155	0.041
-468.186	320.884	-0.114	-0.276
-467.172	69.553	0.363	-0.476
-466.157	-110.333	-0.062	-0.016
-465.143	160.715	0.304	0.540
-464.128	-83.526	-0.543	0.220
-463.113	-97.936	-0.543	-0.177
-462.099	344.951	-0.139	-0.349
-461.084	-138.566	0.593	-0.082
-460.070	-94.178	-0.128	0.044
-459.055	-32.347	0.566	0.400
-458.040	302.740	0.025	0.059
-457.026	116.142	-0.071	-0.111
-456.011	-156.562	-0.034	0.003
-454.997	-145.654	0.715	-0.080
-453.982	784.573	0.106	0.373
-452.968	-162.748	-0.579	-0.035
-451.953	800.000	0.104	-0.425
-450.938	-200.000	0.000	-0.337
-449.924	-137.148	-0.093	0.013
-448.909	-47.370	-0.173	0.106
-447.895	800.000	0.052	0.185
-446.880	-21.639	0.119	0.092
-445.865	483.190	0.193	0.559
-444.851	158.633	-0.171	-0.303
-443.836	117.479	-0.127	0.199
-442.822	186.657	0.076	-0.144
-441.807	8.168	-0.152	0.145
-440.792	94.550	0.321	0.463
-439.778	112.965	0.065	-0.100
-438.763	106.030	-0.060	-0.090
-437.749	-200.000	-0.071	0.456
-436.734	-200.000	-0.009	0.237
-435.719	800.000	-0.040	-0.180
-434.705	94.781	0.055	0.080
-433.690	220.340	-0.058	0.118
-432.676	-177.665	0.743	-0.022
-431.661	-36.079	0.069	-0.047
-430.646	-200.000	0.046	-0.314
-429.632	130.466	0.241	0.393
-428.617	139.770	-0.151	-0.253
-427.603	-50.376	-0.154	-0.092
-426.588	-55.239	-0.261	0.148
-425.573	82.199	0.201	0.277
-424.559	-68.773	0.150	0.073
-423.544	-200.000	0.046	0.623
-422.530	-118.118	-0.489	0.110
-421.515	-200.000	0.009	-0.381
-420.500	-111.410	-0.424	-0.109
-419.486	-18.962	-0.292	-0.230
-418.471	17.380	-0.209	0.210
-417.457	-200.000	0.013	-0.078
-416.442	-1.854	-0.295	-0.263
-415.428	511.800	-0.089	-0.265
-414.413	-120.617	0.446	-0.095
-413.398	346.896	-0.166	0.417
-412.384	136.587	-0.283	0.469
-411.369	-179.090	-0.101	-0.003
-410.355	58.864	0.255	0.318
-409.340	12.802	-0.290	0.284
-408.325	-59.394	-0.580	-0.315
-407.311	-200.000	-0.014	0.162
-406.296	-83.945	0.087	0.035
-405.282	647.080	0.025	-0.082
-404.267	-200.000	-0.050	-0.575
-403.252	42.155	0.192	-0.222
-402.238	783.460	-0.100	0.349
-401.223	-200.000	-0.003	0.342
-400.209	34.168	-0.201	-0.222
-399.194	116.606	0.332	0.517
-398.179	25.554	0.246	0.259
-397.165	-19.405	0.255	0.200
-396.150	-73.042	-0.048	-0.022
-395.136	-200.000	0.022	0.255
-394.121	194.968	0.020	0.039
-393.106	394.315	0.106	0.280
-392.092	151.247	-0.475	0.821
-391.077	-200.000	0.014	0.403
-390.063	58.589	0.127	0.158
-389.048	-200.000	-0.031	-0.675
-388.033	47.883	-0.289	-0.342
-387.019	12.975	0.137	0.134
-386.004	8.050	-0.259	-0.246
-384.990	-151.594	-0.731	-0.068
-383.975	110.537	-0.329	-0.501
-382.960	44.024	0.082	-0.095
-381.946	-200.000	-0.021	-0.122
-380.931	-177.799	-0.368	0.011
-379.917	776.419	0.120	0.417
-378.902	-98.851	0.495	-0.158
-377.888	133.726	-0.192	-0.315
-376.873	-112.087	-0.448	0.113
-375.858	-200.000	-0.010	0.124
-374.844	-50.965	-0.344	0.204
-373.829	48.594	0.068	0.080
-372.815	258.612	0.123	-0.269
-371.800	113.563	-0.270	-0.417
-370.785	-186.550	0.336	0.006
-369.771	206.373	0.033	0.066
-368.756	-74.526	-0.390	-0.177
-367.742	-64.234	-0.474	-0.244
-366.727	421.813	0.217	0.592
-365.712	177.350	0.056	0.104
-364.698	332.063	-0.018	0.043
-363.683	-88.203	0.447	-0.168
-362.669	3.538	0.259	-0.239
-361.654	-123.895	0.081	-0.016
-360.639	103.224	-0.193	-0.287
-359.625	-42.973	-0.107	0.068
-358.610	-146.867	0.110	-0.012
-357.596	-21.689	-0.076	-0.058
-356.581	13.781	-0.200	0.197
-355.566	-91.323	-0.242	0.087
-354.552	-116.894	-0.071	0.016
-353.537	521.218	0.152	0.454
-352.523	-59.952	0.377	-0.203
-351.508	90.770	-0.234	-0.333
-350.493	-9.259	-0.066	-0.056
-349.479	4.868	-0.016	-0.015
-348.464	663.890	0.114	0.373
-347.450	-200.000	-0.002	0.171
-346.435	800.000	-0.048	-0.205
-345.420	267.403	0.237	0.526
-344.406	246.682	0.159	0.340
-343.391	2.795	0.399	0.366
-342.377	110.667	0.201	0.307
-341.362	216.462	0.156	0.314
-340.348	-96.552	0.370	-0.123
-339.333	14.777	0.090	-0.089
-338.318	-73.391	-0.154	-0.071
-337.304	-118.967	0.289	-0.064
-336.289	-29.978	-0.156	-0.112
-335.275	701.325	0.041	0.137
-334.260	-60.682	0.358	-0.191
-333.245	122.609	-0.150	-0.238
-332.231	-106.587	0.283	0.079
-331.216	-55.308	-0.138	-0.078
-330.202	-200.000	0.032	-0.223
-329.187	31.080	-0.187	-0.202
-328.172	-123.714	-0.337	0.067
-327.158	57.275	0.267	0.329
-326.143	-3.082	0.119	0.105
-325.129	-146.715	0.415	-0.045
-324.114	22.802	0.267	-0.277
-323.099	-105.491	-0.309	0.088
-322.085	-126.811	0.307	-0.057
-321.070	74.303	-0.085	-0.113
-320.056	207.550	0.218	-0.431
-319.041	-200.000	-0.008	0.121
-318.026	-133.025	-0.259	0.041
-317.012	800.000	0.073	-0.346
-315.997	142.907	0.081	-0.136
-314.983	69.513	-0.184	-0.239
-313.968	-129.254	0.560	-0.098
-312.953	-200.000	0.040	-0.244
-311.939	-63.933	-0.063	0.033
-310.924	-87.488	-0.129	0.049
-309.910	-90.617	-0.185	0.067
-308.895	26.630	-0.064	-0.067
-307.880	-75.782	0.067	-0.030
-306.866	-36.689	-0.203	0.137
-305.851	800.000	0.027	0.097
-304.837	-37.505	-0.076	-0.051
-303.822	-67.338	0.045	-0.022
-302.807	-155.295	0.217	0.018
-301.793	-143.797	-0.562	0.066
-300.778	-144.944	-0.356	-0.041
-299.764	53.304	-0.325	-0.393
-298.749	-110.496	-0.313	0.081
-297.735	124.704	0.096	0.153
-296.720	-79.550	-0.073	0.031
-295.705	238.684	-0.098	-0.207
-294.691	-66.195	0.075	0.038
-293.676	-55.354	-0.277	-0.156
-292.662	-54.826	0.302	-0.172
-291.647	-6.716	0.335	-0.287
-290.632	9.508	-0.274	-0.262
-289.618	25.427	0.197	0.207
-288.603	-91.515	0.612	-0.219
-287.589	704.697	-0.078	-0.260
-286.574	-23.149	0.034	-0.026
-285.559	-52.255	0.478	0.278
-284.545	378.206	-0.089	-0.230
-283.530	-37.745	-0.265	-0.178
-282.516	-69.878	-0.506	0.243
-281.501	-110.712	0.283	-0.073
-280.486	26.716	0.130	-0.138
-279.472	-191.955	0.166	-0.002
-278.457	-56.799	0.199	0.111
-277.443	800.000	-0.013	0.062
-276.428	662.400	0.059	0.193
-275.413	-110.138	-0.134	0.035
-274.399	190.356	0.084	-0.160
-273.384	-17.775	0.317	-0.251
-272.370	800.000	-0.031	-0.164
-271.355	21.378	-0.338	-0.346
-270.340	51.273	0.093	-0.111
-269.326	-200.000	-0.085	-0.489
-268.311	285.146	0.157	-0.358
-267.297	-103.078	-0.265	0.079
-266.282	-81.878	-0.287	0.118
-265.267	-104.015	0.196	-0.057
-264.253	-41.889	-0.369	0.238
-263.238	-86.496	-0.255	0.098
-262.224	307.968	0.055	-0.130
-261.209	-65.098	-0.179	-0.091
-260.195	205.446	0.180	-0.354
-259.180	-25.716	-0.259	-0.192
-258.165	153.615	-0.290	-0.502
-257.151	-63.467	-0.536	-0.277
-256.136	-200.000	-0.035	0.779
-255.122	-108.583	0.114	-0.031
-254.107	60.210	-0.302	0.377
-253.092	159.538	0.321	0.564
-252.078	-117.818	0.528	0.119
-251.063	258.717	0.236	0.515
-250.049	-200.000	0.005	-0.111
-249.034	295.341	0.218	-0.504
-248.019	800.000	-0.008	0.037
-247.005	-27.125	-0.192	-0.141
-245.990	142.483	0.085	-0.143
-244.976	800.000	0.089	-0.365
-243.961	84.521	0.221	-0.305
-242.946	55.797	0.313	-0.383
-241.932	467.075	-0.052	0.146
-240.917	269.363	-0.098	0.217
-239.903	-144.122	0.197	0.023
-238.888	-200.000	-0.030	0.358
-237.873	-200.000	-0.008	-0.211
-236.859	-26.610	0.255	0.188
-235.844	-200.000	-0.027	-0.203
-234.830	-200.000	0.050	0.431
-233.815	-129.545	0.493	0.085
-232.800	335.553	0.075	0.185
-231.786	463.933	0.131	-0.370
-230.771	-22.594	-0.216	-0.164
-229.757	-140.045	0.248	-0.032
-228.742	-20.130	0.304	0.235
-227.727	200.769	0.229	-0.445
-226.713	-86.564	-0.375	0.144
-225.698	-65.444	0.315	0.159
-224.684	13.333	-0.191	0.186
-223.669	-52.486	-0.200	-0.116
-222.655	49.537	-0.089	-0.106
-221.640	26.963	0.167	0.176
-220.625	-200.000	0.082	0.538
-219.611	-18.362	0.314	0.247
-218.596	-200.000	0.000	-0.698
-217.582	3.651	0.047	-0.043
-216.567	-200.000	-0.014	-0.360
-215.552	-136.847	0.196	0.028
-214.538	612.975	-0.207	-0.657
-213.523	203.767	0.137	0.268
-212.509	-147.186	0.182	0.019
-211.494	11.313	-0.190	-0.183
-210.479	800.000	-0.069	-0.283
-209.465	-33.794	0.260	0.180
-208.450	-200.000	-0.017	-0.272
-207.436	71.989	-0.123	-0.161
-206.421	145.278	-0.071	0.121
-205.406	27.293	-0.023	-0.025
-204.392	-77.066	-0.248	0.108
-203.377	800.000	-0.069	0.284
-202.363	-55.767	0.325	0.182
-201.348	11.560	0.093	-0.090
-200.333	-117.360	0.132	0.030
-199.319	-96.997	0.364	0.119
-198.304	-50.947	0.321	-0.189
-197.290	-168.949	0.031	0.001
-196.275	-94.233	0.546	-0.187
-195.260	-71.778	0.410	0.192
-194.246	-139.850	0.261	-0.034
-193.231	84.251	0.071	0.098
-192.217	29.191	0.353	0.377
-191.202	-200.000	0.015	0.128
-190.187	-140.762	-0.448	0.057
-189.173	-64.470	-0.582	-0.296
-188.158	66.168	-0.177	0.226
-187.144	141.535	0.025	0.041
-186.129	-6.145	-0.463	0.397
-185.114	58.544	0.160	0.198
-184.100	-200.000	0.021	-0.195
-183.085	92.064	-0.105	-0.149
-182.071	-68.066	0.171	0.083
-181.056	-72.427	0.082	0.038
-180.042	28.802	-0.149	-0.159
-179.027	-65.772	-0.099	-0.050
-178.012	-1.710	-0.112	0.099
-176.998	-200.000	0.013	-0.197
-175.983	4.517	-0.491	-0.452
-174.969	42.726	-0.236	-0.270
-173.954	-14.978	-0.426	0.343
-172.939	69.435	-0.266	-0.344
-171.925	129.909	-0.420	0.676
-170.910	-141.490	0.762	-0.096
-169.896	-108.963	-0.208	0.055
-168.881	-82.638	0.378	-0.153
-167.866	9.302	0.318	-0.301
-166.852	528.275	-0.195	0.581
-165.837	301.067	0.107	0.249
-164.823	84.436	-0.069	-0.095
-163.808	-166.568	0.345	0.018
-162.793	-47.401	0.309	-0.188
-161.779	800.000	0.060	-0.222
-160.764	-116.016	-0.246	-0.057
-159.750	-63.698	-0.421	0.216
-158.735	-83.684	0.297	0.119
-157.720	-133.834	0.320	0.049
-156.706	-200.000	0.006	0.284
-155.691	-2.916	-0.362	0.317
-154.677	-200.000	-0.011	0.276
-153.662	-61.131	-0.326	0.172
-152.647	800.000	0.045	0.170
-151.633	450.599	0.171	0.475
-150.618	292.082	-0.163	-0.374
-149.604	-200.000	0.014	-0.262
-148.589	-200.000	0.010	-0.470
-147.574	197.632	0.140	-0.269
-146.560	-200.000	-0.017	-0.352
-145.545	-159.890	0.209	-0.014
-144.531	-104.547	-0.322	-0.093
-143.516	-49.320	-0.211	0.126
-142.502	-23.584	-0.413	-0.311
-141.487	166.716	0.328	-0.586
-140.472	75.467	0.185	-0.245
-139.458	-6.005	0.405	0.347
-138.443	-102.791	-0.191	0.057
-137.429	-129.927	-0.397	0.068
-136.414	-122.537	-0.329	0.066
-135.399	-125.568	-0.177	-0.033
-134.385	-116.857	-0.142	-0.032
-133.370	-111.271	-0.473	-0.120
-132.356	-148.517	-0.475	-0.048
-131.341	-200.000	0.014	-0.449
-130.326	-93.869	0.116	0.040
-129.312	800.000	0.070	0.308
-128.297	45.755	0.219	-0.254
-127.283	-200.000	0.033	0.326
-126.268	87.362	-0.276	0.383
-125.253	18.777	-0.442	0.443
-124.239	-31.854	-0.223	0.156
-123.224	-41.858	-0.418	0.268
-122.210	60.821	0.282	-0.351
-121.195	-135.919	-0.815	-0.119
