DTS Sentinel unit serial number:	SN409020Multiplexer serial number:	ORYXHardware model number:	OX4-SRSoftware version number:	ORYX F/W v3.00 Oryx Data Collector v3.7.2.0data status	okinstallation	HaddamTimeLapsedifferential loss correction	single-endedforward channel	channel 3reverse channel	N/Adate	2011/06/22time	02:56:17forward acquisition time	30.00reverse acquisition time	0.00gamma	498.7831k internal	0.1750k external	0.1750temperature offset calibration	1.0074default loss term (dB/km)	0.3790temperature slope calibration	1.3530multiplexer offset coefficient	1.0000multiplexer slope coefficient	1.0000fibre end	0.00T internal ref (°C)	22.31T ext. ref 1 (°C)	17.47T ext. ref 2 (°C)	0.03length (m)	temperature (°C)	Stokes	anti-Stokes-747.200	-200.000	0.035	0.000
-746.185	188.080	0.250	0.498
-745.171	16.997	0.110	0.116
-744.156	55.943	-0.052	-0.067
-743.142	-6.322	-0.130	0.117
-742.127	800.000	0.141	0.612
-741.112	23.675	0.221	-0.242
-740.098	-115.134	0.444	0.111
-739.083	-200.000	0.006	0.248
-738.069	-163.904	-0.505	0.031
-737.054	111.534	0.440	-0.707
-736.039	-200.000	-0.011	-0.457
-735.025	800.000	0.051	0.285
-734.010	800.000	-0.097	0.399
-732.996	-93.616	-0.167	-0.061
-731.981	119.859	0.123	-0.203
-730.966	1.799	-0.077	0.073
-729.952	273.526	0.229	-0.539
-728.937	-58.055	-0.298	0.172
-727.923	-33.619	-0.446	-0.326
-726.908	589.993	0.158	-0.520
-725.894	178.737	0.088	0.171
-724.879	-16.445	0.211	0.177
-723.864	-52.141	0.385	-0.236
-722.850	79.046	-0.268	0.381
-721.835	-69.555	0.452	-0.229
-720.821	136.506	0.139	0.241
-719.806	-4.714	-0.175	-0.160
-718.791	-153.189	0.258	0.024
-717.777	33.176	0.205	0.236
-716.762	2.712	-0.053	0.051
-715.748	34.726	-0.066	-0.077
-714.733	-23.809	-0.380	-0.301
-713.718	-72.296	-0.024	0.012
-712.704	104.327	-0.150	-0.234
-711.689	-163.501	0.094	-0.006
-710.675	-21.413	-0.307	0.249
-709.660	-154.320	0.083	0.007
-708.645	-139.712	-0.187	0.026
-707.631	-29.190	-0.486	0.369
-706.616	418.830	0.008	0.023
-705.602	25.577	-0.246	0.272
-704.587	69.198	0.078	0.107
-703.572	369.081	0.095	-0.256
-702.558	-129.565	0.147	0.027
-701.543	-200.000	-0.024	-0.527
-700.529	-200.000	-0.049	0.000
-699.514	-116.401	-0.203	0.049
-698.499	12.729	-0.210	-0.216
-697.485	128.052	0.119	-0.201
-696.470	-26.088	0.236	0.184
-695.456	755.858	0.013	0.047
-694.441	-161.722	-0.295	-0.020
-693.426	-106.884	-0.609	-0.178
-692.412	9.755	-0.374	0.375
-691.397	-161.863	-0.396	-0.026
-690.383	-200.000	-0.011	-0.126
-689.368	-42.788	0.415	-0.279
-688.354	108.516	-0.190	-0.302
-687.339	800.000	-0.043	-0.204
-686.324	146.008	-0.176	0.313
-685.310	-154.877	-0.289	-0.025
-684.295	306.502	0.133	-0.329
-683.281	101.081	0.016	0.024
-682.266	-101.074	-0.766	0.247
-681.251	280.765	0.107	0.254
-680.237	-200.000	0.063	0.424
-679.222	-88.733	0.444	0.174
-678.208	-192.766	-0.397	0.005
-677.193	-22.117	0.305	0.245
-676.178	-200.000	0.001	0.137
-675.164	-113.640	-0.129	-0.033
-674.149	-124.539	-0.173	0.035
-673.135	23.437	-0.211	-0.230
-672.120	-200.000	0.016	0.499
-671.105	-46.157	0.104	-0.068
-670.091	-92.385	-0.269	0.100
-669.076	-96.432	0.269	-0.094
-668.062	91.950	0.191	-0.285
-667.047	-174.218	0.494	-0.019
-666.032	382.608	0.061	-0.166
-665.018	261.784	-0.161	0.371
-664.003	-114.121	0.229	0.058
-662.989	-40.593	-0.182	0.125
-661.974	96.740	0.374	-0.568
-660.959	-22.480	0.160	-0.128
-659.945	-1.745	0.098	-0.092
-658.930	213.112	0.151	-0.317
-657.916	-75.560	-0.542	0.254
-656.901	193.788	-0.099	-0.200
-655.886	-108.349	0.063	-0.018
-654.872	800.000	0.113	0.477
-653.857	69.267	0.255	-0.347
-652.843	-132.424	0.177	-0.030
-651.828	-75.339	-0.362	0.170
-650.814	-184.874	0.565	-0.012
-649.799	-200.000	-0.006	0.090
-648.784	785.473	-0.057	0.210
-647.770	184.019	0.128	-0.251
-646.755	120.071	-0.034	-0.055
-645.741	231.614	0.158	0.343
-644.726	-200.000	-0.079	0.500
-643.711	800.000	-0.037	-0.159
-642.697	459.206	-0.042	-0.125
-641.682	-200.000	0.018	0.345
-640.668	56.183	-0.070	-0.090
-639.653	-158.622	-0.381	0.029
-638.638	-74.131	0.500	0.239
-637.624	-89.571	0.061	-0.024
-636.609	-161.747	-0.713	-0.047
-635.595	-89.081	-0.331	0.129
-634.580	-116.593	0.265	0.064
-633.565	36.070	0.091	0.106
-632.551	392.205	0.075	-0.207
-631.536	-47.543	-0.381	-0.244
-630.522	6.231	-0.157	-0.154
-629.507	-48.275	-0.200	0.127
-628.492	-138.100	0.123	-0.018
-627.478	423.465	0.062	0.178
-626.463	-8.929	-0.108	0.096
-625.449	538.651	-0.123	0.390
-624.434	-200.000	0.009	0.066
-623.419	-106.965	-0.324	0.094
-622.405	-108.662	0.303	-0.085
-621.390	-200.000	0.064	-0.644
-620.376	63.238	0.460	-0.610
-619.361	-122.032	-0.244	0.052
-618.346	-94.844	0.534	0.190
-617.332	-200.000	-0.004	0.103
-616.317	-184.389	0.416	-0.009
-615.303	-101.435	0.390	-0.125
-614.288	190.633	-0.226	-0.450
-613.273	-48.006	0.188	-0.120
-612.259	-156.332	0.327	0.027
-611.244	-200.000	0.023	0.142
-610.230	-7.934	0.174	0.155
-609.215	243.490	-0.218	0.485
-608.201	-114.189	0.184	-0.047
-607.186	-32.300	-0.352	-0.259
-606.171	-28.209	0.241	-0.184
-605.157	-65.385	0.052	-0.028
-604.142	265.667	-0.191	0.442
-603.128	41.421	0.157	0.188
-602.113	-150.646	0.332	-0.033
-601.098	633.027	-0.023	-0.076
-600.084	75.117	0.211	-0.294
-599.069	-73.051	-0.094	0.046
-598.055	-51.870	0.247	0.151
-597.040	-76.969	0.126	0.058
-596.025	0.026	0.231	0.218
-595.011	-200.000	0.017	0.912
-593.996	252.064	-0.253	-0.572
-592.982	-18.614	0.519	-0.427
-591.967	-46.507	0.059	0.038
-590.952	10.342	-0.297	0.299
-589.938	-85.972	-0.048	0.020
-588.923	-171.145	0.204	-0.009
-587.909	-79.547	0.317	0.141
-586.894	49.576	0.062	-0.077
-585.879	-200.000	-0.003	-0.420
-584.865	-200.000	-0.057	-0.382
-583.850	-44.734	0.418	-0.275
-582.836	-175.222	-0.366	0.013
-581.821	-47.611	-0.312	-0.199
-580.806	653.844	-0.080	-0.272
-579.792	-24.232	-0.376	-0.295
-578.777	-96.118	0.183	-0.064
-577.763	-59.276	0.157	0.089
-576.748	363.166	-0.009	-0.023
-575.733	800.000	0.049	-0.238
-574.719	82.472	0.182	0.261
-573.704	674.039	0.093	0.320
-572.690	-160.035	0.282	0.020
-571.675	-89.535	-0.122	-0.047
-570.661	153.731	-0.257	-0.467
-569.646	800.000	-0.069	0.315
-568.631	29.844	-0.382	0.430
-567.617	320.597	-0.141	0.355
-566.602	-200.000	-0.048	0.500
-565.588	-139.536	-0.259	-0.036
-564.573	-200.000	0.020	0.250
-563.558	-200.000	-0.048	-0.291
-562.544	163.515	-0.276	0.514
-561.529	-200.000	-0.072	0.503
-560.515	100.381	0.054	-0.082
-559.500	36.545	0.576	-0.671
-558.485	52.390	-0.056	-0.071
-557.471	-41.533	0.139	-0.094
-556.456	101.475	-0.160	0.246
-555.442	800.000	0.106	0.503
-554.427	-25.593	0.115	0.090
-553.412	-125.397	0.510	0.102
-552.398	123.851	0.254	-0.422
-551.383	-200.000	0.051	-0.337
-550.369	800.000	-0.070	-0.317
-549.354	-191.707	0.356	-0.005
-548.339	-134.865	0.013	0.002
-547.325	-104.079	-0.142	-0.043
-546.310	-22.531	-0.280	-0.223
-545.296	-30.207	0.589	-0.440
-544.281	-86.583	-0.293	-0.118
-543.266	131.798	0.151	-0.257
-542.252	-31.316	0.107	-0.079
-541.237	800.000	0.086	0.394
-540.223	-60.705	-0.368	-0.205
-539.208	635.572	-0.200	0.674
-538.193	-145.024	0.092	0.011
-537.179	-103.275	-0.268	-0.083
-536.164	-200.000	0.013	0.213
-535.150	99.892	0.139	-0.212
-534.135	369.312	-0.166	-0.446
-533.121	-187.269	-0.343	0.006
-532.106	6.951	0.140	-0.138
-531.091	-136.121	0.417	0.064
-530.077	-57.177	-0.563	0.325
-529.062	115.850	-0.205	0.332
-528.048	-84.945	-0.242	0.100
-527.033	-51.081	0.195	-0.120
-526.018	-109.161	-0.633	-0.176
-525.004	-200.000	0.052	-0.464
-523.989	-33.549	0.341	0.247
-522.975	800.000	-0.081	-0.460
-521.960	-200.000	-0.018	0.203
-520.945	800.000	0.077	0.332
-519.931	-115.573	-0.407	-0.100
-518.916	87.454	0.211	-0.308
-517.902	-86.554	0.354	0.142
-516.887	-46.635	0.052	0.034
-515.872	800.000	-0.082	-0.353
-514.858	-104.757	-0.481	-0.145
-513.843	-20.503	0.115	0.093
-512.829	-105.047	0.225	0.067
-511.814	406.543	0.029	-0.081
-510.799	-136.521	0.162	0.024
-509.785	239.796	-0.127	-0.280
-508.770	-14.671	0.102	-0.087
-507.756	157.271	-0.087	0.159
-506.741	14.532	-0.261	-0.268
-505.726	-13.078	-0.451	-0.385
-504.712	86.752	0.268	-0.389
-503.697	-48.118	0.241	0.153
-502.683	-101.194	-0.254	-0.081
-501.668	122.318	-0.226	0.373
-500.653	-106.923	-0.508	0.147
-499.639	-96.536	-0.298	0.103
-498.624	42.523	0.295	0.353
-497.610	-200.000	0.016	-0.121
-496.595	-9.309	-0.575	-0.505
-495.581	303.841	0.101	-0.248
-494.566	-90.866	0.274	0.103
-493.551	-75.409	0.323	-0.151
-492.537	-102.847	-0.189	-0.059
-491.522	-87.809	0.441	0.174
-490.508	160.012	-0.215	0.396
-489.493	-152.444	-0.721	-0.067
-488.478	-22.195	-0.130	-0.104
-487.464	-59.921	-0.328	-0.184
-486.449	51.854	-0.217	-0.271
-485.435	-128.315	0.407	0.076
-484.420	478.456	0.020	0.061
-483.405	-99.677	0.427	0.140
-482.391	28.498	-0.632	0.703
-481.376	33.329	0.051	0.059
-480.362	-72.016	-0.425	0.207
-479.347	-74.817	0.270	-0.127
-478.332	-200.000	-0.003	0.113
-477.318	800.000	0.118	0.578
-476.303	-62.041	0.239	0.131
-475.289	-140.785	0.082	-0.011
-474.274	226.996	-0.242	-0.518
-473.259	-200.000	-0.048	-0.339
-472.245	209.959	-0.282	-0.584
-471.230	-45.534	0.248	-0.161
-470.216	151.859	-0.200	-0.359
-469.201	-47.243	0.182	0.116
-468.186	-22.580	0.351	-0.278
-467.172	-64.568	-0.368	-0.196
-466.157	-79.870	-0.401	-0.176
-465.143	-200.000	0.008	-0.355
-464.128	-24.816	0.104	0.081
-463.113	247.578	0.263	-0.586
-462.099	177.652	-0.065	-0.125
-461.084	-127.510	-0.269	0.051
-460.070	-43.623	0.288	-0.191
-459.055	-60.618	0.241	0.134
-458.040	189.994	0.058	0.115
-457.026	6.941	0.136	0.133
-456.011	-88.825	0.398	0.154
-454.997	-32.669	-0.371	0.271
-453.982	317.228	-0.146	0.364
-452.968	84.933	0.191	-0.276
-451.953	249.148	-0.103	0.230
-450.938	-109.595	-0.295	0.081
-449.924	139.073	-0.251	0.434
-448.909	-200.000	0.040	0.453
-447.895	59.080	0.269	0.348
-446.880	-127.185	-0.528	-0.101
-445.865	-21.160	-0.397	-0.318
-444.851	-200.000	-0.074	-0.702
-443.836	-137.149	-0.373	0.055
-442.822	-55.147	0.171	-0.101
-441.807	238.463	-0.117	-0.257
-440.792	66.105	-0.299	0.399
-439.778	176.556	-0.095	-0.181
-438.763	459.053	-0.226	0.665
-437.749	-96.711	-0.323	-0.111
-436.734	91.900	0.105	0.156
-435.719	-200.000	0.029	0.172
-434.705	-4.361	0.218	-0.198
-433.690	-153.928	0.139	-0.012
-432.676	-128.459	-0.206	0.038
-431.661	65.469	0.168	-0.223
-430.646	-77.448	-0.131	0.059
-429.632	-125.045	0.405	0.081
-428.617	41.593	-0.176	-0.209
-427.603	8.452	-0.191	-0.189
-426.588	-97.594	-0.189	-0.064
-425.573	-14.857	0.153	0.129
-424.559	-10.638	0.274	-0.238
-423.544	144.980	0.100	0.175
-422.530	-162.303	-0.211	-0.014
-421.515	800.000	0.085	0.395
-420.500	-200.000	-0.022	-0.346
-419.486	-42.024	0.102	0.068
-418.471	148.779	-0.076	0.134
-417.457	318.843	-0.217	0.541
-416.442	161.168	0.016	0.030
-415.428	63.379	-0.349	0.460
-414.413	-81.914	0.564	0.241
-413.398	603.482	0.110	0.361
-412.384	65.337	0.236	0.313
-411.369	442.403	0.038	0.108
-410.355	211.332	-0.092	0.190
-409.340	-39.476	0.044	0.030
-408.325	800.000	-0.082	-0.387
-407.311	83.292	0.152	-0.218
-406.296	800.000	0.072	-0.268
-405.282	264.081	0.197	-0.450
-404.267	-39.741	0.455	-0.311
-403.252	-35.815	-0.286	-0.203
-402.238	104.951	-0.335	0.518
-401.223	26.183	-0.173	0.189
-400.209	800.000	0.031	-0.119
-399.194	-200.000	-0.046	-0.300
-398.179	-61.570	-0.385	-0.211
-397.165	-97.288	-0.541	0.184
-396.150	-59.522	0.151	0.085
-395.136	-105.180	0.414	-0.123
-394.121	121.236	-0.139	-0.228
-393.106	-101.049	0.221	-0.070
-392.092	-28.862	0.166	0.125
-391.077	139.287	-0.173	-0.299
-390.063	-38.646	-0.055	-0.038
-389.048	122.595	0.192	-0.316
-388.033	17.565	-0.341	0.355
-387.019	-37.037	-0.278	-0.195
-386.004	29.580	0.505	-0.563
-384.990	800.000	-0.078	-0.341
-383.975	152.506	-0.104	-0.186
-382.960	-7.060	0.396	-0.352
-381.946	-177.238	0.364	0.012
-380.931	-188.113	0.216	-0.004
-379.917	10.765	0.160	0.160
-378.902	368.076	0.017	0.046
-377.888	197.217	0.065	-0.131
-376.873	-123.656	-0.331	-0.068
-375.858	589.969	0.201	0.653
-374.844	-51.910	0.175	0.106
-373.829	-65.911	0.263	0.137
-372.815	-95.875	-0.128	0.045
-371.800	35.974	0.097	-0.112
-370.785	-15.962	-0.362	0.301
-369.771	-58.833	-0.574	0.324
-368.756	233.855	-0.004	0.008
-367.742	57.647	0.483	-0.619
-366.727	-120.619	0.112	-0.025
-365.712	26.735	0.348	-0.382
-364.698	-41.414	0.043	-0.029
-363.683	-28.281	-0.418	0.316
-362.669	26.755	-0.223	0.244
-361.654	800.000	-0.123	0.631
-360.639	-200.000	-0.005	0.135
-359.625	507.442	0.045	0.138
-358.610	65.020	0.031	-0.041
-357.596	-158.238	0.311	-0.023
-356.581	729.917	-0.030	-0.107
-355.566	199.220	0.191	0.384
-354.552	357.371	-0.114	-0.300
-353.537	-149.526	-0.255	-0.026
-352.523	-200.000	0.006	0.051
-351.508	-9.704	-0.114	-0.099
-350.493	-200.000	0.013	-0.232
-349.479	-91.410	0.254	0.094
-348.464	40.922	0.073	0.086
-347.450	-200.000	-0.008	0.058
-346.435	21.169	-0.318	0.338
-345.420	-193.455	-0.200	-0.002
-344.406	721.004	-0.193	0.675
-343.391	-129.760	0.388	-0.069
-342.377	43.624	0.162	-0.193
-341.362	3.579	-0.103	-0.098
-340.348	-119.272	0.437	0.099
-339.333	443.358	0.055	-0.158
-338.318	346.268	-0.121	-0.312
-337.304	-80.776	-0.397	0.172
-336.289	800.000	0.071	-0.328
-335.275	130.086	-0.140	-0.235
-334.260	800.000	0.031	-0.144
-333.245	-200.000	-0.046	-0.276
-332.231	5.887	0.184	0.178
-331.216	-36.444	0.308	0.216
-330.202	-200.000	-0.086	-0.527
-329.187	39.247	0.135	-0.159
-328.172	340.152	0.068	-0.173
-327.158	-46.887	0.313	-0.199
-326.143	-127.143	0.041	0.008
-325.129	-130.529	0.327	-0.057
-324.114	-78.449	-0.360	0.160
-323.099	-88.677	-0.342	0.132
-322.085	-96.348	0.541	0.186
-321.070	-84.752	-0.102	0.042
-320.056	-200.000	-0.024	0.155
-319.041	-100.961	-0.126	-0.040
-318.026	-154.003	-0.198	0.017
-317.012	-61.054	-0.489	-0.269
-315.997	395.702	0.119	0.325
-314.983	-200.000	0.022	0.220
-313.968	-75.204	-0.501	-0.233
-312.953	188.750	0.141	-0.276
-311.939	-200.000	0.037	-0.244
-310.924	800.000	0.099	-0.378
-309.910	2.336	-0.173	0.163
-308.895	-130.737	0.251	-0.044
-307.880	-91.236	-0.270	-0.101
-306.866	800.000	0.053	0.268
-305.851	-200.000	0.038	-0.282
-304.837	-80.102	-0.111	-0.049
-303.822	-109.898	-0.221	0.060
-302.807	-87.140	0.498	-0.197
-301.793	-200.000	0.004	0.357
-300.778	-185.542	0.191	0.004
-299.764	69.638	0.155	-0.209
-298.749	-200.000	0.015	-0.283
-297.735	-73.404	-0.175	-0.083
-296.720	-184.481	0.811	-0.017
-295.705	-200.000	0.058	0.414
-294.691	-135.993	0.340	-0.052
-293.676	24.725	0.327	0.353
-292.662	-200.000	0.030	-0.334
-291.647	800.000	0.046	-0.177
-290.632	171.989	0.144	0.272
-289.618	-200.000	0.024	0.454
-288.603	-91.532	0.273	0.101
-287.589	197.288	-0.374	0.746
-286.574	-24.044	-0.314	0.244
-285.559	-69.167	0.619	-0.310
-284.545	-85.886	0.272	-0.109
-283.530	-28.679	0.259	0.194
-282.516	-80.851	-0.101	0.044
-281.501	144.343	-0.047	-0.082
-280.486	-103.471	0.519	-0.158
-279.472	-157.272	0.667	0.052
-278.457	-104.506	0.148	-0.044
-277.443	150.180	-0.130	-0.230
-276.428	9.317	0.465	0.458
-275.413	-1.056	-0.538	0.496
-274.399	-94.473	-0.173	-0.061
-273.384	-80.139	-0.194	-0.084
-272.370	-17.173	0.464	0.381
-271.355	800.000	0.046	0.205
-270.340	-151.515	0.324	0.031
-269.326	225.547	-0.197	-0.417
-268.311	-75.986	0.272	-0.125
-267.297	-128.050	0.168	0.031
-266.282	-200.000	-0.028	0.258
-265.267	121.464	-0.144	0.234
-264.253	10.257	-0.298	0.295
-263.238	6.376	-0.181	0.175
-262.224	152.887	0.157	0.281
-261.209	-105.584	0.109	0.032
-260.195	-72.103	-0.243	-0.117
-259.180	18.154	0.250	-0.260
-258.165	-88.082	-0.338	0.132
-257.151	-200.000	0.005	0.104
-256.136	90.565	0.193	-0.282
-255.122	-58.405	-0.308	0.174
-254.107	-90.258	-0.383	0.144
-253.092	98.356	0.198	-0.298
-252.078	-165.626	-0.374	0.021
-251.063	-0.265	-0.132	-0.122
-250.049	-36.003	-0.528	0.371
-249.034	-200.000	0.018	0.127
-248.019	217.272	-0.071	-0.149
-247.005	-110.465	-0.290	0.078
-245.990	-51.770	0.280	0.170
-244.976	53.845	0.181	0.226
-243.961	-80.841	0.351	0.151
-242.946	-127.205	-0.306	0.058
-241.932	-81.001	-0.079	-0.034
-240.917	-59.648	0.145	0.081
-239.903	-77.500	-0.203	-0.091
-238.888	61.897	-0.269	-0.350
-237.873	-166.726	-0.343	-0.018
-236.859	800.000	-0.036	0.175
-235.844	14.830	0.321	-0.327
-234.830	800.000	-0.200	-0.763
-233.815	-24.991	-0.375	-0.290
-232.800	31.779	0.154	-0.173
-231.786	-175.792	-0.358	-0.012
-230.771	-200.000	0.026	-0.335
-229.757	-95.242	-0.227	-0.079
-228.742	-67.194	0.454	0.232
-227.727	32.672	0.229	0.259
-226.713	-114.678	0.192	-0.047
-225.698	26.160	-0.241	-0.262
-224.684	800.000	0.044	-0.237
-223.669	19.267	0.158	0.165
-222.655	-99.469	0.438	-0.143
-221.640	-106.136	-0.422	0.122
-220.625	104.868	0.178	0.274
-219.611	-107.046	-0.184	0.053
-218.596	209.243	-0.143	0.292
-217.582	-37.229	0.508	0.353
-216.567	-96.377	0.302	-0.104
-215.552	-43.812	0.286	-0.187
-214.538	-175.655	-0.174	0.006
-213.523	-86.655	0.107	-0.042
-212.509	-98.578	0.664	-0.219
-211.494	-26.839	-0.332	-0.252
-210.479	-200.000	-0.464	-0.002
-209.465	-14.973	0.334	-0.279
-208.450	-200.000	-0.008	-0.190
-207.436	-200.000	-0.008	-0.290
-206.421	-15.425	0.410	0.340
-205.406	-118.365	-0.138	0.032
-204.392	-21.230	-0.363	-0.288
-203.377	82.648	-0.081	-0.114
-202.363	78.172	0.310	0.430
-201.348	325.737	0.165	-0.413
-200.333	81.039	-0.138	-0.194
-199.319	526.067	-0.013	0.040
-198.304	86.344	0.529	0.759
-197.290	10.630	-0.079	0.078
-196.275	599.268	0.064	-0.208
-195.260	-200.000	0.067	-0.387
-194.246	636.866	-0.060	0.198
-193.231	-149.620	0.173	-0.018
-192.217	-104.945	0.134	-0.040
-191.202	-6.841	0.251	-0.221
-190.187	-141.454	-0.435	-0.057
-189.173	377.043	0.207	-0.553
-188.158	86.230	0.292	0.419
-187.144	-124.536	0.199	-0.040
-186.129	-200.000	0.015	0.085
-185.114	702.301	-0.147	-0.506
-184.100	-58.214	-0.232	0.131
-183.085	60.615	-0.184	0.237
-182.071	60.934	-0.199	-0.257
-181.056	124.598	-0.229	-0.375
-180.042	-34.330	-0.279	0.199
-179.027	-200.000	0.047	0.336
-178.012	749.792	-0.047	-0.166
-176.998	24.378	0.386	0.415
-175.983	-180.797	-0.664	-0.017
-174.969	-4.832	-0.298	0.267
-173.954	33.035	0.075	-0.084
-172.939	800.000	-0.117	0.598
-171.925	53.124	-0.315	0.392
-170.910	427.914	-0.150	0.422
-169.896	496.479	0.109	0.326
-168.881	225.014	-0.186	-0.393
-167.866	-25.633	0.155	-0.119
-166.852	-62.570	0.263	0.142
-165.837	594.804	-0.169	0.546
-164.823	-180.515	0.266	-0.007
-163.808	-200.000	0.016	-0.137
-162.793	0.058	-0.386	-0.357
-161.779	-149.594	-0.529	-0.054
-160.764	180.122	-0.071	-0.136
-159.750	104.428	-0.221	0.338
-158.735	800.000	-0.052	0.300
-157.720	800.000	0.025	-0.136
-156.706	-69.625	0.261	0.129
-155.691	89.011	0.177	-0.256
-154.677	-200.000	0.060	0.408
-153.662	-120.929	-0.462	0.100
-152.647	263.691	0.114	-0.258
-151.633	-89.322	0.034	-0.013
-150.618	-0.609	0.093	-0.085
-149.604	73.052	0.169	0.229
-148.589	-123.085	0.523	0.108
-147.574	541.894	0.036	-0.112
-146.560	-81.185	0.162	0.069
-145.545	-19.657	-0.252	0.202
-144.531	-85.378	0.166	-0.067
-143.516	-101.072	-0.120	0.038
-142.502	136.204	-0.471	0.799
-141.487	-89.805	0.203	0.077
-140.472	-200.000	0.043	-0.278
-139.458	-133.991	0.262	0.042
-138.443	29.016	0.270	-0.298
-137.429	-94.187	-0.467	-0.165
-136.414	88.949	-0.111	0.160
-135.399	-10.351	0.255	0.219
-134.385	33.515	0.301	0.340
-133.370	-75.632	0.423	-0.194
-132.356	-134.395	0.689	0.108
-131.341	-200.000	0.012	-0.288
-130.326	-58.120	-0.028	0.016
-129.312	800.000	-0.092	-0.417
-128.297	800.000	-0.043	-0.174
-127.283	-135.661	-0.370	0.056
-126.268	-43.141	0.509	0.334
-125.253	230.404	-0.092	0.195
-124.239	-82.508	0.089	0.037
-123.224	-71.525	-0.223	0.107
-122.210	-200.000	-0.013	0.197
-121.195	-143.694	-0.293	0.036
-120.180	-125.331	0.189	0.037
