DTS Sentinel unit serial number:	SN409020Multiplexer serial number:	ORYXHardware model number:	OX4-SRSoftware version number:	ORYX F/W v3.00 Oryx Data Collector v3.7.2.0data status	okinstallation	HaddamTimeLapsedifferential loss correction	single-endedforward channel	channel 3reverse channel	N/Adate	2011/06/21time	15:51:17forward acquisition time	30.00reverse acquisition time	0.00gamma	498.7831k internal	0.1803k external	0.1803temperature offset calibration	1.0074default loss term (dB/km)	0.3790temperature slope calibration	1.3530multiplexer offset coefficient	1.0000multiplexer slope coefficient	1.0000fibre end	0.00T internal ref (°C)	36.16T ext. ref 1 (°C)	27.03T ext. ref 2 (°C)	0.22length (m)	temperature (°C)	Stokes	anti-Stokes-747.200	-184.835	-0.629	0.013
-746.185	138.245	-0.315	0.534
-745.171	-139.161	0.184	-0.025
-744.156	800.000	0.089	0.463
-743.142	-200.000	0.014	0.240
-742.127	-200.000	-0.001	0.661
-741.112	-57.018	-0.249	0.141
-740.098	-200.000	0.031	0.618
-739.083	-200.000	-0.021	-0.214
-738.069	29.686	0.263	0.288
-737.054	-97.518	-0.525	0.175
-736.039	-140.827	-0.226	0.030
-735.025	-24.697	-0.081	-0.062
-734.010	-94.630	0.503	0.175
-732.996	-62.883	-0.237	0.126
-731.981	-30.046	0.253	0.185
-730.966	743.969	-0.056	-0.196
-729.952	-56.596	-0.406	0.231
-728.937	-200.000	-0.044	0.263
-727.923	266.058	-0.149	0.336
-726.908	-90.256	-0.061	0.023
-725.894	-91.277	0.430	-0.158
-724.879	-113.166	0.472	0.119
-723.864	7.283	-0.210	0.202
-722.850	44.637	0.088	-0.104
-721.835	638.428	-0.122	-0.402
-720.821	193.758	0.105	0.205
-719.806	209.898	-0.325	-0.660
-718.791	-103.908	-0.234	0.070
-717.777	71.769	0.147	-0.197
-716.762	-115.723	-0.091	-0.022
-715.748	-105.021	-0.102	0.030
-714.733	12.537	0.211	0.209
-713.718	-123.839	-0.387	-0.078
-712.704	-1.474	0.106	0.096
-711.689	-35.419	0.155	0.108
-710.675	-107.945	0.294	0.082
-709.660	-160.005	0.560	0.039
-708.645	-88.467	-0.178	0.068
-707.631	-76.399	-0.243	-0.110
-706.616	-179.537	0.228	-0.006
-705.602	-28.121	-0.319	0.237
-704.587	-107.505	-0.488	0.137
-703.572	188.596	-0.180	-0.348
-702.558	67.393	-0.034	0.045
-701.543	-1.249	-0.762	0.692
-700.529	255.531	0.196	0.433
-699.514	-97.155	0.437	-0.146
-698.499	-200.000	0.040	-0.729
-697.485	393.352	0.148	0.397
-696.470	800.000	0.071	0.266
-695.456	11.915	-0.443	0.438
-694.441	-149.742	0.062	0.006
-693.426	-89.916	-0.092	-0.035
-692.412	11.199	0.057	0.056
-691.397	-74.252	-0.535	-0.248
-690.383	-72.000	-0.577	-0.275
-689.368	-93.119	0.345	-0.123
-688.354	448.297	-0.180	0.512
-687.339	-13.090	-0.210	-0.175
-686.324	-200.000	0.009	-0.183
-685.310	-28.556	0.113	-0.084
-684.295	395.757	0.088	-0.239
-683.281	57.857	0.259	0.327
-682.266	-141.692	-0.185	0.024
-681.251	800.000	0.044	-0.219
-680.237	-200.000	-0.017	0.350
-679.222	-162.513	0.154	0.010
-678.208	192.415	0.209	0.407
-677.193	-106.264	-0.566	0.162
-676.178	-169.917	-0.025	0.001
-675.164	-52.452	-0.336	0.199
-674.149	800.000	-0.036	-0.190
-673.135	-50.970	-0.561	-0.338
-672.120	800.000	0.070	0.386
-671.105	94.297	-0.143	0.208
-670.091	800.000	0.069	-0.297
-669.076	26.781	-0.390	-0.420
-668.062	-74.620	-0.112	0.052
-667.047	-118.413	-0.270	0.061
-666.032	-200.000	0.027	-0.380
-665.018	-200.000	0.051	0.392
-664.003	185.985	0.152	-0.291
-662.989	800.000	0.054	0.305
-661.974	-57.399	-0.175	-0.098
-660.959	-118.975	-0.306	0.068
-659.945	-200.000	-0.064	-0.657
-658.930	-86.361	-0.429	-0.169
-657.916	-165.162	-0.283	-0.016
-656.901	-146.446	0.386	0.043
-655.886	23.600	0.140	-0.148
-654.872	800.000	0.015	-0.079
-653.857	-4.826	-0.374	-0.331
-652.843	-200.000	-0.019	-0.161
-651.828	-177.953	0.608	-0.018
-650.814	52.136	-0.266	-0.326
-649.799	695.353	0.096	-0.326
-648.784	144.624	-0.080	0.138
-647.770	-176.745	-0.339	-0.011
-646.755	-200.000	-0.010	-0.078
-645.741	52.936	0.204	-0.251
-644.726	-141.013	0.309	0.040
-643.711	134.474	-0.068	-0.114
-642.697	-35.184	-0.247	-0.172
-641.682	800.000	0.041	-0.177
-640.668	100.966	-0.115	0.173
-639.653	668.459	0.049	-0.164
-638.638	-87.304	0.043	0.017
-637.624	62.527	-0.064	0.082
-636.609	-200.000	-0.004	-0.028
-635.595	376.846	0.074	0.196
-634.580	-49.338	-0.167	0.102
-633.565	-60.881	-0.157	0.085
-632.551	235.070	0.156	-0.331
-631.536	-144.765	-0.477	0.056
-630.522	-81.065	0.115	-0.049
-629.507	800.000	0.027	-0.143
-628.492	-44.393	0.310	0.199
-627.478	-108.439	-0.576	-0.158
-626.463	195.539	0.423	-0.828
-625.449	10.695	-0.075	-0.073
-624.434	-57.516	-0.222	0.125
-623.419	-144.731	0.180	-0.021
-622.405	-200.000	-0.013	-0.161
-621.390	408.250	0.093	-0.254
-620.376	-134.058	0.361	-0.057
-619.361	800.000	0.042	0.186
-618.346	-200.000	0.000	-0.052
-617.332	-58.556	-0.137	0.076
-616.317	-200.000	-0.046	-0.418
-615.303	-11.954	0.181	0.152
-614.288	-200.000	0.041	-0.244
-613.273	800.000	0.079	0.381
-612.259	-200.000	-0.047	-0.473
-611.244	230.352	-0.069	-0.146
-610.230	231.829	0.081	-0.171
-609.215	-146.799	0.288	-0.031
-608.201	38.785	-0.036	-0.042
-607.186	-105.706	0.290	-0.084
-606.171	800.000	0.083	0.391
-605.157	108.707	0.271	-0.417
-604.142	-61.003	-0.407	-0.220
-603.128	-183.192	0.158	-0.003
-602.113	800.000	0.055	-0.222
-601.098	-53.884	-0.279	0.163
-600.084	34.527	-0.069	0.077
-599.069	5.893	0.209	-0.198
-598.055	211.605	0.206	-0.417
-597.040	292.072	-0.191	-0.448
-596.025	12.556	0.288	-0.285
-595.011	208.568	0.074	0.149
-593.996	-129.428	-0.326	0.057
-592.982	-148.195	-0.266	-0.028
-591.967	-53.314	-0.218	0.128
-590.952	-78.222	0.302	0.133
-589.938	800.000	-0.079	0.334
-588.923	800.000	-0.113	0.494
-587.909	-77.605	-0.476	0.211
-586.894	-105.637	-0.188	0.054
-585.879	-65.046	-0.136	0.070
-584.865	-46.615	-0.244	-0.153
-583.850	800.000	-0.082	-0.300
-582.836	-200.000	-0.009	-0.259
-581.821	-112.756	-0.333	0.084
-580.806	-200.000	0.017	0.354
-579.792	-100.250	0.322	0.102
-578.777	-90.780	0.375	0.138
-577.763	231.720	0.171	-0.361
-576.748	20.439	0.167	-0.172
-575.733	573.683	-0.091	0.287
-574.719	-34.557	-0.105	-0.074
-573.704	800.000	-0.059	0.265
-572.690	-109.218	-0.242	0.065
-571.675	-84.837	0.243	-0.097
-570.661	-109.747	0.185	-0.050
-569.646	20.010	-0.127	0.131
-568.631	407.021	-0.195	-0.532
-567.617	-37.086	-0.174	0.119
-566.602	-200.000	0.007	-0.137
-565.588	-155.065	0.381	-0.032
-564.573	-200.000	0.412	0.000
-563.558	-200.000	0.002	0.382
-562.544	122.373	0.095	0.153
-561.529	-165.620	0.167	0.009
-560.515	-153.376	0.522	0.046
-559.500	-46.551	0.159	-0.100
-558.485	-14.028	-0.121	-0.100
-557.471	-103.255	-0.586	0.176
-556.456	324.034	-0.148	0.363
-555.442	568.358	-0.083	0.261
-554.427	158.834	-0.098	-0.174
-553.412	126.715	-0.087	-0.141
-552.398	-200.000	0.009	0.101
-551.383	-175.652	-0.352	0.012
-550.369	-69.360	-0.149	0.073
-549.354	-93.959	0.130	0.045
-548.339	-200.000	-0.063	-0.487
-547.325	-85.230	0.146	0.058
-546.310	-200.000	0.008	-0.212
-545.296	800.000	-0.138	-0.553
-544.281	-157.862	-0.483	-0.036
-543.266	-11.569	-0.233	-0.195
-542.252	7.900	-0.216	0.207
-541.237	-94.473	0.288	0.100
-540.223	7.484	0.496	-0.474
-539.208	-200.000	-0.027	0.313
-538.193	127.261	-0.278	-0.452
-537.179	-185.777	0.382	-0.007
-536.164	-200.000	0.029	-0.166
-535.150	-122.771	-0.407	-0.083
-534.135	270.947	0.184	0.417
-533.121	-82.856	0.376	0.155
-532.106	-169.262	-0.056	0.003
-531.091	-129.409	-0.430	0.076
-530.077	-200.000	0.030	0.235
-529.062	-126.543	0.177	0.033
-528.048	-87.685	0.337	0.129
-527.033	800.000	0.008	0.031
-526.018	-74.622	-0.180	-0.083
-525.004	-64.190	-0.105	-0.055
-523.989	-115.831	0.187	0.044
-522.975	-143.921	0.634	0.076
-521.960	800.000	-0.007	-0.035
-520.945	343.171	0.096	-0.243
-519.931	559.261	-0.089	-0.275
-518.916	-101.913	0.406	-0.125
-517.902	-91.582	0.289	0.105
-516.887	-13.338	-0.277	-0.230
-515.872	-171.321	0.673	-0.028
-514.858	-60.852	0.194	-0.105
-513.843	312.272	-0.364	-0.878
-512.829	529.364	0.078	-0.237
-511.814	-64.548	0.113	0.059
-510.799	313.381	-0.079	-0.190
-509.785	8.680	-0.369	-0.355
-508.770	-114.387	-0.071	-0.017
-507.756	-2.792	-0.194	-0.173
-506.741	-180.047	-0.201	-0.005
-505.726	26.431	0.300	0.320
-504.712	488.813	0.130	0.382
-503.697	-200.000	-0.001	-0.122
-502.683	-51.477	0.241	0.143
-501.668	800.000	-0.019	0.097
-500.653	122.289	0.089	-0.143
-499.639	800.000	-0.131	-0.510
-498.624	-27.396	0.637	0.473
-497.610	210.385	0.118	-0.238
-496.595	469.250	-0.144	-0.416
-495.581	85.659	-0.280	0.394
-494.566	-200.000	-0.056	0.404
-493.551	140.915	-0.140	-0.237
-492.537	257.820	-0.058	-0.129
-491.522	3.785	-0.216	0.201
-490.508	65.339	0.181	0.234
-489.493	518.874	0.034	0.102
-488.478	-200.000	-0.021	0.299
-487.464	-119.024	-0.091	-0.020
-486.449	726.983	0.031	0.106
-485.435	-200.000	0.020	-0.293
-484.420	-141.387	0.263	-0.034
-483.405	-153.930	-0.590	-0.051
-482.391	-1.271	-0.226	0.203
-481.376	-124.402	-0.305	0.060
-480.362	-60.888	-0.084	0.045
-479.347	-200.000	0.000	-0.319
-478.332	-200.000	-0.046	-0.332
-477.318	165.026	-0.186	0.336
-476.303	80.488	0.178	0.245
-475.289	-35.930	-0.352	0.243
-474.274	-52.577	-0.352	-0.207
-473.259	-200.000	-0.061	-0.589
-472.245	293.920	0.253	-0.592
-471.230	-117.932	-0.261	0.059
-470.216	37.107	-0.242	0.274
-469.201	11.518	-0.198	-0.194
-468.186	-200.000	-0.007	0.786
-467.172	41.866	-0.091	0.105
-466.157	81.293	0.203	-0.281
-465.143	524.951	0.134	-0.406
-464.128	800.000	0.179	-0.652
-463.113	800.000	0.039	0.154
-462.099	294.742	0.153	-0.358
-461.084	115.876	-0.105	-0.165
-460.070	-125.492	-0.278	0.053
-459.055	13.423	-0.188	-0.185
-458.040	290.195	-0.202	-0.471
-457.026	-200.000	0.002	-0.246
-456.011	138.872	0.099	-0.167
-454.997	-151.906	0.391	0.036
-453.982	387.607	-0.124	-0.329
-452.968	800.000	-0.053	0.230
-451.953	279.917	-0.092	-0.211
-450.938	260.486	-0.121	-0.268
-449.924	-105.350	0.247	0.071
-448.909	-5.273	-0.223	-0.195
-447.895	-200.000	0.044	0.249
-446.880	-81.930	0.156	-0.065
-445.865	-28.028	-0.280	0.206
-444.851	-200.000	0.002	0.267
-443.836	-85.391	0.339	-0.134
-442.822	-200.000	-0.019	-0.174
-441.807	-161.557	0.149	0.010
-440.792	-129.753	-0.253	0.044
-439.778	-39.555	0.139	-0.093
-438.763	-93.642	0.392	-0.137
-437.749	-200.000	-0.555	0.000
-436.734	756.119	0.089	0.309
-435.719	-200.000	0.038	-0.273
-434.705	13.212	0.135	-0.134
-433.690	-94.050	-0.235	-0.082
-432.676	800.000	-0.053	-0.248
-431.661	-44.625	0.209	0.133
-430.646	-138.557	-0.239	0.033
-429.632	-61.134	-0.328	0.176
-428.617	177.421	-0.170	-0.317
-427.603	24.246	-0.243	0.256
-426.588	-5.694	0.254	0.222
-425.573	-96.018	0.377	-0.127
-424.559	138.321	-0.115	-0.192
-423.544	-66.544	-0.232	-0.117
-422.530	9.369	-0.233	0.224
-421.515	-79.721	-0.163	0.070
-420.500	131.156	0.092	0.151
-419.486	10.921	-0.117	-0.114
-418.471	-200.000	-0.049	0.297
-417.457	13.134	-0.168	-0.165
-416.442	109.370	0.185	0.283
-415.428	800.000	0.079	0.281
-414.413	-138.027	-0.115	0.016
-413.398	-96.751	-0.440	0.147
-412.384	-200.000	-0.045	-0.257
-411.369	41.298	-0.119	-0.137
-410.355	773.995	0.123	-0.431
-409.340	800.000	0.065	0.276
-408.325	81.111	0.095	-0.130
-407.311	11.011	-0.058	0.057
-406.296	-115.862	0.363	-0.086
-405.282	-200.000	0.011	0.199
-404.267	-144.021	-0.158	-0.019
-403.252	34.581	0.133	0.148
-402.238	-32.996	0.359	-0.253
-401.223	-108.065	-0.294	0.080
-400.209	800.000	-0.107	-0.501
-399.194	574.636	-0.059	0.184
-398.179	280.886	0.041	-0.093
-397.165	-136.611	0.369	-0.054
-396.150	792.523	-0.080	0.281
-395.136	70.390	0.044	-0.058
-394.121	-200.000	0.057	0.327
-393.106	800.000	0.060	0.255
-392.092	-91.612	-0.600	0.216
-391.077	-51.083	0.442	0.263
-390.063	-200.000	0.030	-0.349
-389.048	-137.271	0.064	0.009
-388.033	96.793	-0.236	-0.344
-387.019	29.142	-0.440	-0.475
-386.004	800.000	-0.152	-0.568
-384.990	-147.410	0.426	-0.045
-383.975	125.836	-0.158	-0.254
-382.960	-28.758	0.164	0.120
-381.946	-79.093	0.264	0.114
-380.931	73.833	0.420	-0.561
-379.917	87.882	-0.288	0.406
-378.902	800.000	-0.074	0.351
-377.888	30.417	-0.114	0.124
-376.873	227.365	-0.069	-0.143
-375.858	-31.908	0.272	0.193
-374.844	-94.453	-0.200	-0.069
-373.829	550.829	0.085	0.259
-372.815	-200.000	-0.017	-0.114
-371.800	-58.419	0.232	-0.128
-370.785	-143.211	0.296	0.036
-369.771	246.945	0.136	0.293
-368.756	-200.000	-0.057	-0.370
-367.742	221.911	-0.146	0.300
-366.727	-78.186	0.668	0.290
-365.712	-99.197	0.213	-0.068
-364.698	26.695	0.310	0.330
-363.683	-116.511	-0.186	-0.043
-362.669	-74.479	0.446	0.203
-361.654	216.032	0.106	0.214
-360.639	800.000	-0.075	-0.318
-359.625	-200.000	0.031	0.197
-358.610	174.664	-0.127	-0.234
-357.596	105.095	0.273	0.410
-356.581	-200.000	-0.022	0.195
-355.566	-200.000	0.020	-0.320
-354.552	-161.536	0.280	0.018
-353.537	-61.518	0.570	0.303
-352.523	-113.431	0.490	-0.121
-351.508	-200.000	-0.001	0.055
-350.493	-104.732	0.321	-0.093
-349.479	154.889	0.017	0.029
-348.464	-105.257	-0.155	-0.045
-347.450	-69.054	-0.067	0.032
-346.435	171.002	-0.066	-0.121
-345.420	-40.682	-0.213	-0.140
-344.406	-200.000	0.008	0.248
-343.391	-133.829	0.254	-0.040
-342.377	800.000	0.101	0.397
-341.362	-123.360	0.070	0.014
-340.348	281.037	-0.294	-0.670
-339.333	-200.000	0.002	-0.202
-338.318	37.999	0.240	0.272
-337.304	-90.757	0.219	0.080
-336.289	28.688	-0.120	0.129
-335.275	84.867	0.284	0.396
-334.260	-91.130	-0.180	-0.065
-333.245	-150.115	-0.160	0.016
-332.231	-30.043	-0.066	-0.048
-331.216	-96.239	-0.348	0.116
-330.202	-16.748	-0.631	-0.506
-329.187	-136.693	-0.390	-0.057
-328.172	800.000	-0.036	-0.141
-327.158	-200.000	-0.027	0.290
-326.143	186.227	-0.153	0.289
-325.129	583.303	0.243	0.763
-324.114	-43.470	0.332	-0.212
-323.099	-29.346	-0.148	0.107
-322.085	-10.585	0.237	0.199
-321.070	-126.742	0.268	-0.050
-320.056	-180.896	-0.494	0.012
-319.041	56.957	-0.211	-0.261
-318.026	89.597	0.097	-0.137
-317.012	-47.602	-0.265	0.163
-315.997	84.191	0.423	-0.587
-314.983	-200.000	-0.018	0.568
-313.968	9.647	0.282	-0.271
-312.953	-200.000	0.003	-0.189
-311.939	800.000	-0.071	0.322
-310.924	297.624	-0.014	0.033
-309.910	44.627	0.041	0.048
-308.895	-0.049	0.251	-0.226
-307.880	220.092	-0.099	-0.201
-306.866	710.596	0.078	-0.264
-305.851	404.036	-0.088	-0.237
-304.837	-64.934	0.189	-0.096
-303.822	-200.000	0.024	0.223
-302.807	49.188	-0.166	0.198
-301.793	-118.399	-0.635	0.142
-300.778	-93.596	-0.450	0.157
-299.764	-107.100	-0.143	-0.040
-298.749	-200.000	0.033	-0.289
-297.735	-114.356	0.389	-0.094
-296.720	58.033	0.244	-0.303
-295.705	-96.460	0.630	-0.210
-294.691	-120.676	0.311	-0.066
-293.676	-83.539	0.705	-0.285
-292.662	-105.072	0.175	-0.050
-291.647	-38.994	-0.217	-0.144
-290.632	-35.520	-0.230	0.158
-289.618	-131.788	0.295	0.049
-288.603	800.000	-0.048	-0.179
-287.589	-159.644	0.142	-0.010
-286.574	-105.578	-0.158	-0.045
-285.559	120.815	-0.235	-0.371
-284.545	800.000	0.154	0.603
-283.530	431.617	-0.216	0.595
-282.516	-36.850	-0.285	0.193
-281.501	120.454	-0.070	-0.111
-280.486	-16.072	0.360	0.289
-279.472	-200.000	-0.002	0.098
-278.457	-141.793	-0.318	-0.040
-277.443	-129.633	0.190	-0.033
-276.428	124.720	-0.083	0.133
-275.413	800.000	0.020	0.081
-274.399	273.831	0.189	0.424
-273.384	110.551	-0.148	0.225
-272.370	-89.296	-0.314	0.116
-271.355	-128.785	-0.337	0.060
-270.340	-6.000	-0.185	0.160
-269.326	-104.790	-0.339	-0.098
-268.311	-127.515	-0.027	-0.005
-267.297	-93.626	0.302	0.105
-266.282	52.750	0.067	-0.081
-265.267	-169.210	-0.255	-0.012
-264.253	-62.729	0.389	-0.203
-263.238	96.776	-0.140	0.204
-262.224	-64.021	0.368	0.190
-261.209	458.516	0.112	0.318
-260.195	-136.255	-0.263	0.039
-259.180	-136.338	0.118	0.017
-258.165	3.434	-0.272	-0.250
-257.151	136.606	-0.187	-0.310
-256.136	-93.879	-0.483	-0.167
-255.122	-143.147	-0.352	0.042
-254.107	25.937	0.203	-0.215
-253.092	-86.527	-0.122	0.047
-252.078	-131.995	-0.264	-0.043
-251.063	104.748	0.309	0.462
-250.049	164.478	-0.270	0.483
-249.034	-35.723	0.098	-0.067
-248.019	-200.000	0.042	-0.345
-247.005	-140.842	-0.358	0.046
-245.990	-31.863	0.113	0.080
-244.976	365.737	-0.087	0.222
-243.961	-130.883	0.589	-0.099
-242.946	-56.209	-0.126	-0.070
-241.932	-200.000	0.001	0.172
-240.917	-68.700	0.245	-0.119
-239.903	-200.000	0.040	0.281
-238.888	-123.339	0.151	0.030
-237.873	105.558	-0.153	-0.229
-236.859	129.040	-0.015	-0.024
-235.844	123.147	0.220	0.349
-234.830	-140.259	-0.354	0.046
-233.815	370.443	-0.061	-0.158
-232.800	-35.377	-0.339	0.233
-231.786	-138.810	0.249	-0.034
-230.771	-200.000	0.044	0.296
-229.757	689.359	0.144	-0.480
-228.742	-133.552	-0.427	-0.067
-227.727	-200.000	-0.047	-0.650
-226.713	-0.587	0.352	-0.316
-225.698	160.803	-0.126	0.223
-224.684	-200.000	0.021	-0.125
-223.669	119.655	0.210	0.329
-222.655	-13.118	0.229	-0.188
-221.640	-16.957	-0.405	-0.323
-220.625	285.845	-0.156	-0.356
-219.611	81.884	-0.146	-0.199
-218.596	143.246	0.197	0.332
-217.582	-200.000	-0.078	0.505
-216.567	205.840	-0.363	0.716
-215.552	415.816	0.332	0.899
-214.538	800.000	-0.079	0.340
-213.523	192.049	-0.231	0.441
-212.509	-200.000	-0.027	0.518
-211.494	56.408	0.207	-0.255
-210.479	8.400	-0.087	0.083
-209.465	58.157	0.174	0.215
-208.450	800.000	0.050	0.220
-207.436	-200.000	0.037	0.357
-206.421	800.000	-0.038	-0.135
-205.406	59.149	0.160	-0.199
-204.392	-55.273	-0.412	-0.233
-203.377	-28.055	-0.500	-0.365
-202.363	-26.390	-0.107	-0.079
-201.348	38.992	-0.138	0.156
-200.333	319.316	-0.086	0.206
-199.319	800.000	0.072	0.370
-198.304	320.636	-0.066	0.159
-197.290	62.094	0.175	0.221
-196.275	-95.419	-0.062	-0.021
-195.260	212.758	-0.120	0.239
-194.246	-77.074	0.249	0.109
-193.231	-177.060	-0.303	-0.009
-192.217	107.968	-0.132	0.198
-191.202	-72.955	0.551	0.254
-190.187	-110.114	-0.178	0.047
-189.173	-71.230	-0.225	0.106
-188.158	25.487	-0.064	0.067
-187.144	-61.766	0.253	0.133
-186.129	-106.639	0.388	-0.108
-185.114	-200.000	-0.005	0.349
-184.100	-147.879	-0.175	-0.018
-183.085	70.162	0.240	-0.313
-182.071	-142.780	-0.276	-0.034
-181.056	73.083	-0.232	0.306
-180.042	-149.844	0.137	0.013
-179.027	-138.422	-0.201	0.028
-178.012	388.482	-0.181	0.474
-176.998	163.074	-0.104	-0.184
-175.983	-117.802	0.296	0.066
-174.969	-129.301	0.281	-0.049
-173.954	-157.813	0.318	0.023
-172.939	-79.576	0.662	-0.281
-171.925	40.185	-0.217	0.246
-170.910	375.013	0.031	-0.080
-169.896	-106.921	-0.426	-0.118
-168.881	112.399	0.208	-0.318
-167.866	-85.549	-0.177	-0.069
-166.852	-85.104	0.120	-0.047
-165.837	224.347	0.048	-0.098
-164.823	-200.000	0.010	0.420
-163.808	174.837	-0.238	-0.435
-162.793	800.000	-0.088	0.366
-161.779	715.193	0.218	0.734
-160.764	36.649	-0.242	0.269
-159.750	-145.352	0.408	-0.046
-158.735	-107.948	0.283	-0.077
-157.720	69.743	-0.386	0.502
-156.706	101.886	-0.182	0.269
-155.691	-94.745	-0.251	0.085
-154.677	-111.310	0.499	-0.128
-153.662	637.008	-0.107	-0.344
-152.647	-87.147	0.324	0.124
-151.633	-105.252	0.239	-0.068
-150.618	-176.646	-0.243	0.008
-149.604	-125.399	0.300	0.057
-148.589	800.000	-0.040	0.184
-147.574	31.827	0.294	0.319
-146.560	14.991	0.047	-0.046
-145.545	-130.768	-0.481	0.081
-144.531	-199.657	0.425	-0.003
-143.516	800.000	0.033	0.147
-142.502	-200.000	-0.006	-0.078
-141.487	480.932	-0.102	-0.292
-140.472	429.870	0.163	-0.447
-139.458	50.627	-0.119	0.142
-138.443	-79.973	-0.087	-0.037
-137.429	-200.000	0.012	-0.247
-136.414	632.868	0.080	0.255
-135.399	113.242	-0.174	0.267
-134.385	25.150	-0.283	-0.296
-133.370	-96.429	0.373	0.123
-132.356	151.784	0.184	0.317
-131.341	43.189	-0.202	0.233
-130.326	-26.632	-0.160	0.118
-129.312	205.028	0.051	-0.099
-128.297	8.966	-0.229	0.218
-127.283	122.038	-0.194	0.305
-126.268	-75.201	-0.128	-0.058
-125.253	-200.000	0.006	0.117
-124.239	-45.390	0.200	0.124
-123.224	-100.031	-0.256	-0.080
-122.210	6.407	0.266	0.249
