DTS Sentinel unit serial number:	SN409020Multiplexer serial number:	ORYXHardware model number:	OX4-SRSoftware version number:	ORYX F/W v3.00 Oryx Data Collector v3.7.2.0data status	okinstallation	HaddamTimeLapsedifferential loss correction	single-endedforward channel	channel 3reverse channel	N/Adate	2011/06/21time	20:26:16forward acquisition time	30.00reverse acquisition time	0.00gamma	498.7831k internal	0.1778k external	0.1778temperature offset calibration	1.0074default loss term (dB/km)	0.3790temperature slope calibration	1.3530multiplexer offset coefficient	1.0000multiplexer slope coefficient	1.0000fibre end	0.00T internal ref (°C)	30.34T ext. ref 1 (°C)	22.32T ext. ref 2 (°C)	0.03length (m)	temperature (°C)	Stokes	anti-Stokes-747.200	200.998	0.179	-0.362
-746.185	-110.326	-0.248	-0.067
-745.171	-30.248	-0.335	-0.249
-744.156	5.204	-0.585	0.563
-743.142	91.814	-0.085	-0.125
-742.127	-5.615	0.063	-0.056
-741.112	-72.398	-0.130	-0.063
-740.098	800.000	-0.121	0.527
-739.083	-79.369	0.316	-0.139
-738.069	73.634	-0.154	0.211
-737.054	417.586	-0.144	-0.404
-736.039	-147.885	-0.283	-0.031
-735.025	-45.663	0.270	-0.174
-734.010	-109.242	0.445	0.123
-732.996	-23.367	-0.300	0.235
-731.981	152.416	-0.063	-0.113
-730.966	-200.000	0.004	0.248
-729.952	144.643	0.112	-0.196
-728.937	-137.799	-0.095	0.014
-727.923	286.977	-0.122	-0.289
-726.908	-200.000	-0.047	-0.381
-725.894	800.000	-0.111	0.479
-724.879	-101.472	-0.368	-0.116
-723.864	-31.238	0.152	-0.112
-722.850	-38.428	-0.268	-0.185
-721.835	-200.000	0.033	-0.414
-720.821	800.000	-0.047	-0.265
-719.806	-91.661	-0.449	-0.166
-718.791	18.665	0.212	-0.221
-717.777	-142.362	0.286	0.037
-716.762	-96.049	-0.317	-0.109
-715.748	-99.539	-0.151	0.049
-714.733	82.614	0.095	-0.135
-713.718	-82.083	0.313	0.133
-712.704	3.462	0.521	-0.495
-711.689	148.124	0.098	0.173
-710.675	-137.247	0.291	0.043
-709.660	-133.110	-0.298	0.049
-708.645	-200.000	0.008	0.147
-707.631	456.004	0.125	-0.363
-706.616	800.000	-0.081	-0.389
-705.602	-200.000	-0.014	0.396
-704.587	-200.000	0.025	-0.382
-703.572	106.526	0.231	-0.358
-702.558	139.264	-0.026	-0.045
-701.543	30.285	0.248	0.276
-700.529	-18.696	-0.370	-0.301
-699.514	-144.835	0.247	-0.029
-698.499	658.277	-0.106	-0.357
-697.485	-200.000	-0.059	-0.698
-696.470	68.174	-0.175	0.234
-695.456	-148.023	0.087	-0.009
-694.441	525.840	-0.146	0.452
-693.426	-114.569	-0.470	0.117
-692.412	-30.055	0.338	0.251
-691.397	-108.730	0.462	0.128
-690.383	-120.783	-0.376	0.082
-689.368	-128.805	0.179	0.033
-688.354	-175.267	0.805	-0.028
-687.339	112.571	-0.197	-0.312
-686.324	-143.874	-0.113	0.014
-685.310	-200.000	-0.002	0.521
-684.295	-24.530	-0.550	-0.427
-683.281	-200.000	0.026	-0.253
-682.266	-49.877	-0.277	-0.171
-681.251	800.000	0.115	-0.478
-680.237	-72.914	0.281	-0.134
-679.222	-200.000	0.027	0.307
-678.208	740.899	-0.113	-0.398
-677.193	-121.474	0.061	0.013
-676.178	-200.000	0.026	-0.236
-675.164	-26.628	-0.298	-0.227
-674.149	-194.878	-0.461	-0.005
-673.135	-30.977	-0.184	-0.135
-672.120	109.352	-0.140	-0.219
-671.105	800.000	-0.079	-0.445
-670.091	-200.000	0.006	-0.259
-669.076	-200.000	-0.010	-0.386
-668.062	-69.336	0.275	-0.137
-667.047	-98.209	-0.117	-0.039
-666.032	196.349	-0.100	0.200
-665.018	-83.731	0.237	0.098
-664.003	-133.582	-0.336	-0.054
-662.989	-200.000	-0.475	-0.002
-661.974	-10.699	-0.470	-0.405
-660.959	-200.000	0.040	0.321
-659.945	-103.582	0.065	-0.020
-658.930	-200.000	0.006	0.686
-657.916	-123.762	-0.147	0.030
-656.901	-94.142	-0.443	0.157
-655.886	-43.123	0.021	-0.014
-654.872	-76.270	-0.404	0.185
-653.857	100.138	0.245	0.372
-652.843	173.084	-0.199	-0.374
-651.828	-76.552	0.121	0.055
-650.814	40.367	0.086	-0.101
-649.799	-93.319	0.575	0.207
-648.784	-200.000	0.003	0.504
-647.770	-119.075	0.272	0.062
-646.755	-47.130	-0.150	0.095
-645.741	146.754	-0.321	0.564
-644.726	-13.382	0.154	-0.130
-643.711	218.343	0.068	-0.142
-642.697	63.538	-0.263	-0.344
-641.682	800.000	0.039	0.149
-640.668	-151.314	0.129	-0.012
-639.653	25.051	-0.348	0.376
-638.638	-51.916	0.505	0.305
-637.624	-161.924	0.387	-0.025
-636.609	96.578	-0.319	0.476
-635.595	-177.293	-0.279	-0.009
-634.580	-114.956	-0.377	-0.093
-633.565	-11.843	-0.256	-0.219
-632.551	-5.959	-0.171	0.152
-631.536	-34.616	-0.288	-0.205
-630.522	-93.103	-0.237	-0.085
-629.507	-62.739	-0.228	0.122
-628.492	206.855	-0.141	-0.287
-627.478	175.610	-0.170	-0.322
-626.463	0.889	0.412	0.384
-625.449	231.563	-0.177	0.378
-624.434	-70.642	-0.387	0.190
-623.419	604.841	0.104	-0.338
-622.405	5.698	-0.209	-0.201
-621.390	-25.065	0.135	-0.104
-620.376	288.661	-0.131	0.311
-619.361	-87.760	0.443	0.173
-618.346	338.257	-0.187	-0.476
-617.332	800.000	0.075	-0.326
-616.317	203.718	-0.243	0.491
-615.303	-176.237	-0.263	-0.009
-614.288	-47.997	-0.149	0.093
-613.273	12.127	0.037	-0.037
-612.259	48.268	-0.221	-0.270
-611.244	-122.316	0.378	-0.080
-610.230	-91.094	0.376	-0.140
-609.215	-33.965	-0.113	-0.080
-608.201	800.000	0.060	0.283
-607.186	-93.979	0.086	-0.030
-606.171	-200.000	-0.056	-0.361
-605.157	123.712	0.034	-0.056
-604.142	-200.000	0.048	-0.346
-603.128	800.000	0.057	0.258
-602.113	-3.128	-0.316	0.286
-601.098	-80.843	0.039	-0.017
-600.084	-49.680	-0.188	-0.116
-599.069	120.512	0.332	0.538
-598.055	-67.322	-0.371	0.189
-597.040	651.544	0.229	-0.769
-596.025	-25.590	-0.128	-0.098
-595.011	-91.836	-0.216	0.079
-593.996	-91.462	-0.100	-0.037
-592.982	-200.000	0.010	0.301
-591.967	16.515	-0.107	-0.110
-590.952	-200.000	0.061	-0.467
-589.938	-24.394	0.164	-0.127
-588.923	-136.199	0.385	-0.058
-587.909	-78.109	0.260	-0.116
-586.894	-109.913	0.126	-0.034
-585.879	64.580	-0.219	0.287
-584.865	-51.815	0.349	-0.210
-583.850	-200.000	0.004	0.097
-582.836	-133.395	-0.017	0.003
-581.821	-200.000	0.011	-0.424
-580.806	-76.568	0.081	-0.037
-579.792	-151.214	0.335	-0.032
-578.777	-152.930	0.415	-0.038
-577.763	-58.152	0.380	-0.215
-576.748	-34.685	-0.459	-0.325
-575.733	-200.000	-0.023	0.308
-574.719	-200.000	0.001	0.168
-573.704	-13.199	0.123	0.104
-572.690	-91.743	0.256	0.094
-571.675	-3.732	-0.334	-0.301
-570.661	-58.624	-0.243	0.136
-569.646	800.000	0.032	-0.182
-568.631	-157.736	0.133	0.010
-567.617	-200.000	0.035	0.300
-566.602	-25.384	0.037	-0.029
-565.588	289.290	0.051	-0.120
-564.573	583.685	0.206	-0.659
-563.558	-135.866	-0.134	0.020
-562.544	-126.691	0.505	0.096
-561.529	-65.036	-0.121	-0.063
-560.515	-200.000	-0.015	-0.166
-559.500	151.778	-0.189	-0.336
-558.485	162.883	-0.112	0.205
-557.471	76.016	0.342	0.471
-556.456	218.836	-0.084	0.176
-555.442	-0.464	0.336	-0.310
-554.427	253.790	-0.050	0.112
-553.412	-200.000	0.043	-0.334
-552.398	-145.852	-0.509	0.058
-551.383	136.978	0.180	0.305
-550.369	-63.131	-0.184	-0.098
-549.354	52.877	-0.053	-0.065
-548.339	-12.015	0.536	0.455
-547.325	-87.223	0.528	0.207
-546.310	-109.189	0.359	0.098
-545.296	-122.165	-0.021	-0.005
-544.281	-186.193	-0.450	-0.008
-543.266	102.952	0.302	-0.460
-542.252	59.184	-0.265	0.339
-541.237	313.661	0.092	0.226
-540.223	-200.000	-0.008	-0.395
-539.208	-113.526	0.780	0.197
-538.193	794.252	-0.032	0.114
-537.179	27.648	-0.201	-0.219
-536.164	-200.000	0.004	0.210
-535.150	-144.938	0.567	0.066
-534.135	-110.393	0.280	0.075
-533.121	-200.000	0.001	0.480
-532.106	83.321	0.097	-0.137
-531.091	-135.754	-0.376	0.057
-530.077	-152.527	-0.044	0.004
-529.062	242.204	-0.056	0.123
-528.048	36.324	-0.364	0.416
-527.033	-116.590	-0.292	0.069
-526.018	-29.096	-0.180	-0.134
-525.004	-80.743	0.056	0.024
-523.989	57.327	-0.066	0.084
-522.975	126.247	0.235	-0.386
-521.960	800.000	0.095	0.454
-520.945	56.772	-0.276	-0.349
-519.931	46.460	0.149	0.179
-518.916	355.074	0.075	-0.194
-517.902	-109.071	0.412	0.113
-516.887	-38.747	-0.243	-0.166
-515.872	-160.083	-0.276	-0.019
-514.858	123.502	0.064	0.105
-513.843	-174.729	0.276	0.010
-512.829	-50.349	0.252	0.154
-511.814	487.543	-0.059	-0.176
-510.799	374.334	-0.046	0.123
-509.785	-11.737	-0.471	-0.400
-508.770	-92.273	0.405	-0.147
-507.756	-62.899	-0.256	-0.137
-506.741	26.667	-0.148	-0.161
-505.726	-112.389	-0.121	-0.031
-504.712	115.848	0.141	-0.225
-503.697	-85.110	-0.335	-0.135
-502.683	-200.000	0.069	0.583
-501.668	31.424	-0.268	0.299
-500.653	57.313	-0.139	0.176
-499.639	257.085	0.097	0.216
-498.624	-66.699	-0.221	-0.113
-497.610	-87.358	-0.540	0.211
-496.595	-40.296	-0.331	-0.223
-495.581	141.110	0.158	0.271
-494.566	-200.000	-0.004	0.386
-493.551	-34.197	0.385	-0.273
-492.537	-126.719	0.438	0.083
-491.522	-200.000	-0.024	0.224
-490.508	-200.000	0.043	0.300
-489.493	-200.000	0.026	-0.203
-488.478	-51.205	0.250	0.151
-487.464	-133.320	0.366	0.059
-486.449	-138.498	-0.436	0.061
-485.435	-7.770	-0.273	0.238
-484.420	160.420	0.094	0.170
-483.405	-200.000	-0.003	-0.099
-482.391	-14.343	0.185	-0.154
-481.376	-200.000	0.023	-0.283
-480.362	-114.658	-0.635	0.156
-479.347	-18.125	0.173	-0.140
-478.332	624.774	0.060	-0.197
-477.318	112.049	0.028	0.044
-476.303	533.417	0.309	0.952
-475.289	-200.000	-0.078	0.473
-474.274	239.938	-0.140	-0.304
-473.259	-103.954	-0.407	0.122
-472.245	-160.468	-0.471	-0.032
-471.230	309.509	-0.117	-0.283
-470.216	525.782	-0.228	-0.700
-469.201	-200.000	0.017	0.177
-468.186	34.464	0.238	-0.269
-467.172	-83.507	0.212	-0.087
-466.157	86.167	-0.225	-0.321
-465.143	-200.000	-0.003	-0.203
-464.128	-79.996	-0.088	0.038
-463.113	10.193	-0.545	0.536
-462.099	-81.866	-0.480	0.202
-461.084	-22.144	-0.114	-0.089
-460.070	307.644	-0.162	-0.393
-459.055	-49.924	-0.449	0.275
-458.040	-200.000	0.023	-0.287
-457.026	-48.169	-0.108	-0.067
-456.011	18.600	0.343	-0.355
-454.997	800.000	0.057	0.247
-453.982	89.099	0.107	0.155
-452.968	98.882	-0.127	-0.190
-451.953	-96.376	-0.300	0.102
-450.938	-147.026	0.151	0.017
-449.924	-200.000	-0.032	-0.257
-448.909	-27.109	-0.161	-0.121
-447.895	-3.662	0.065	0.059
-446.880	-44.176	-0.301	-0.194
-445.865	621.034	0.043	-0.139
-444.851	-200.000	-0.017	-0.113
-443.836	-200.000	0.001	0.236
-442.822	-161.779	0.176	0.011
-441.807	-14.564	0.321	-0.266
-440.792	137.368	-0.167	-0.284
-439.778	378.767	0.170	0.453
-438.763	-129.445	0.373	0.066
-437.749	-21.282	-0.454	0.358
-436.734	-200.000	0.733	-0.004
-435.719	-16.088	-0.100	-0.082
-434.705	596.936	-0.093	0.298
-433.690	20.781	0.157	-0.164
-432.676	-14.488	0.052	0.043
-431.661	-156.385	-0.300	-0.024
-430.646	77.751	-0.246	0.340
-429.632	-71.041	0.211	0.102
-428.617	81.888	-0.405	0.568
-427.603	280.603	0.044	-0.102
-426.588	-156.003	0.243	0.020
-425.573	0.091	0.499	0.459
-424.559	46.833	-0.106	-0.127
-423.544	-123.367	-0.337	0.069
-422.530	249.486	0.065	-0.142
-421.515	-4.574	0.205	0.183
-420.500	-200.000	0.007	-0.349
-419.486	-11.242	-0.264	0.224
-418.471	-73.524	-0.031	0.015
-417.457	43.164	0.141	0.166
-416.442	406.390	0.191	0.524
-415.428	-99.246	0.264	-0.086
-414.413	344.492	-0.175	0.446
-413.398	404.389	-0.058	0.158
-412.384	-25.660	0.441	-0.336
-411.369	42.902	-0.366	0.431
-410.355	229.281	0.167	0.353
-409.340	800.000	0.098	0.478
-408.325	-155.527	0.266	0.022
-407.311	-200.000	0.018	-0.534
-406.296	-157.249	0.283	0.022
-405.282	-200.000	-0.268	0.000
-404.267	98.808	0.244	0.364
-403.252	32.236	0.233	0.260
-402.238	-51.784	0.387	0.232
-401.223	113.638	-0.069	0.109
-400.209	47.027	-0.036	0.043
-399.194	-97.800	0.410	-0.136
-398.179	-198.712	0.177	-0.001
-397.165	800.000	0.083	-0.299
-396.150	800.000	0.076	-0.406
-395.136	81.665	-0.189	0.264
-394.121	416.118	0.181	-0.500
-393.106	-200.000	-0.011	-0.173
-392.092	205.615	0.140	-0.282
-391.077	102.217	-0.184	0.277
-390.063	-200.000	-0.007	0.314
-389.048	-136.976	0.297	0.043
-388.033	-120.714	-0.625	0.135
-387.019	337.626	-0.099	0.249
-386.004	-107.218	-0.586	-0.165
-384.990	702.063	-0.030	-0.103
-383.975	-69.918	0.229	0.112
-382.960	83.365	-0.251	0.354
-381.946	-136.438	0.230	0.034
-380.931	-80.002	-0.137	-0.059
-379.917	-109.223	-0.334	-0.091
-378.902	-99.238	-0.268	-0.087
-377.888	-104.781	0.162	-0.048
-376.873	-200.000	-0.000	-0.347
-375.858	-46.736	0.210	-0.132
-374.844	-86.097	-0.697	0.276
-373.829	5.152	-0.224	-0.213
-372.815	116.195	-0.278	0.439
-371.800	-18.865	0.192	-0.154
-370.785	409.197	0.125	-0.342
-369.771	-200.000	0.021	-0.412
-368.756	-129.941	0.579	0.101
-367.742	-97.457	0.598	0.199
-366.727	-100.367	0.029	0.009
-365.712	44.574	0.198	-0.234
-364.698	355.480	-0.063	-0.163
-363.683	-87.425	-0.050	-0.019
-362.669	-79.549	-0.099	-0.043
-361.654	106.939	-0.306	-0.469
-360.639	116.490	0.098	-0.156
-359.625	144.321	0.047	0.080
-358.610	-126.042	0.218	0.042
-357.596	22.988	-0.328	-0.347
-356.581	-28.426	0.243	-0.181
-355.566	-59.848	-0.359	0.197
-354.552	-72.528	0.031	0.015
-353.537	590.705	0.093	0.297
-352.523	629.358	-0.087	-0.285
-351.508	-200.000	-0.014	0.083
-350.493	-200.000	0.060	-0.452
-349.479	-157.521	-0.477	-0.036
-348.464	-123.556	-0.302	0.061
-347.450	800.000	-0.088	0.415
-346.435	-77.375	0.437	0.195
-345.420	193.159	0.032	0.063
-344.406	32.370	-0.221	-0.246
-343.391	93.411	0.122	-0.178
-342.377	-46.068	0.282	0.179
-341.362	-49.012	-0.223	-0.137
-340.348	-200.000	-0.046	-0.482
-339.333	-200.000	-0.049	-0.349
-338.318	-32.736	0.271	0.194
-337.304	-68.962	0.591	-0.292
-336.289	800.000	0.057	-0.207
-335.275	-148.152	0.240	-0.025
-334.260	-132.619	0.296	-0.048
-333.245	800.000	-0.011	0.043
-332.231	36.700	0.376	0.428
-331.216	-200.000	0.091	0.769
-330.202	-8.807	0.188	0.162
-329.187	244.380	-0.075	0.162
-328.172	-200.000	-0.024	0.193
-327.158	18.015	0.066	-0.068
-326.143	-68.183	-0.391	-0.195
-325.129	19.002	-0.483	-0.498
-324.114	48.794	0.190	-0.229
-323.099	-111.842	-0.173	-0.045
-322.085	-86.491	0.168	0.066
-321.070	-82.914	-0.210	0.087
-320.056	184.690	0.021	-0.039
-319.041	-200.000	0.000	-0.156
-318.026	-171.941	-0.535	0.022
-317.012	-145.744	-0.293	-0.033
-315.997	63.618	0.269	-0.348
-314.983	-153.074	0.067	-0.006
-313.968	-17.466	-0.271	-0.219
-312.953	-1.204	0.573	-0.520
-311.939	79.013	0.245	-0.338
-310.924	-200.000	-0.031	0.408
-309.910	-123.145	0.208	0.043
-308.895	800.000	-0.131	-0.578
-307.880	696.952	-0.156	-0.529
-306.866	-157.324	-0.405	-0.031
-305.851	800.000	0.064	-0.332
-304.837	-137.487	-0.151	-0.022
-303.822	54.945	-0.265	0.329
-302.807	-130.494	0.203	-0.035
-301.793	381.972	0.075	-0.199
-300.778	-200.000	0.009	0.327
-299.764	-25.179	-0.449	-0.341
-298.749	-200.000	-0.046	-0.455
-297.735	-171.418	0.306	-0.013
-296.720	-127.054	0.330	0.062
-295.705	71.353	-0.048	-0.065
-294.691	-200.000	0.039	0.304
-293.676	-113.414	-0.670	0.168
-292.662	-38.418	-0.408	0.277
-291.647	139.003	0.021	-0.036
-290.632	112.603	0.193	0.300
-289.618	-200.000	0.034	0.297
-288.603	513.186	0.109	0.329
-287.589	-100.867	0.431	-0.135
-286.574	-11.050	-0.192	-0.163
-285.559	188.082	-0.232	0.447
-284.545	175.137	0.204	-0.382
-283.530	800.000	0.035	0.172
-282.516	11.794	-0.061	-0.060
-281.501	-112.607	0.168	0.043
-280.486	800.000	0.088	-0.351
-279.472	-173.603	-0.264	0.010
-278.457	89.371	0.075	0.107
-277.443	14.088	-0.175	0.175
-276.428	-88.135	0.551	-0.211
-275.413	123.309	0.230	-0.371
-274.399	7.140	0.256	0.245
-273.384	-133.783	0.450	-0.071
-272.370	-91.768	-0.234	0.085
-271.355	20.593	0.283	0.294
-270.340	103.354	0.200	0.301
-269.326	51.352	-0.292	-0.357
-268.311	-200.000	0.036	0.249
-267.297	800.000	-0.035	-0.173
-266.282	69.166	-0.076	0.100
-265.267	90.397	0.020	0.029
-264.253	-175.528	-0.454	0.016
-263.238	-87.355	-0.305	-0.118
-262.224	183.550	-0.214	-0.407
-261.209	-111.245	-0.339	0.088
-260.195	800.000	0.046	-0.167
-259.180	102.264	-0.232	-0.349
-258.165	-12.466	0.115	-0.096
-257.151	-11.205	-0.085	0.072
-256.136	131.065	0.272	-0.450
-255.122	-11.508	0.322	-0.271
-254.107	50.909	0.082	-0.100
-253.092	-200.000	0.019	0.570
-252.078	-200.000	-0.036	0.325
-251.063	-200.000	-0.049	0.326
-250.049	21.269	0.107	-0.111
-249.034	-76.244	0.334	0.150
-248.019	-86.602	0.175	-0.068
-247.005	800.000	-0.070	0.329
-245.990	-22.450	-0.352	-0.273
-244.976	-56.432	0.239	-0.135
-243.961	-119.501	0.120	0.026
-242.946	-155.110	0.424	-0.035
-241.932	-200.000	-0.034	-0.285
-240.917	-68.212	-0.272	0.135
-239.903	-59.850	0.274	0.150
-238.888	-13.501	0.258	-0.214
-237.873	229.907	0.183	-0.384
-236.859	50.130	-0.141	-0.170
-235.844	-133.559	0.317	-0.050
-234.830	170.895	0.088	-0.162
-233.815	-176.539	-0.226	-0.007
-232.800	-44.264	-0.454	0.291
-231.786	-107.131	-0.151	0.042
-230.771	497.267	0.114	0.337
-229.757	110.688	0.108	0.167
-228.742	100.826	-0.322	0.481
-227.727	12.246	0.259	0.255
-226.713	-123.747	-0.567	-0.114
-225.698	-107.774	-0.292	-0.081
-224.684	-200.000	-0.051	0.477
-223.669	-19.534	-0.271	0.215
-222.655	227.135	-0.128	-0.267
-221.640	168.652	-0.063	-0.116
-220.625	-81.390	0.244	-0.103
-219.611	314.986	-0.102	0.247
-218.596	-167.413	-0.401	-0.020
-217.582	-81.614	0.136	-0.057
-216.567	-8.090	0.129	0.111
-215.552	324.989	0.056	-0.137
-214.538	-200.000	0.026	0.294
-213.523	15.710	0.099	-0.099
-212.509	-122.985	0.330	-0.067
-211.494	-200.000	0.007	-0.075
-210.479	800.000	0.090	0.382
-209.465	266.527	0.142	0.318
-208.450	-76.408	0.180	-0.081
-207.436	52.526	-0.368	0.450
-206.421	-200.000	0.019	-0.273
-205.406	-47.081	-0.082	-0.051
-204.392	-115.597	0.116	0.028
-203.377	161.353	-0.113	-0.203
-202.363	-122.042	0.272	-0.057
-201.348	-38.054	-0.263	-0.178
-200.333	-27.553	0.221	-0.164
-199.319	-36.265	-0.324	-0.223
-198.304	-68.443	-0.244	-0.121
-197.290	-26.093	0.313	0.235
-196.275	18.820	0.325	0.333
-195.260	145.452	0.145	0.249
-194.246	181.140	0.203	-0.383
-193.231	-84.327	-0.279	-0.113
-192.217	-200.000	-0.058	0.548
-191.202	-2.375	0.218	0.195
-190.187	47.541	-0.070	-0.084
-189.173	-73.618	-0.469	0.218
-188.158	58.286	-0.169	0.212
-187.144	-41.112	0.257	0.169
-186.129	166.302	0.156	-0.283
-185.114	800.000	0.134	0.511
-184.100	-184.700	-0.265	-0.005
-183.085	-71.633	0.275	0.131
-182.071	-80.817	0.135	0.057
-181.056	-200.000	0.345	0.001
-180.042	-200.000	-0.013	0.101
-179.027	-181.908	0.148	0.004
-178.012	21.135	0.286	-0.297
-176.998	-101.284	0.045	0.014
-175.983	-200.000	-0.033	0.190
-174.969	186.951	-0.138	-0.264
-173.954	-133.118	0.239	-0.038
-172.939	-139.085	0.038	-0.005
-171.925	-78.414	-0.093	-0.041
-170.910	105.628	-0.050	-0.076
-169.896	4.878	0.185	0.174
-168.881	800.000	-0.161	-0.591
-167.866	-37.201	0.107	-0.073
-166.852	-8.692	-0.106	0.091
-165.837	67.758	-0.067	0.088
-164.823	-28.717	-0.470	0.345
-163.808	19.462	0.246	-0.253
-162.793	-110.602	-0.267	-0.070
-161.779	773.020	0.125	-0.437
-160.764	-200.000	-0.031	-0.205
-159.750	51.269	0.053	0.065
-158.735	-9.307	0.547	-0.467
-157.720	251.607	-0.184	-0.402
-156.706	104.882	-0.156	-0.236
-155.691	-77.763	0.383	0.169
-154.677	-93.212	-0.435	-0.154
-153.662	-110.445	-0.525	0.138
-152.647	-106.604	-0.360	-0.102
-151.633	-200.000	-0.078	-0.608
-150.618	800.000	-0.047	0.196
-149.604	-200.000	0.041	0.522
-148.589	-200.000	0.016	-0.271
-147.574	-5.515	-0.136	0.119
-146.560	-27.691	0.070	-0.052
-145.545	-61.224	0.158	0.085
-144.531	102.778	0.137	0.206
-143.516	800.000	-0.103	-0.520
-142.502	-8.138	-0.223	-0.192
-141.487	-40.469	-0.442	-0.292
-140.472	-45.459	-0.238	-0.150
-139.458	-34.189	-0.173	-0.121
-138.443	323.069	0.120	-0.294
-137.429	-135.210	-0.415	-0.063
-136.414	-37.582	0.181	0.123
-135.399	-93.065	0.263	-0.093
-134.385	800.000	0.023	0.130
-133.370	-200.000	0.007	-0.249
-132.356	28.050	-0.104	-0.112
-131.341	-93.437	-0.388	0.136
-130.326	-200.000	-0.042	0.285
-129.312	-149.006	-0.448	-0.046
-128.297	-200.000	-0.728	0.004
-127.283	27.910	0.124	0.133
-126.268	-200.000	0.036	0.367
-125.253	-105.189	-0.158	-0.046
-124.239	-59.479	-0.117	-0.064
-123.224	-200.000	-0.005	0.445
