DTS Sentinel unit serial number:	SN409020Multiplexer serial number:	ORYXHardware model number:	OX4-SRSoftware version number:	ORYX F/W v3.00 Oryx Data Collector v3.7.2.0data status	okinstallation	HaddamTimeLapsedifferential loss correction	single-endedforward channel	channel 3reverse channel	N/Adate	2011/06/22time	01:11:16forward acquisition time	30.00reverse acquisition time	0.00gamma	498.7831k internal	0.1751k external	0.1751temperature offset calibration	1.0074default loss term (dB/km)	0.3790temperature slope calibration	1.3530multiplexer offset coefficient	1.0000multiplexer slope coefficient	1.0000fibre end	0.00T internal ref (°C)	22.50T ext. ref 1 (°C)	17.87T ext. ref 2 (°C)	0.02length (m)	temperature (°C)	Stokes	anti-Stokes-747.200	-70.686	0.315	-0.158
-746.185	-200.000	-0.042	-0.347
-745.171	-32.782	-0.452	-0.333
-744.156	-20.553	-0.121	0.098
-743.142	699.752	0.022	0.078
-742.127	-67.132	0.102	0.053
-741.112	55.855	0.193	0.249
-740.098	15.709	-0.175	-0.183
-739.083	246.680	-0.232	0.521
-738.069	1.953	-0.341	0.326
-737.054	-68.178	-0.335	-0.173
-736.039	-48.855	-0.161	-0.102
-735.025	-91.492	0.571	-0.215
-734.010	-132.793	-0.260	0.044
-732.996	140.733	0.106	0.186
-731.981	-78.896	0.298	0.134
-730.966	-63.263	-0.137	-0.075
-729.952	-200.000	0.006	-0.302
-728.937	800.000	-0.150	-0.572
-727.923	-43.843	-0.252	-0.168
-726.908	800.000	-0.065	-0.311
-725.894	-93.858	0.221	-0.080
-724.879	-23.057	0.166	0.132
-723.864	800.000	0.044	0.214
-722.850	19.544	0.120	0.129
-721.835	522.917	-0.051	-0.160
-720.821	-5.892	-0.241	-0.219
-719.806	-200.000	-0.001	-0.226
-718.791	800.000	-0.057	0.279
-717.777	-119.930	0.320	0.072
-716.762	15.659	-0.221	0.231
-715.748	242.189	0.143	0.318
-714.733	-85.421	-0.186	0.077
-713.718	595.876	-0.186	-0.614
-712.704	74.630	-0.177	-0.248
-711.689	-126.892	-0.120	-0.023
-710.675	-145.617	0.149	0.018
-709.660	-83.378	-0.189	-0.080
-708.645	-53.856	0.319	-0.193
-707.631	-59.383	0.060	0.034
-706.616	-32.674	-0.092	-0.067
-705.602	-178.758	-0.317	-0.009
-704.587	-200.000	-0.026	0.318
-703.572	-131.055	0.255	-0.045
-702.558	690.813	0.051	0.177
-701.543	-163.475	0.369	-0.023
-700.529	167.426	0.180	-0.341
-699.514	-96.783	-0.214	-0.074
-698.499	296.471	-0.123	-0.300
-697.485	-126.975	0.487	0.094
-696.470	14.889	-0.158	-0.163
-695.456	166.320	-0.117	0.220
-694.441	800.000	0.067	-0.359
-693.426	-171.241	-0.183	0.008
-692.412	-200.000	0.010	-0.182
-691.397	-200.000	0.053	-0.410
-690.383	431.131	-0.017	-0.049
-689.368	-200.000	-0.016	-0.206
-688.354	756.921	0.037	-0.133
-687.339	115.666	0.306	-0.497
-686.324	-124.823	0.250	0.051
-685.310	-47.719	-0.247	-0.158
-684.295	-158.003	-0.442	0.034
-683.281	-139.399	0.388	-0.055
-682.266	-200.000	0.039	-0.261
-681.251	22.932	-0.295	-0.320
-680.237	456.225	-0.100	0.296
-679.222	163.525	0.308	0.576
-678.208	-200.000	0.103	-0.754
-677.193	-102.003	0.319	-0.101
-676.178	-100.999	0.245	-0.079
-675.164	-200.000	-0.036	-0.274
-674.149	800.000	0.068	-0.370
-673.135	-74.714	-0.110	0.052
-672.120	-73.055	-0.352	-0.170
-671.105	-65.884	0.269	0.142
-670.091	187.720	-0.031	0.061
-669.076	84.596	-0.270	-0.392
-668.062	11.319	0.311	-0.315
-667.047	-200.000	0.002	-0.226
-666.032	-98.240	-0.346	0.117
-665.018	329.330	0.064	-0.164
-664.003	271.325	-0.045	-0.106
-662.989	364.532	0.066	-0.177
-661.974	-61.548	-0.248	0.137
-660.959	-117.310	-0.338	0.081
-659.945	-61.873	0.186	0.103
-658.930	47.315	0.097	0.120
-657.916	541.347	-0.136	-0.431
-656.901	-91.358	0.176	0.066
-655.886	35.101	-0.282	0.328
-654.872	269.969	-0.148	0.346
-653.857	-200.000	-0.061	0.482
-652.843	251.098	-0.068	0.154
-651.828	0.842	-0.271	0.257
-650.814	800.000	0.087	0.354
-649.799	124.909	0.232	0.387
-648.784	-13.030	-0.177	-0.152
-647.770	-200.000	-0.050	-0.338
-646.755	146.322	-0.086	-0.153
-645.741	-24.123	-0.214	-0.169
-644.726	-84.635	-0.143	-0.059
-643.711	166.562	-0.218	-0.410
-642.697	32.021	-0.156	-0.178
-641.682	-108.758	0.443	-0.125
-640.668	22.592	-0.211	-0.228
-639.653	163.643	0.196	-0.367
-638.638	-200.000	0.001	0.089
-637.624	-100.729	-0.138	-0.045
-636.609	-200.000	0.013	-0.089
-635.595	-200.000	0.005	0.289
-634.580	-0.381	0.271	0.255
-633.565	284.753	0.099	-0.236
-632.551	800.000	0.042	-0.170
-631.536	-131.449	-0.251	0.043
-630.522	-96.507	-0.104	0.036
-629.507	-200.000	0.011	0.080
-628.492	-56.252	-0.252	-0.148
-627.478	127.488	0.145	-0.244
-626.463	-200.000	-0.005	-0.298
-625.449	-19.651	-0.308	-0.252
-624.434	82.526	-0.226	0.325
-623.419	-139.793	0.183	0.025
-622.405	-200.000	-0.028	-0.241
-621.390	-89.138	0.104	0.040
-620.376	-114.393	0.319	-0.080
-619.361	293.845	-0.168	0.406
-618.346	-6.861	-0.270	0.242
-617.332	800.000	-0.039	-0.158
-616.317	283.218	-0.204	0.486
-615.303	-72.110	0.280	0.137
-614.288	-160.708	0.254	0.018
-613.273	33.767	0.034	-0.039
-612.259	16.600	-0.217	0.226
-611.244	22.800	0.197	0.214
-610.230	34.141	0.196	-0.226
-609.215	-53.746	-0.121	0.073
-608.201	-200.000	-0.011	0.552
-607.186	25.377	-0.098	-0.108
-606.171	-66.382	-0.696	0.364
-605.157	-200.000	-0.030	0.270
-604.142	-98.241	0.259	0.087
-603.128	-88.183	0.148	-0.058
-602.113	-94.010	-0.715	0.258
-601.098	-49.661	0.247	-0.155
-600.084	-34.424	-0.210	0.152
-599.069	-28.313	0.289	0.220
-598.055	-54.891	0.361	-0.214
-597.040	-130.739	-0.436	-0.077
-596.025	426.750	0.204	0.583
-595.011	91.980	0.113	0.168
-593.996	800.000	-0.076	-0.340
-592.982	-77.263	-0.366	-0.167
-591.967	74.268	-0.096	0.133
-590.952	-97.776	0.440	0.149
-589.938	227.960	-0.124	0.268
-588.923	-200.000	-0.017	0.290
-587.909	24.951	-0.179	-0.196
-586.894	-60.948	0.263	-0.146
-585.879	-103.291	0.357	-0.110
-584.865	360.316	0.030	0.080
-583.850	-75.312	-0.460	0.216
-582.836	48.443	-0.345	-0.427
-581.821	-116.078	0.386	0.094
-580.806	565.973	-0.089	-0.287
-579.792	4.225	0.234	0.226
-578.777	-200.000	-0.040	0.712
-577.763	-31.096	0.111	-0.082
-576.748	528.121	0.091	-0.284
-575.733	800.000	0.054	-0.242
-574.719	-147.500	-0.041	0.005
-573.704	80.058	-0.366	0.520
-572.690	-117.748	-0.790	-0.186
-571.675	-1.493	-0.358	0.333
-570.661	-200.000	-0.024	0.228
-569.646	137.728	0.176	0.305
-568.631	800.000	0.126	-0.491
-567.617	-92.387	0.347	-0.128
-566.602	46.850	-0.093	-0.114
-565.588	215.042	0.152	-0.319
-564.573	178.199	0.072	-0.138
-563.558	-32.086	0.441	0.324
-562.544	146.592	0.101	0.179
-561.529	8.617	0.210	0.208
-560.515	-200.000	-0.042	-0.394
-559.500	-200.000	-0.044	-0.417
-558.485	-23.817	-0.263	-0.208
-557.471	-200.000	-0.090	0.606
-556.456	800.000	0.040	-0.209
-555.442	800.000	0.021	-0.088
-554.427	-91.237	-0.185	0.070
-553.412	-103.717	-0.511	0.157
-552.398	-58.366	-0.710	-0.406
-551.383	39.736	0.278	-0.329
-550.369	334.698	0.077	-0.197
-549.354	-38.623	-0.374	-0.260
-548.339	128.528	0.236	-0.397
-547.325	-46.344	0.256	0.165
-546.310	645.448	0.144	0.487
-545.296	-200.000	-0.007	-0.062
-544.281	-135.605	0.327	0.051
-543.266	-136.575	0.262	-0.040
-542.252	-200.000	-0.055	-0.922
-541.237	-67.984	-0.512	-0.262
-540.223	7.556	0.031	-0.030
-539.208	-139.052	0.556	0.079
-538.193	-87.365	0.183	-0.073
-537.179	-41.348	0.221	0.149
-536.164	-94.278	0.584	0.209
-535.150	-117.697	0.197	-0.046
-534.135	-93.484	0.055	-0.020
-533.121	800.000	-0.038	-0.145
-532.106	561.947	0.043	0.136
-531.091	169.714	0.180	0.339
-530.077	-72.158	-0.199	0.097
-529.062	800.000	0.065	-0.343
-528.048	318.486	0.012	-0.030
-527.033	800.000	-0.097	0.558
-526.018	-57.647	0.144	0.083
-525.004	-200.000	-0.124	0.737
-523.989	800.000	-0.073	0.389
-522.975	-200.000	-0.041	0.558
-521.960	68.818	0.152	-0.206
-520.945	-48.232	0.042	-0.026
-519.931	-58.405	0.083	0.047
-518.916	36.367	-0.024	0.028
-517.902	93.655	0.079	-0.118
-516.887	-95.062	0.234	0.083
-515.872	-69.016	-0.197	-0.100
-514.858	39.920	0.230	0.273
-513.843	29.847	-0.112	-0.125
-512.829	16.705	0.252	0.262
-511.814	738.054	0.043	-0.151
-510.799	-38.591	-0.133	0.092
-509.785	-6.013	-0.254	0.228
-508.770	-57.080	-0.095	-0.055
-507.756	-200.000	-0.011	-0.085
-506.741	-123.419	-0.416	0.086
-505.726	-53.634	-0.186	0.112
-504.712	-22.717	0.260	0.206
-503.697	-200.000	0.018	-0.437
-502.683	-26.515	-0.080	0.062
-501.668	-37.717	-0.409	0.286
-500.653	800.000	0.060	0.334
-499.639	96.303	0.079	0.119
-498.624	-74.337	-0.263	0.124
-497.610	-37.279	0.095	-0.067
-496.595	-140.984	0.217	-0.029
-495.581	-7.997	-0.234	-0.207
-494.566	-20.122	0.434	0.352
-493.551	-187.084	0.303	-0.005
-492.537	800.000	-0.155	0.656
-491.522	-86.059	0.380	-0.153
-490.508	-200.000	-0.001	-0.181
-489.493	-94.594	-0.638	0.227
-488.478	-48.831	0.464	-0.292
-487.464	-126.380	0.561	-0.109
-486.449	241.434	0.111	0.244
-485.435	-103.103	0.102	0.032
-484.420	-71.716	0.444	0.217
-483.405	-200.000	-0.017	0.222
-482.391	-157.763	-0.302	-0.023
-481.376	80.456	0.355	-0.503
-480.362	125.044	0.092	0.153
-479.347	-153.095	-0.409	-0.037
-478.332	20.378	-0.185	-0.197
-477.318	-5.205	0.025	-0.023
-476.303	-90.655	-0.139	0.052
-475.289	249.788	0.036	0.080
-474.274	800.000	0.226	0.958
-473.259	-72.746	-0.143	0.069
-472.245	-30.112	0.159	-0.118
-471.230	-200.000	-0.004	0.026
-470.216	-101.030	-0.185	0.059
-469.201	68.563	0.107	-0.145
-468.186	-20.701	0.163	-0.131
-467.172	-90.348	-0.582	0.221
-466.157	644.862	-0.035	0.120
-465.143	-200.000	-0.016	-0.120
-464.128	233.767	0.173	-0.375
-463.113	-94.218	0.213	0.076
-462.099	99.325	0.280	-0.427
-461.084	402.998	0.054	0.150
-460.070	-98.901	0.363	0.120
-459.055	185.112	0.059	0.115
-458.040	-200.000	0.013	-0.351
-457.026	-175.656	0.121	0.004
-456.011	-200.000	0.018	0.118
-454.997	-51.843	-0.162	-0.099
-453.982	-39.272	-0.042	-0.029
-452.968	-27.737	-0.088	0.067
-451.953	54.052	0.195	0.247
-450.938	-53.716	0.408	0.244
-449.924	800.000	-0.082	-0.357
-448.909	165.493	0.275	0.512
-447.895	289.837	0.200	0.479
-446.880	-96.092	0.601	0.209
-445.865	-200.000	0.021	0.334
-444.851	276.812	-0.073	0.171
-443.836	-31.491	0.156	0.115
-442.822	-200.000	-0.030	-0.288
-441.807	800.000	0.097	-0.490
-440.792	-70.970	0.396	0.195
-439.778	-108.566	0.070	0.020
-438.763	-60.730	0.121	-0.067
-437.749	-32.253	-0.028	0.020
-436.734	-123.734	-0.468	-0.096
-435.719	-200.000	0.005	-0.081
-434.705	-109.465	-0.254	-0.070
-433.690	-50.213	-0.113	-0.070
-432.676	48.648	0.200	-0.246
-431.661	716.932	0.007	-0.025
-430.646	-107.782	0.522	-0.148
-429.632	372.127	0.040	-0.106
-428.617	800.000	0.047	-0.199
-427.603	800.000	0.107	0.559
-426.588	-15.034	0.278	0.234
-425.573	71.451	0.301	0.410
-424.559	1.045	0.077	0.072
-423.544	-58.860	-0.315	-0.178
-422.530	249.353	0.053	-0.119
-421.515	400.925	0.206	-0.569
-420.500	-71.213	-0.153	-0.075
-419.486	600.249	-0.126	-0.413
-418.471	-56.723	-0.163	-0.094
-417.457	-91.607	0.450	0.167
-416.442	470.613	0.052	-0.154
-415.428	44.281	-0.406	-0.489
-414.413	-73.038	-0.550	0.264
-413.398	800.000	0.048	0.194
-412.384	23.574	0.125	0.135
-411.369	-129.919	0.143	-0.025
-410.355	109.887	0.240	0.378
-409.340	470.121	-0.110	-0.326
-408.325	-167.630	-0.698	-0.036
-407.311	-136.384	0.557	0.084
-406.296	-65.411	-0.443	-0.232
-405.282	-174.847	-0.390	0.014
-404.267	42.167	-0.118	-0.140
-403.252	-114.672	0.741	-0.185
-402.238	-68.537	-0.137	-0.069
-401.223	641.507	0.052	0.175
-400.209	-102.539	-0.378	0.118
-399.194	800.000	0.030	-0.132
-398.179	-32.279	-0.253	0.185
-397.165	502.474	0.059	0.180
-396.150	-32.599	0.271	0.198
-395.136	-152.174	0.432	-0.041
-394.121	83.970	-0.126	0.180
-393.106	15.858	-0.335	-0.345
-392.092	-70.004	-0.165	0.082
-391.077	-20.443	-0.446	0.359
-390.063	-111.554	-0.836	0.221
-389.048	-118.961	-0.529	0.121
-388.033	-67.622	-0.399	-0.204
-387.019	-200.000	0.014	-0.297
-386.004	-200.000	0.053	0.343
-384.990	293.016	0.184	0.443
-383.975	-18.158	-0.592	0.484
-382.960	8.667	-0.047	-0.046
-381.946	-111.862	0.274	0.072
-380.931	-10.269	0.447	-0.388
-379.917	-160.757	0.045	-0.003
-378.902	20.614	-0.220	0.233
-377.888	-200.000	0.009	-0.233
-376.873	-153.877	-0.483	-0.043
-375.858	22.970	-0.396	-0.425
-374.844	-60.299	-0.446	0.248
-373.829	554.802	0.166	0.526
-372.815	83.571	0.084	0.121
-371.800	-11.005	0.163	-0.141
-370.785	-36.940	-0.366	0.256
-369.771	-200.000	-0.025	-0.560
-368.756	764.159	-0.031	0.113
-367.742	-181.941	0.226	0.006
-366.727	-95.531	0.291	-0.101
-365.712	378.386	-0.076	0.205
-364.698	218.264	-0.132	0.277
-363.683	-40.316	-0.207	0.141
-362.669	513.606	0.073	-0.225
-361.654	800.000	-0.130	0.625
-360.639	-200.000	-0.008	0.261
-359.625	-97.597	-0.218	-0.074
-358.610	-200.000	-0.001	0.409
-357.596	-200.000	0.010	0.380
-356.581	-158.934	0.604	-0.044
-355.566	-200.000	0.007	0.043
-354.552	-94.187	-0.221	0.079
-353.537	157.206	-0.168	0.305
-352.523	-70.281	0.161	0.080
-351.508	-59.266	0.386	-0.216
-350.493	-22.193	0.192	0.152
-349.479	-83.492	-0.263	0.110
-348.464	-109.922	0.091	-0.025
-347.450	-73.097	0.468	0.223
-346.435	207.122	0.044	-0.091
-345.420	96.514	0.196	-0.293
-344.406	663.416	0.037	0.125
-343.391	-111.039	0.239	0.064
-342.377	-9.296	0.198	-0.173
-341.362	-84.339	-0.756	-0.311
-340.348	119.968	-0.064	0.104
-339.333	800.000	0.060	-0.268
-338.318	249.401	0.254	-0.564
-337.304	122.680	-0.210	-0.344
-336.289	391.580	-0.026	-0.072
-335.275	538.828	-0.054	0.168
-334.260	305.806	-0.044	0.107
-333.245	-200.000	0.011	0.158
-332.231	-45.307	0.178	-0.115
-331.216	196.457	0.256	-0.512
-330.202	-200.000	-0.006	0.230
-329.187	-86.908	0.614	0.244
-328.172	165.968	-0.198	-0.367
-327.158	-200.000	-0.036	0.459
-326.143	800.000	0.077	0.366
-325.129	-200.000	0.014	-0.580
-324.114	185.106	-0.129	-0.251
-323.099	470.638	0.136	-0.402
-322.085	-158.971	-0.499	0.037
-321.070	-154.140	0.436	-0.038
-320.056	54.172	0.203	0.255
-319.041	-161.297	-0.060	0.004
-318.026	800.000	0.114	-0.446
-317.012	32.292	0.307	-0.346
-315.997	-200.000	-0.006	-0.234
-314.983	66.443	0.059	-0.079
-313.968	-33.153	0.083	-0.060
-312.953	-200.000	-0.004	0.067
-311.939	-87.623	0.046	-0.018
-310.924	-200.000	-0.002	0.656
-309.910	-200.000	-0.023	0.197
-308.895	21.012	0.115	0.122
-307.880	-200.000	0.006	0.247
-306.866	-198.533	-0.377	0.003
-305.851	-109.954	-0.133	-0.036
-304.837	83.136	-0.145	0.207
-303.822	-32.527	0.435	0.316
-302.807	234.552	-0.223	0.482
-301.793	-21.776	-0.481	0.382
-300.778	-124.812	-0.165	0.033
-299.764	409.639	0.156	-0.433
-298.749	-54.313	-0.254	-0.150
-297.735	289.190	-0.149	-0.354
-296.720	590.092	0.083	0.269
-295.705	-47.394	-0.377	0.239
-294.691	-200.000	-0.019	-0.229
-293.676	-200.000	-0.047	-0.293
-292.662	-200.000	0.018	0.417
-291.647	19.655	0.393	0.413
-290.632	800.000	0.061	0.282
-289.618	800.000	0.038	-0.187
-288.603	128.999	0.065	0.109
-287.589	-128.037	-0.240	-0.045
-286.574	23.733	0.188	0.202
-285.559	380.154	-0.130	0.350
-284.545	-72.768	0.343	0.164
-283.530	-126.790	-0.378	-0.072
-282.516	-28.222	0.483	0.363
-281.501	250.117	-0.035	-0.079
-280.486	800.000	0.084	0.432
-279.472	-107.421	0.395	0.112
-278.457	-23.055	0.408	-0.320
-277.443	-42.007	0.070	0.046
-276.428	125.841	-0.300	0.496
-275.413	-51.643	-0.303	0.184
-274.399	-121.846	0.289	-0.062
-273.384	-102.577	0.247	0.076
-272.370	-128.872	-0.252	0.046
-271.355	-42.646	0.478	-0.316
-270.340	-7.745	0.224	0.197
-269.326	-37.442	0.269	0.187
-268.311	-112.301	-0.570	-0.148
-267.297	-55.144	0.181	-0.106
-266.282	29.442	0.028	-0.031
-265.267	-200.000	0.105	-0.684
-264.253	60.826	-0.134	0.174
-263.238	-122.637	0.186	-0.039
-262.224	-200.000	0.027	-0.513
-261.209	-82.762	-0.386	-0.162
-260.195	10.264	0.147	0.146
-259.180	800.000	0.048	0.178
-258.165	94.070	-0.221	-0.327
-257.151	169.369	0.201	-0.376
-256.136	230.844	0.163	-0.350
-255.122	92.505	-0.224	-0.330
-254.107	-130.959	0.713	0.123
-253.092	-13.184	-0.147	-0.124
-252.078	-157.532	0.683	0.053
-251.063	18.197	-0.250	-0.260
-250.049	269.747	-0.095	-0.218
-249.034	-79.264	0.273	0.120
-248.019	164.828	-0.071	-0.131
-247.005	800.000	0.123	0.458
-245.990	-200.000	0.020	0.299
-244.976	800.000	0.056	0.280
-243.961	124.787	-0.081	0.133
-242.946	330.500	-0.119	0.299
-241.932	-138.469	-0.078	-0.011
-240.917	-200.000	-0.001	-0.138
-239.903	455.556	-0.061	-0.178
-238.888	88.377	-0.199	-0.289
-237.873	-131.647	-0.324	-0.055
-236.859	38.464	-0.160	0.186
-235.844	-82.184	0.560	0.237
-234.830	-200.000	0.025	-0.667
-233.815	258.302	0.050	0.114
-232.800	-200.000	0.020	-0.258
-231.786	9.683	-0.152	0.150
-230.771	144.180	0.160	0.279
-229.757	310.974	0.015	0.037
-228.742	-39.145	0.406	0.277
-227.727	-200.000	-0.036	0.464
-226.713	-200.000	0.021	-0.170
-225.698	-149.483	-0.384	-0.039
-224.684	-200.000	0.047	-0.772
-223.669	-200.000	0.009	-0.358
-222.655	-39.245	-0.209	-0.142
-221.640	-200.000	0.021	-0.212
-220.625	800.000	-0.066	-0.357
-219.611	89.441	-0.137	0.199
-218.596	-150.658	-0.399	0.039
-217.582	-200.000	-0.027	-0.493
-216.567	-22.468	-0.383	-0.301
-215.552	-135.970	0.356	-0.054
-214.538	-129.237	-0.700	-0.126
-213.523	19.760	-0.193	0.202
-212.509	-200.000	-0.017	-0.311
-211.494	800.000	0.041	0.154
-210.479	113.171	-0.208	-0.329
-209.465	84.296	-0.159	-0.226
-208.450	-56.991	0.316	-0.181
-207.436	800.000	0.080	-0.359
-206.421	-21.550	0.234	0.186
-205.406	-42.756	0.343	0.226
-204.392	162.923	-0.048	0.089
-203.377	800.000	0.067	0.353
-202.363	-116.410	-0.313	0.075
-201.348	-12.250	-0.067	-0.057
-200.333	95.077	0.070	-0.104
-199.319	-33.153	-0.372	0.268
-198.304	123.121	-0.127	-0.207
-197.290	-155.874	-0.400	0.033
-196.275	-172.446	-0.311	0.013
-195.260	-96.443	-0.262	0.090
-194.246	65.610	-0.202	-0.267
-193.231	-65.645	0.326	-0.169
-192.217	100.080	0.211	-0.319
-191.202	-120.562	-0.205	0.045
-190.187	-109.169	-0.219	-0.060
-189.173	800.000	0.057	0.244
-188.158	800.000	-0.040	-0.223
-187.144	-50.107	0.530	-0.325
-186.129	5.418	-0.211	-0.202
-185.114	-88.213	0.196	-0.076
-184.100	12.622	0.309	-0.310
-183.085	90.845	-0.090	-0.131
-182.071	-200.000	-0.032	-0.418
-181.056	800.000	-0.013	0.050
-180.042	110.699	0.181	0.284
-179.027	-7.267	-0.265	0.233
-178.012	-189.479	-0.292	-0.004
-176.998	-200.000	0.022	0.141
-175.983	186.689	-0.120	-0.233
-174.969	-0.889	-0.266	0.245
-173.954	-139.325	0.204	0.028
-172.939	-139.470	0.151	-0.021
-171.925	-18.448	-0.108	0.087
-170.910	761.586	0.116	-0.413
-169.896	95.466	-0.192	-0.285
-168.881	306.953	-0.133	-0.322
-167.866	374.551	-0.133	-0.355
-166.852	80.778	-0.142	-0.200
-165.837	-83.023	-0.201	0.084
-164.823	96.351	0.152	0.226
-163.808	-152.235	-0.293	-0.027
-162.793	-41.922	-0.099	-0.066
-161.779	9.718	-0.457	-0.450
-160.764	-84.291	0.292	-0.119
-159.750	-96.733	-0.571	0.194
-158.735	-175.988	-0.290	0.010
-157.720	-198.644	0.737	0.005
-156.706	-63.145	0.500	-0.267
-155.691	-83.176	-0.156	-0.065
-154.677	47.469	0.187	-0.226
-153.662	800.000	0.178	-0.647
-152.647	12.206	-0.231	-0.231
-151.633	22.390	0.136	-0.144
-150.618	-88.146	-0.158	0.061
-149.604	43.217	0.293	0.347
-148.589	-148.892	0.347	0.036
-147.574	93.231	0.313	-0.461
-146.560	115.990	-0.169	-0.269
-145.545	-47.147	0.328	-0.207
-144.531	800.000	0.096	-0.369
-143.516	518.743	-0.067	0.204
-142.502	-23.794	-0.301	-0.233
-141.487	800.000	-0.090	-0.357
-140.472	-64.359	-0.171	-0.090
-139.458	118.972	0.217	-0.348
-138.443	-28.225	0.135	-0.101
-137.429	-80.718	0.374	0.161
-136.414	-140.155	0.355	0.048
-135.399	310.287	-0.371	-0.904
-134.385	-109.005	-0.183	-0.050
-133.370	-123.950	0.154	0.031
-132.356	28.549	-0.120	-0.131
-131.341	-60.178	0.035	0.019
-130.326	-153.251	0.380	0.034
-129.312	150.872	0.228	0.403
-128.297	68.642	0.148	0.197
-127.283	116.937	0.084	-0.134
-126.268	-15.621	-0.482	0.398
-125.253	-34.920	0.493	0.348
-124.239	-65.277	-0.360	0.187
-123.224	-102.871	0.179	-0.055
-122.210	-200.000	-0.036	-0.316
-121.195	-144.699	-0.437	-0.052
