DTS Sentinel unit serial number:	SN409020Multiplexer serial number:	ORYXHardware model number:	OX4-SRSoftware version number:	ORYX F/W v3.00 Oryx Data Collector v3.7.2.0data status	okinstallation	HaddamTimeLapsedifferential loss correction	single-endedforward channel	channel 3reverse channel	N/Adate	2011/06/22time	06:56:18forward acquisition time	30.00reverse acquisition time	0.00gamma	498.7831k internal	0.1752k external	0.1752temperature offset calibration	1.0074default loss term (dB/km)	0.3790temperature slope calibration	1.3530multiplexer offset coefficient	1.0000multiplexer slope coefficient	1.0000fibre end	0.00T internal ref (°C)	22.75T ext. ref 1 (°C)	19.00T ext. ref 2 (°C)	0.12length (m)	temperature (°C)	Stokes	anti-Stokes-747.200	8.122	-0.251	-0.250
-746.185	-200.000	0.069	0.426
-745.171	745.384	0.069	0.248
-744.156	17.702	-0.462	0.488
-743.142	610.319	-0.131	-0.438
-742.127	22.453	0.295	0.320
-741.112	-84.101	0.404	0.169
-740.098	-67.268	-0.570	-0.297
-739.083	-200.000	0.055	-0.486
-738.069	22.526	0.085	-0.092
-737.054	270.605	-0.169	0.396
-736.039	163.938	-0.174	-0.327
-735.025	64.589	0.103	0.138
-734.010	-76.447	-0.197	-0.092
-732.996	-158.055	-0.430	0.033
-731.981	30.642	0.176	-0.200
-730.966	-97.424	0.313	0.107
-729.952	-148.426	-0.372	0.040
-728.937	-43.554	-0.338	0.226
-727.923	800.000	-0.110	0.562
-726.908	-200.000	-0.061	0.552
-725.894	-98.421	-0.345	-0.117
-724.879	106.043	-0.120	-0.190
-723.864	-132.671	-0.329	-0.055
-722.850	-155.431	-0.341	-0.029
-721.835	800.000	-0.059	-0.295
-720.821	-66.872	-0.226	0.118
-719.806	-129.560	-0.332	0.060
-718.791	377.330	-0.090	-0.246
-717.777	202.787	-0.080	-0.165
-716.762	69.928	-0.049	0.067
-715.748	-62.624	0.216	-0.118
-714.733	-186.142	0.237	0.005
-713.718	-200.000	-0.030	-0.333
-712.704	-110.796	-0.513	-0.139
-711.689	-200.000	-0.003	0.208
-710.675	-82.564	-0.158	0.068
-709.660	75.643	0.280	0.392
-708.645	10.805	-0.344	0.348
-707.631	-190.636	-0.372	0.005
-706.616	30.221	-0.237	-0.269
-705.602	236.577	0.169	0.372
-704.587	-133.817	-0.045	0.007
-703.572	-47.384	-0.272	0.175
-702.558	479.152	0.089	-0.270
-701.543	102.448	0.124	-0.193
-700.529	-200.000	-0.000	-0.294
-699.514	-139.522	-0.326	0.046
-698.499	-65.310	0.102	-0.054
-697.485	-51.432	0.137	-0.085
-696.470	121.328	0.157	-0.260
-695.456	-200.000	0.040	-0.384
-694.441	-150.354	-0.239	-0.024
-693.426	-111.486	-0.543	-0.145
-692.412	-144.743	-0.416	0.050
-691.397	19.167	-0.344	-0.365
-690.383	-162.127	-0.704	0.046
-689.368	-36.277	-0.192	0.137
-688.354	-10.910	-0.223	-0.195
-687.339	13.010	0.204	-0.209
-686.324	22.931	0.397	0.431
-685.310	65.016	-0.129	0.172
-684.295	-113.750	0.184	0.047
-683.281	-200.000	-0.045	-0.286
-682.266	228.612	-0.221	-0.478
-681.251	800.000	-0.122	0.462
-680.237	-22.768	0.208	0.166
-679.222	66.096	-0.547	0.735
-678.208	-107.123	-0.361	-0.105
-677.193	396.954	-0.055	0.153
-676.178	-130.980	0.124	-0.022
-675.164	614.255	-0.045	-0.151
-674.149	-55.818	-0.250	0.147
-673.135	-52.256	0.157	-0.096
-672.120	3.520	0.170	0.164
-671.105	104.972	0.239	-0.373
-670.091	264.574	-0.094	-0.216
-669.076	-200.000	-0.006	-0.316
-668.062	-200.000	0.046	-0.452
-667.047	592.106	0.165	0.543
-666.032	-200.000	-0.038	0.263
-665.018	-6.256	-0.237	-0.214
-664.003	16.618	0.054	0.057
-662.989	-43.991	-0.502	-0.333
-661.974	800.000	-0.030	-0.155
-660.959	-200.000	-0.542	0.000
-659.945	98.473	-0.290	0.444
-658.930	151.838	-0.111	-0.200
-657.916	-140.950	-0.200	-0.027
-656.901	-123.455	-0.349	-0.073
-655.886	-82.600	0.403	-0.172
-654.872	-200.000	0.010	-0.235
-653.857	-25.429	0.400	-0.312
-652.843	800.000	0.010	-0.047
-651.828	-200.000	0.351	0.002
-650.814	23.364	-0.312	0.339
-649.799	-200.000	0.028	0.399
-648.784	-26.169	0.123	0.096
-647.770	-200.000	-0.049	-0.441
-646.755	81.022	0.200	-0.286
-645.741	15.682	0.227	0.236
-644.726	-200.000	-0.003	-0.097
-643.711	-157.841	0.448	0.035
-642.697	-123.975	-0.565	0.117
-641.682	-87.091	0.064	-0.026
-640.668	51.203	0.278	0.349
-639.653	-200.000	0.281	-0.001
-638.638	-7.024	0.374	-0.335
-637.624	36.772	-0.131	0.152
-636.609	800.000	0.034	-0.138
-635.595	-24.518	-0.425	-0.334
-634.580	-185.457	-0.313	-0.006
-633.565	72.564	-0.120	-0.165
-632.551	-102.049	0.370	0.117
-631.536	-198.329	-0.274	0.002
-630.522	104.237	0.301	0.468
-629.507	-154.815	0.188	0.016
-628.492	-200.000	-0.082	-0.622
-627.478	61.727	-0.341	-0.448
-626.463	46.421	-0.141	-0.172
-625.449	-200.000	0.003	0.136
-624.434	-39.866	-0.041	0.028
-623.419	102.006	0.210	-0.324
-622.405	-115.733	0.438	-0.108
-621.390	-29.629	0.377	-0.284
-620.376	-65.068	0.381	0.202
-619.361	64.095	0.263	0.350
-618.346	-200.000	0.032	0.323
-617.332	-149.067	0.441	0.046
-616.317	226.581	-0.116	0.249
-615.303	-36.147	0.245	-0.174
-614.288	-200.000	0.011	-0.108
-613.273	-41.746	-0.265	0.179
-612.259	301.433	0.107	-0.262
-611.244	-28.836	0.224	-0.170
-610.230	11.282	-0.271	-0.274
-609.215	-51.088	-0.404	-0.250
-608.201	800.000	-0.036	-0.196
-607.186	-200.000	0.040	-0.297
-606.171	-15.125	0.154	0.130
-605.157	800.000	0.053	0.198
-604.142	-200.000	0.007	-0.055
-603.128	-99.960	0.246	0.080
-602.113	800.000	0.084	-0.365
-601.098	641.090	-0.097	-0.329
-600.084	136.343	0.138	-0.238
-599.069	-51.224	0.323	-0.199
-598.055	32.476	0.090	-0.103
-597.040	-139.775	-0.215	0.030
-596.025	-58.179	0.421	0.241
-595.011	800.000	-0.023	0.088
-593.996	-154.898	-0.509	-0.044
-592.982	-32.297	-0.288	-0.211
-591.967	-10.295	0.235	-0.206
-590.952	-138.671	0.491	0.070
-589.938	-154.449	0.097	-0.008
-588.923	-24.793	0.208	0.163
-587.909	800.000	0.082	-0.338
-586.894	68.710	0.289	0.392
-585.879	243.168	-0.266	0.589
-584.865	278.649	0.179	0.423
-583.850	132.376	0.148	0.251
-582.836	191.273	0.063	0.125
-581.821	-3.027	-0.287	0.264
-580.806	-44.943	-0.179	-0.117
-579.792	61.171	-0.297	0.389
-578.777	800.000	-0.110	0.561
-577.763	-78.738	-0.243	0.109
-576.748	-156.758	-0.515	0.041
-575.733	-80.548	-0.516	-0.226
-574.719	-200.000	-0.003	-0.047
-573.704	431.429	0.111	0.319
-572.690	-62.390	-0.118	-0.064
-571.675	-5.225	0.379	-0.344
-570.661	800.000	0.030	-0.125
-569.646	-200.000	0.016	0.355
-568.631	19.870	-0.095	0.101
-567.617	-151.512	-0.574	-0.055
-566.602	32.471	-0.354	0.404
-565.588	-200.000	-0.042	-0.253
-564.573	224.678	0.052	0.111
-563.558	-38.588	-0.085	0.059
-562.544	-153.321	0.082	0.007
-561.529	-34.432	0.207	-0.149
-560.515	135.445	0.071	-0.121
-559.500	-41.963	0.409	-0.276
-558.485	31.898	0.147	0.167
-557.471	-90.824	-0.222	0.084
-556.456	-62.038	0.364	0.200
-555.442	8.253	-0.264	0.262
-554.427	-200.000	-0.000	-0.500
-553.412	-103.645	0.301	-0.093
-552.398	8.380	-0.220	0.218
-551.383	-53.325	-0.578	-0.348
-550.369	-114.614	-0.364	-0.091
-549.354	-10.893	0.194	0.168
-548.339	44.744	-0.024	-0.029
-547.325	54.348	-0.271	-0.343
-546.310	-40.696	0.397	0.271
-545.296	-56.795	-0.576	0.334
-544.281	13.650	-0.270	-0.276
-543.266	436.402	-0.149	0.429
-542.252	21.957	0.146	-0.156
-541.237	150.970	0.119	-0.214
-540.223	15.559	0.246	0.254
-539.208	-72.926	-0.140	0.067
-538.193	217.874	-0.115	0.242
-537.179	120.483	-0.134	0.220
-536.164	-55.764	0.316	-0.185
-535.150	-57.537	-0.300	-0.173
-534.135	29.512	-0.223	-0.249
-533.121	-200.000	0.022	-0.161
-532.106	22.935	0.185	0.199
-531.091	133.029	0.024	0.041
-530.077	-34.368	0.244	-0.176
-529.062	77.733	0.210	0.295
-528.048	-127.246	-0.145	-0.028
-527.033	-45.815	-0.305	-0.198
-526.018	-39.982	0.281	0.193
-525.004	-92.049	0.372	-0.138
-523.989	-63.690	-0.427	0.229
-522.975	-109.962	-0.129	0.035
-521.960	-161.081	-0.573	0.039
-520.945	43.740	-0.319	-0.384
-519.931	202.781	0.182	-0.371
-518.916	276.980	-0.177	-0.416
-517.902	761.154	-0.028	0.101
-516.887	-14.603	-0.353	-0.298
-515.872	800.000	0.086	0.386
-514.858	-200.000	-0.003	-0.174
-513.843	800.000	0.047	0.188
-512.829	28.118	0.076	-0.085
-511.814	-28.107	0.291	-0.221
-510.799	-138.452	0.447	0.064
-509.785	-200.000	0.072	0.557
-508.770	-47.906	0.112	0.071
-507.756	-37.227	0.063	0.044
-506.741	243.359	-0.075	0.165
-505.726	-114.378	0.571	-0.143
-504.712	800.000	0.203	0.855
-503.697	-200.000	-0.063	0.394
-502.683	-47.950	-0.479	-0.304
-501.668	32.420	-0.361	-0.410
-500.653	11.295	0.323	-0.325
-499.639	-70.921	-0.157	0.078
-498.624	-200.000	0.007	0.287
-497.610	85.382	0.192	-0.278
-496.595	-113.756	-0.246	-0.063
-495.581	-54.476	-0.305	-0.181
-494.566	-102.460	-0.584	-0.183
-493.551	-114.609	0.324	-0.081
-492.537	-32.998	0.188	0.137
-491.522	-200.000	-0.020	0.263
-490.508	-47.050	-0.390	0.249
-489.493	57.761	-0.098	0.126
-488.478	207.278	-0.203	-0.417
-487.464	-139.687	-0.386	-0.053
-486.449	-114.607	-0.259	-0.065
-485.435	-179.046	0.019	0.001
-484.420	-200.000	-0.018	0.177
-483.405	4.088	-0.248	0.238
-482.391	378.314	-0.249	-0.672
-481.376	50.629	0.410	-0.511
-480.362	-144.148	-0.186	0.023
-479.347	-52.865	0.384	0.232
-478.332	483.972	0.226	0.680
-477.318	-129.944	-0.048	0.009
-476.303	-200.000	-0.043	0.379
-475.289	347.736	-0.089	0.230
-474.274	-53.847	-0.183	0.109
-473.259	35.390	0.626	0.722
-472.245	-200.000	-0.013	0.211
-471.230	382.785	-0.160	-0.433
-470.216	220.817	0.127	-0.269
-469.201	-200.000	-0.005	-0.469
-468.186	298.373	-0.157	-0.381
-467.172	85.428	0.315	-0.454
-466.157	-16.568	0.292	0.243
-465.143	-200.000	0.004	0.631
-464.128	240.102	-0.096	-0.210
-463.113	348.431	-0.091	0.236
-462.099	668.572	-0.135	0.460
-461.084	36.914	-0.215	0.250
-460.070	800.000	-0.057	-0.219
-459.055	-200.000	0.028	0.349
-458.040	-102.150	0.216	-0.068
-457.026	6.593	-0.148	0.145
-456.011	152.536	0.057	0.103
-454.997	-200.000	0.078	0.544
-453.982	54.771	-0.192	0.243
-452.968	-147.054	0.286	0.032
-451.953	-200.000	-0.117	0.679
-450.938	-186.571	-0.310	0.006
-449.924	328.381	0.093	-0.234
-448.909	-15.541	-0.294	0.246
-447.895	-124.032	0.230	0.047
-446.880	-89.961	0.171	-0.065
-445.865	-149.054	0.781	-0.081
-444.851	-106.662	-0.218	0.063
-443.836	-139.006	-0.268	-0.038
-442.822	119.035	-0.119	0.194
-441.807	-116.622	0.290	-0.069
-440.792	-85.242	0.183	0.075
-439.778	-181.711	0.215	0.005
-438.763	-53.296	-0.257	-0.154
-437.749	-91.025	-0.206	-0.077
-436.734	-200.000	0.041	-0.454
-435.719	-80.124	-0.346	0.152
-434.705	230.556	-0.347	-0.748
-433.690	84.291	0.398	-0.571
-432.676	324.542	-0.102	0.256
-431.661	-11.159	0.204	0.176
-430.646	-200.000	0.007	0.287
-429.632	-80.511	0.236	0.103
-428.617	-44.486	0.292	-0.191
-427.603	93.503	-0.398	-0.591
-426.588	-86.208	-0.074	0.030
-425.573	800.000	0.091	0.385
-424.559	-23.832	0.203	0.159
-423.544	44.850	-0.380	0.459
-422.530	-200.000	0.025	-0.637
-421.515	367.858	0.142	-0.379
-420.500	-52.657	-0.481	-0.290
-419.486	-132.472	0.194	-0.032
-418.471	-186.988	0.597	0.011
-417.457	-132.110	-0.339	-0.057
-416.442	800.000	0.043	0.163
-415.428	-2.484	-0.504	-0.462
-414.413	-61.517	-0.351	0.192
-413.398	124.381	0.203	-0.334
-412.384	205.583	0.192	-0.392
-411.369	139.330	0.107	0.185
-410.355	800.000	0.041	-0.229
-409.340	-98.984	-0.463	-0.153
-408.325	-200.000	0.007	-0.082
-407.311	-10.518	-0.371	-0.321
-406.296	-92.289	0.377	0.138
-405.282	36.308	-0.244	-0.282
-404.267	388.834	0.037	0.102
-403.252	342.511	-0.163	-0.420
-402.238	-96.618	-0.215	0.074
-401.223	-77.517	0.258	-0.117
-400.209	42.552	-0.078	0.092
-399.194	176.928	0.163	0.312
-398.179	800.000	0.056	0.265
-397.165	-128.240	0.332	-0.061
-396.150	-41.659	0.250	0.168
-395.136	-183.200	-0.805	-0.018
-394.121	-106.456	-0.092	-0.027
-393.106	-88.416	-0.086	0.033
-392.092	-132.097	-0.393	0.066
-391.077	569.036	-0.136	-0.435
-390.063	454.122	0.081	-0.235
-389.048	-113.699	0.679	-0.172
-388.033	-200.000	-0.036	-0.461
-387.019	-56.420	-0.111	-0.064
-386.004	-103.313	0.152	-0.046
-384.990	-200.000	-0.074	0.434
-383.975	35.180	-0.212	0.243
-382.960	800.000	0.088	0.373
-381.946	92.037	0.060	-0.088
-380.931	106.247	0.301	-0.467
-379.917	-200.000	-0.037	-0.608
-378.902	462.220	-0.096	0.281
-377.888	-200.000	-0.019	-0.217
-376.873	-73.615	-0.131	-0.062
-375.858	227.556	-0.203	-0.434
-374.844	800.000	-0.068	0.324
-373.829	-72.021	0.214	-0.104
-372.815	-24.954	0.105	0.082
-371.800	-200.000	-0.005	-0.297
-370.785	800.000	0.096	-0.488
-369.771	-23.506	0.491	-0.385
-368.756	78.311	0.080	0.112
-367.742	-200.000	0.035	0.563
-366.727	369.207	0.193	0.514
-365.712	135.263	-0.193	0.330
-364.698	-85.386	-0.099	-0.040
-363.683	-68.181	0.373	-0.189
-362.669	589.011	0.106	0.345
-361.654	-53.857	-0.421	0.250
-360.639	800.000	0.116	-0.522
-359.625	32.522	-0.197	-0.223
-358.610	-102.003	-0.394	0.124
-357.596	-183.683	-0.177	-0.004
-356.581	575.111	-0.106	-0.341
-355.566	-64.095	-0.125	0.066
-354.552	-200.000	0.052	-0.350
-353.537	-200.000	-0.061	-0.379
-352.523	-200.000	0.028	0.531
-351.508	-42.749	0.248	-0.165
-350.493	-38.304	0.240	0.166
-349.479	-15.194	-0.235	0.196
-348.464	74.124	0.277	-0.381
-347.450	478.767	0.095	-0.282
-346.435	612.490	0.116	-0.380
-345.420	-52.816	-0.417	-0.251
-344.406	-122.321	-0.293	-0.062
-343.391	58.985	-0.208	-0.268
-342.377	-152.603	0.234	0.022
-341.362	14.662	0.290	-0.296
-340.348	-136.703	-0.416	0.062
-339.333	-200.000	-0.002	0.614
-338.318	-200.000	0.020	-0.233
-337.304	-77.497	0.155	-0.070
-336.289	-30.839	-0.432	-0.318
-335.275	-142.106	-0.033	-0.004
-334.260	-200.000	0.088	0.565
-333.245	-200.000	-0.002	-0.112
-332.231	7.791	-0.394	-0.385
-331.216	32.167	0.254	0.287
-330.202	-114.603	-0.072	0.018
-329.187	800.000	-0.082	-0.341
-328.172	407.744	-0.082	-0.228
-327.158	-60.211	-0.650	-0.360
-326.143	16.599	0.304	-0.314
-325.129	-143.761	-0.563	0.069
-324.114	68.347	-0.149	0.199
-323.099	-24.136	-0.034	0.026
-322.085	-169.228	0.174	0.008
-321.070	-63.325	-0.314	-0.168
-320.056	-157.927	0.228	0.017
-319.041	31.689	-0.144	0.161
-318.026	800.000	-0.085	0.348
-317.012	-86.540	-0.152	0.061
-315.997	43.103	-0.253	0.302
-314.983	28.826	-0.324	-0.359
-313.968	-107.192	-0.136	-0.039
-312.953	173.077	-0.124	0.234
-311.939	800.000	-0.010	-0.054
-310.924	46.779	0.327	-0.396
-309.910	-105.300	0.268	0.079
-308.895	-5.794	-0.373	0.333
-307.880	-117.972	0.266	-0.062
-306.866	231.014	-0.073	0.156
-305.851	-200.000	0.041	-0.421
-304.837	-145.726	-0.667	-0.077
-303.822	129.847	-0.246	0.411
-302.807	-103.339	-0.336	-0.103
-301.793	-70.862	0.219	-0.107
-300.778	15.240	0.462	-0.472
-299.764	292.282	0.134	0.320
-298.749	408.453	0.114	-0.316
-297.735	-91.003	0.546	0.204
-296.720	-149.970	0.065	-0.007
-295.705	-200.000	-0.015	0.231
-294.691	800.000	-0.102	-0.403
-293.676	-200.000	-0.003	0.308
-292.662	-9.727	0.258	0.224
-291.647	35.888	-0.351	0.403
-290.632	-12.627	0.109	-0.093
-289.618	-22.068	0.201	0.159
-288.603	-125.907	0.378	0.074
-287.589	-52.527	-0.021	0.013
-286.574	-24.525	0.203	0.157
-285.559	-200.000	-0.024	0.342
-284.545	50.775	0.121	-0.150
-283.530	-200.000	0.014	0.299
-282.516	-25.477	-0.350	0.269
-281.501	-71.122	0.343	0.167
-280.486	-119.725	0.318	-0.071
-279.472	-7.006	0.511	-0.452
-278.457	505.507	0.040	-0.122
-277.443	-200.000	0.004	-0.158
-276.428	-61.824	0.388	0.211
-275.413	-50.327	-0.123	-0.076
-274.399	-107.351	-0.258	-0.073
-273.384	800.000	0.075	-0.381
-272.370	-125.002	0.178	-0.035
-271.355	-200.000	-0.030	0.242
-270.340	800.000	0.049	0.235
-269.326	590.906	-0.097	-0.313
-268.311	29.246	0.057	0.063
-267.297	356.471	0.076	-0.199
-266.282	-199.056	0.326	-0.002
-265.267	10.013	-0.406	0.402
-264.253	67.853	-0.343	0.457
-263.238	34.935	0.363	0.414
-262.224	192.031	0.133	0.263
-261.209	16.331	0.255	0.262
-260.195	145.189	-0.219	0.383
-259.180	-25.899	-0.092	-0.071
-258.165	800.000	-0.064	0.291
-257.151	-114.733	-0.178	-0.044
-256.136	-66.257	-0.375	0.193
-255.122	-69.710	0.092	0.046
-254.107	201.512	-0.040	0.081
-253.092	-200.000	0.015	-0.132
-252.078	-200.000	-0.005	-0.033
-251.063	-13.876	-0.357	0.300
-250.049	-200.000	0.060	0.494
-249.034	393.232	-0.099	0.269
-248.019	292.708	-0.080	0.190
-247.005	-149.452	0.213	0.022
-245.990	-73.774	0.262	-0.123
-244.976	-114.691	0.507	0.125
-243.961	-88.251	0.086	-0.033
-242.946	800.000	-0.096	0.395
-241.932	-200.000	0.071	-0.429
-240.917	-138.590	-0.288	0.041
-239.903	14.453	-0.276	0.280
-238.888	-80.048	-0.529	0.230
-237.873	-200.000	0.026	-0.529
-236.859	-16.231	0.285	-0.235
-235.844	-104.224	0.313	-0.094
-234.830	-81.937	0.175	0.074
-233.815	-6.940	0.277	0.244
-232.800	-131.764	-0.557	0.094
-231.786	41.313	0.097	-0.114
-230.771	34.024	0.186	-0.211
-229.757	-140.320	-0.167	0.022
-228.742	-103.796	0.254	0.077
-227.727	121.510	-0.148	0.241
-226.713	55.812	-0.374	-0.471
-225.698	9.031	-0.092	0.090
-224.684	-54.033	-0.244	0.144
-223.669	334.635	0.196	0.496
-222.655	180.244	-0.273	0.523
-221.640	-200.000	-0.051	-0.452
-220.625	-80.634	0.214	0.092
-219.611	95.783	-0.225	-0.335
-218.596	-158.404	0.335	0.025
-217.582	111.966	0.155	-0.245
-216.567	-56.905	0.364	-0.209
-215.552	5.826	-0.149	-0.143
-214.538	-106.777	0.267	0.077
-213.523	47.969	-0.194	0.236
-212.509	406.493	0.091	0.250
-211.494	-25.625	-0.257	0.197
-210.479	-200.000	0.087	-0.517
-209.465	-200.000	0.034	-0.213
-208.450	-69.312	-0.214	-0.106
-207.436	78.516	0.197	0.273
-206.421	49.851	-0.226	-0.277
-205.406	-1.101	0.328	0.301
-204.392	-108.421	-0.054	-0.015
-203.377	637.215	-0.202	-0.672
-202.363	527.245	-0.095	0.292
-201.348	-72.962	0.271	-0.129
-200.333	89.021	-0.159	-0.230
-199.319	227.855	-0.046	0.097
-198.304	-1.545	-0.101	-0.092
-197.290	-99.108	0.300	0.098
-196.275	-185.468	0.443	0.009
-195.260	-165.106	0.234	-0.013
-194.246	-4.084	0.405	0.365
-193.231	-38.843	-0.279	0.191
-192.217	-151.345	-0.245	-0.023
-191.202	116.981	-0.189	0.302
-190.187	46.143	-0.226	0.272
-189.173	800.000	-0.033	-0.124
-188.158	-27.470	0.333	0.251
-187.144	-102.512	0.364	0.112
-186.129	-103.282	0.109	0.033
-185.114	-71.386	-0.327	0.158
-184.100	-97.182	-0.006	-0.002
-183.085	206.202	-0.138	0.281
-182.071	71.311	0.148	-0.200
-181.056	550.815	0.056	0.177
-180.042	-156.225	0.307	-0.025
-179.027	800.000	0.079	0.287
-178.012	-200.000	0.034	0.303
-176.998	113.222	-0.055	0.086
-175.983	56.812	0.219	-0.278
-174.969	40.263	0.235	0.274
-173.954	-200.000	-0.008	0.118
-172.939	-83.913	0.128	0.053
-171.925	-38.049	-0.183	0.126
-170.910	-125.500	-0.370	0.072
-169.896	54.219	0.162	0.202
-168.881	-15.409	0.126	-0.104
-167.866	789.224	-0.076	0.272
-166.852	-110.189	-0.375	0.101
-165.837	125.283	0.214	-0.350
-164.823	-37.981	-0.244	0.168
-163.808	-92.766	0.493	0.178
-162.793	28.012	0.175	-0.191
-161.779	800.000	-0.044	-0.193
-160.764	-44.479	-0.067	-0.043
-159.750	-1.060	0.453	-0.415
-158.735	800.000	-0.119	-0.508
-157.720	44.754	0.120	-0.144
-156.706	190.642	0.260	-0.508
-155.691	800.000	-0.052	0.274
-154.677	-74.276	-0.362	-0.169
-153.662	145.268	-0.285	-0.496
-152.647	-101.060	0.485	-0.153
-151.633	-97.219	0.418	-0.141
-150.618	365.086	-0.136	0.357
-149.604	800.000	-0.114	0.423
-148.589	-8.140	-0.260	0.227
-147.574	-52.033	0.440	-0.264
-146.560	196.345	-0.102	0.202
-145.545	511.248	-0.214	-0.649
-144.531	35.267	-0.332	-0.378
-143.516	-102.128	0.348	0.108
-142.502	-139.171	0.475	-0.066
-141.487	-111.856	-0.249	-0.065
-140.472	-200.000	0.000	0.610
-139.458	-200.000	0.053	-0.354
-138.443	-28.014	-0.551	-0.413
-137.429	-137.060	0.456	-0.067
-136.414	-189.542	0.418	0.006
-135.399	26.055	0.189	0.205
-134.385	-200.000	-0.016	-0.542
-133.370	-40.813	0.147	0.098
-132.356	-200.000	-0.068	-0.563
-131.341	-95.528	-0.432	-0.149
-130.326	78.156	0.232	-0.321
-129.312	-200.000	0.003	0.174
-128.297	435.672	-0.163	0.463
-127.283	-200.000	0.022	-0.425
-126.268	-164.250	-0.284	0.017
-125.253	-159.971	0.717	0.050
-124.239	-162.684	-0.235	0.015
-123.224	-112.578	-0.066	0.017
-122.210	-115.601	0.216	-0.052
