DTS Sentinel unit serial number:	SN409020Multiplexer serial number:	ORYXHardware model number:	OX4-SRSoftware version number:	ORYX F/W v3.00 Oryx Data Collector v3.7.2.0data status	okinstallation	HaddamTimeLapsedifferential loss correction	single-endedforward channel	channel 3reverse channel	N/Adate	2011/06/22time	01:26:17forward acquisition time	30.00reverse acquisition time	0.00gamma	498.7831k internal	0.1751k external	0.1751temperature offset calibration	1.0074default loss term (dB/km)	0.3790temperature slope calibration	1.3530multiplexer offset coefficient	1.0000multiplexer slope coefficient	1.0000fibre end	0.00T internal ref (°C)	22.50T ext. ref 1 (°C)	17.74T ext. ref 2 (°C)	0.01length (m)	temperature (°C)	Stokes	anti-Stokes-747.200	-200.000	0.056	-0.610
-746.185	800.000	0.121	0.659
-745.171	557.933	0.097	-0.313
-744.156	800.000	0.080	0.398
-743.142	-139.801	0.106	0.015
-742.127	-15.937	0.597	0.504
-741.112	0.484	-0.548	-0.519
-740.098	-116.761	0.271	-0.065
-739.083	91.665	0.486	-0.726
-738.069	-200.000	-0.042	0.350
-737.054	-57.453	0.290	-0.169
-736.039	-94.340	-0.504	-0.182
-735.025	-177.960	0.518	0.016
-734.010	9.228	0.030	-0.030
-732.996	-200.000	-0.076	-0.515
-731.981	190.207	0.088	-0.176
-730.966	-24.620	0.267	-0.211
-729.952	800.000	0.041	-0.159
-728.937	462.466	0.148	0.440
-727.923	36.297	-0.157	-0.184
-726.908	-12.919	-0.448	-0.386
-725.894	23.593	0.235	-0.257
-724.879	-200.000	0.041	0.610
-723.864	-34.265	0.263	0.191
-722.850	-200.000	-0.015	-0.114
-721.835	86.396	-0.236	0.345
-720.821	-96.375	0.522	-0.182
-719.806	-125.401	0.203	0.041
-718.791	212.224	0.109	-0.228
-717.777	87.355	0.311	-0.457
-716.762	-46.698	-0.238	0.154
-715.748	-98.594	0.080	0.027
-714.733	17.590	-0.183	0.193
-713.718	-98.100	-0.534	-0.181
-712.704	23.879	0.159	0.174
-711.689	-40.532	0.359	-0.246
-710.675	800.000	0.088	-0.430
-709.660	-112.824	-0.493	-0.129
-708.645	258.651	0.133	-0.304
-707.631	-144.424	0.206	-0.025
-706.616	26.794	-0.093	0.103
-705.602	-118.718	0.434	-0.101
-704.587	-45.615	-0.271	-0.178
-703.572	-44.948	0.120	-0.079
-702.558	197.794	-0.021	0.043
-701.543	-104.919	-0.327	-0.099
-700.529	25.651	0.356	-0.393
-699.514	-180.079	-0.331	-0.009
-698.499	-108.837	-0.413	0.116
-697.485	-56.774	-0.047	-0.027
-696.470	65.715	-0.070	-0.094
-695.456	268.741	-0.122	-0.285
-694.441	-136.906	0.286	0.043
-693.426	-126.225	0.133	0.026
-692.412	-41.475	0.319	-0.217
-691.397	598.160	0.167	0.552
-690.383	800.000	0.047	0.260
-689.368	-111.505	0.187	0.050
-688.354	142.196	-0.086	0.151
-687.339	0.447	0.166	0.157
-686.324	-86.887	-0.214	0.086
-685.310	-188.237	0.166	0.003
-684.295	191.281	-0.037	0.075
-683.281	358.663	-0.080	0.212
-682.266	738.784	-0.087	-0.311
-681.251	61.687	0.084	-0.110
-680.237	-106.715	-0.459	-0.134
-679.222	465.037	0.033	-0.098
-678.208	-45.563	-0.400	-0.261
-677.193	-200.000	-0.072	0.502
-676.178	-146.042	0.336	-0.039
-675.164	81.734	0.138	0.197
-674.149	-200.000	-0.028	0.237
-673.135	-46.479	0.105	0.068
-672.120	-13.461	0.275	0.236
-671.105	-54.770	0.244	0.146
-670.091	216.006	-0.044	-0.092
-669.076	-80.439	0.432	0.190
-668.062	-65.737	-0.058	-0.031
-667.047	-39.201	-0.334	-0.231
-666.032	-41.127	0.109	-0.075
-665.018	-170.362	0.460	0.021
-664.003	800.000	-0.101	0.498
-662.989	-61.056	0.290	-0.162
-661.974	9.481	-0.233	0.233
-660.959	270.605	0.136	-0.319
-659.945	800.000	-0.038	0.218
-658.930	-200.000	-0.054	0.320
-657.916	-86.748	0.155	0.062
-656.901	-200.000	-0.084	0.557
-655.886	-7.823	-0.321	-0.286
-654.872	800.000	0.040	-0.197
-653.857	-32.605	-0.332	0.244
-652.843	-162.265	0.538	-0.035
-651.828	-200.000	-0.090	0.568
-650.814	-114.185	-0.418	-0.106
-649.799	-75.557	-0.271	0.127
-648.784	-200.000	-0.022	0.378
-647.770	23.847	0.203	0.221
-646.755	-92.884	-0.418	-0.154
-645.741	-139.979	-0.370	-0.051
-644.726	547.378	0.094	-0.299
-643.711	800.000	0.057	-0.328
-642.697	266.293	-0.177	0.411
-641.682	61.428	0.108	0.142
-640.668	-21.512	0.132	-0.107
-639.653	77.044	0.184	-0.258
-638.638	103.039	0.065	-0.101
-637.624	-131.805	-0.203	-0.035
-636.609	800.000	-0.064	0.291
-635.595	90.712	-0.058	0.087
-634.580	-130.114	0.416	0.074
-633.565	738.757	-0.057	0.203
-632.551	675.649	0.064	-0.221
-631.536	-138.661	-0.360	0.052
-630.522	-56.292	-0.038	0.022
-629.507	37.075	0.266	0.311
-628.492	-200.000	-0.018	-0.247
-627.478	-200.000	0.067	-0.397
-626.463	800.000	0.047	-0.260
-625.449	-22.557	0.263	-0.210
-624.434	-2.460	0.197	0.182
-623.419	-200.000	-0.009	-0.309
-622.405	-71.601	-0.302	-0.149
-621.390	-88.894	-0.171	-0.067
-620.376	171.617	-0.163	-0.310
-619.361	-108.249	-0.530	-0.150
-618.346	-43.791	-0.186	-0.124
-617.332	-124.946	-0.442	-0.089
-616.317	-1.928	-0.045	0.042
-615.303	-200.000	-0.010	0.126
-614.288	-168.681	-0.098	-0.005
-613.273	19.774	-0.308	0.328
-612.259	-109.081	0.311	0.087
-611.244	-106.088	-0.443	0.131
-610.230	-6.286	-0.480	0.433
-609.215	-200.000	-0.001	0.564
-608.201	-45.949	0.256	0.166
-607.186	-20.720	-0.199	-0.161
-606.171	272.574	-0.083	0.195
-605.157	93.636	0.249	-0.373
-604.142	-97.759	-0.378	-0.129
-603.128	-112.549	0.175	0.046
-602.113	-41.478	-0.159	0.108
-601.098	-114.842	0.660	-0.165
-600.084	-76.143	-0.558	-0.259
-599.069	-88.913	0.119	-0.046
-598.055	-200.000	-0.003	0.206
-597.040	32.621	-0.153	-0.175
-596.025	-14.753	-0.260	-0.220
-595.011	-134.821	0.289	0.046
-593.996	800.000	-0.061	0.228
-592.982	576.691	-0.051	-0.164
-591.967	-200.000	-0.032	0.238
-590.952	19.064	-0.269	0.285
-589.938	-95.760	-0.046	0.016
-588.923	187.814	0.131	-0.258
-587.909	800.000	-0.030	0.130
-586.894	49.653	-0.129	0.161
-585.879	1.603	-0.071	-0.067
-584.865	65.252	0.343	0.459
-583.850	-47.807	-0.267	-0.170
-582.836	-138.300	0.147	-0.021
-581.821	-200.000	-0.057	-0.367
-580.806	-61.930	0.150	0.083
-579.792	-97.473	0.185	0.063
-578.777	11.945	0.149	-0.151
-577.763	-134.838	-0.563	0.089
-576.748	58.064	-0.115	0.149
-575.733	-85.290	0.567	0.232
-574.719	29.035	0.316	0.353
-573.704	-90.336	0.196	-0.075
-572.690	-200.000	-0.314	0.000
-571.675	528.907	-0.042	-0.131
-570.661	-173.265	0.349	0.014
-569.646	-4.338	-0.269	-0.246
-568.631	-179.122	0.325	-0.009
-567.617	-93.255	-0.175	0.064
-566.602	-37.068	0.449	0.316
-565.588	-135.772	-0.044	0.007
-564.573	66.892	-0.300	-0.403
-563.558	-79.052	0.122	0.054
-562.544	222.915	-0.076	0.162
-561.529	36.745	0.152	0.177
-560.515	-200.000	0.033	-0.245
-559.500	271.581	0.200	0.467
-558.485	20.506	0.178	-0.190
-557.471	-42.717	-0.255	0.171
-556.456	2.220	0.234	0.223
-555.442	178.861	0.120	0.233
-554.427	-26.360	0.521	-0.402
-553.412	-200.000	-0.011	-0.441
-552.398	800.000	-0.096	-0.429
-551.383	223.968	0.118	-0.253
-550.369	747.842	-0.052	-0.187
-549.354	-200.000	-0.003	0.108
-548.339	-94.598	0.092	-0.033
-547.325	-200.000	-0.004	-0.143
-546.310	-118.296	0.247	-0.057
-545.296	-148.202	0.076	0.008
-544.281	41.106	-0.045	-0.053
-543.266	800.000	-0.059	-0.223
-542.252	658.364	0.110	-0.374
-541.237	-200.000	-0.043	-0.301
-540.223	-200.000	0.010	-0.232
-539.208	-39.560	-0.512	0.352
-538.193	-200.000	0.036	-0.239
-537.179	111.342	-0.087	-0.139
-536.164	44.373	-0.216	-0.262
-535.150	197.232	0.272	-0.548
-534.135	-46.596	0.123	0.079
-533.121	-75.923	0.074	-0.034
-532.106	-88.400	0.288	0.113
-531.091	800.000	-0.014	0.079
-530.077	-35.694	0.149	-0.106
-529.062	274.668	-0.105	0.246
-528.048	-52.900	-0.475	0.287
-527.033	-4.045	-0.240	0.219
-526.018	-40.545	-0.320	-0.218
-525.004	69.381	-0.029	0.039
-523.989	99.665	-0.426	-0.650
-522.975	182.045	-0.180	-0.349
-521.960	30.177	0.059	-0.067
-520.945	-108.434	0.420	-0.118
-519.931	12.495	-0.182	0.185
-518.916	-61.969	0.046	0.025
-517.902	259.716	0.075	-0.172
-516.887	35.370	0.179	-0.207
-515.872	-51.905	0.172	0.105
-514.858	23.553	0.031	0.034
-513.843	-169.453	-0.236	0.011
-512.829	-200.000	0.056	0.562
-511.814	-200.000	0.038	-0.256
-510.799	-85.358	-0.222	-0.091
-509.785	-143.593	-0.302	-0.037
-508.770	-85.582	-0.153	-0.062
-507.756	-39.299	-0.232	0.160
-506.741	800.000	0.051	-0.190
-505.726	72.537	-0.125	-0.172
-504.712	-103.423	-0.436	-0.134
-503.697	50.989	0.143	0.178
-502.683	-70.477	-0.065	0.032
-501.668	-67.692	0.107	0.055
-500.653	-174.110	-0.312	0.012
-499.639	-21.550	0.121	0.096
-498.624	-93.922	0.175	0.063
-497.610	-103.239	-0.352	0.109
-496.595	174.094	-0.076	-0.146
-495.581	-36.849	-0.271	-0.191
-494.566	-25.139	-0.294	-0.229
-493.551	-132.593	-0.354	-0.059
-492.537	-121.114	0.546	-0.119
-491.522	99.666	0.176	-0.268
-490.508	-89.160	0.207	0.080
-489.493	-147.984	-0.244	-0.026
-488.478	749.457	0.138	0.492
-487.464	42.483	-0.385	-0.461
-486.449	-154.603	-0.247	0.021
-485.435	-171.435	-0.366	0.016
-484.420	-79.228	-0.540	0.240
-483.405	-81.574	0.467	0.201
-482.391	792.922	0.064	-0.232
-481.376	143.048	0.133	-0.233
-480.362	369.171	0.045	0.121
-479.347	800.000	0.095	0.483
-478.332	800.000	-0.058	0.250
-477.318	-187.753	0.223	0.004
-476.303	-41.388	0.214	0.144
-475.289	-35.772	0.318	-0.226
-474.274	-108.273	0.268	0.076
-473.259	-87.659	-0.330	-0.130
-472.245	-57.775	0.282	-0.161
-471.230	800.000	-0.113	0.424
-470.216	800.000	-0.093	0.382
-469.201	-200.000	0.038	0.263
-468.186	58.696	0.545	0.704
-467.172	80.879	0.083	-0.118
-466.157	730.630	-0.153	-0.540
-465.143	490.954	-0.050	0.151
-464.128	-200.000	-0.047	0.289
-463.113	-48.646	-0.246	0.155
-462.099	-115.900	0.268	-0.065
-461.084	-20.485	0.272	-0.219
-460.070	-105.979	-0.577	-0.169
-459.055	39.560	0.230	0.271
-458.040	-200.000	-0.007	0.149
-457.026	-120.185	-0.664	0.148
-456.011	62.753	-0.042	-0.055
-454.997	-89.308	0.764	0.294
-453.982	-56.614	-0.086	0.050
-452.968	-101.489	0.188	-0.060
-451.953	-192.740	-0.146	-0.002
-450.938	-127.016	0.566	-0.108
-449.924	25.904	-0.337	-0.369
-448.909	-144.333	0.458	0.055
-447.895	800.000	-0.039	0.167
-446.880	-188.201	-0.223	-0.004
-445.865	28.401	-0.137	-0.152
-444.851	-200.000	0.008	-0.335
-443.836	-105.648	0.140	0.041
-442.822	-174.538	0.196	0.007
-441.807	467.728	-0.094	0.279
-440.792	-200.000	0.053	-0.547
-439.778	31.325	0.373	-0.420
-438.763	-92.431	0.294	0.108
-437.749	-10.310	-0.305	0.265
-436.734	110.339	-0.027	-0.043
-435.719	164.855	-0.369	-0.686
-434.705	800.000	0.112	-0.483
-433.690	21.746	0.117	0.125
-432.676	52.869	-0.306	-0.384
-431.661	-95.260	0.509	0.179
-430.646	204.815	-0.076	-0.156
-429.632	-200.000	-0.002	0.420
-428.617	10.414	-0.368	0.368
-427.603	-69.600	0.424	0.212
-426.588	-40.824	0.109	-0.074
-425.573	-108.040	0.426	0.120
-424.559	-36.049	-0.208	-0.147
-423.544	363.231	-0.085	-0.226
-422.530	53.024	-0.033	-0.042
-421.515	-182.669	-0.221	-0.005
-420.500	-51.613	-0.242	0.148
-419.486	-46.765	-0.532	-0.341
-418.471	-10.587	0.400	-0.346
-417.457	170.372	-0.104	0.196
-416.442	256.434	-0.014	0.032
-415.428	-101.714	0.218	-0.069
-414.413	252.535	0.077	-0.173
-413.398	1.662	0.313	0.295
-412.384	-120.677	0.189	-0.042
-411.369	18.393	0.195	-0.204
-410.355	35.939	-0.096	-0.111
-409.340	-137.381	0.598	0.088
-408.325	-146.280	0.035	-0.004
-407.311	-35.640	0.252	-0.179
-406.296	38.868	-0.361	-0.423
-405.282	82.580	-0.164	-0.233
-404.267	-162.173	0.168	-0.011
-403.252	-142.765	0.199	-0.025
-402.238	375.245	0.027	0.073
-401.223	800.000	-0.086	-0.435
-400.209	-137.377	-0.788	0.116
-399.194	125.261	0.163	-0.271
-398.179	-108.560	-0.560	-0.157
-397.165	-83.209	-0.492	-0.206
-396.150	-24.156	-0.431	0.336
-395.136	-172.905	0.208	0.008
-394.121	-149.646	0.292	-0.030
-393.106	-54.843	0.366	-0.216
-392.092	-200.000	-0.049	-0.427
-391.077	-140.853	0.202	0.027
-390.063	190.782	0.130	0.258
-389.048	-7.717	-0.075	0.066
-388.033	-200.000	0.085	0.525
-387.019	-24.982	0.189	0.147
-386.004	143.038	-0.183	0.319
-384.990	27.379	0.081	0.089
-383.975	-40.009	-0.303	0.207
-382.960	-19.021	-0.291	0.237
-381.946	35.296	0.095	-0.109
-380.931	173.279	-0.077	-0.145
-379.917	151.744	-0.181	0.324
-378.902	-107.714	-0.360	0.102
-377.888	101.679	-0.278	0.426
-376.873	-123.594	0.349	0.072
-375.858	232.722	-0.032	-0.068
-374.844	88.087	0.207	0.300
-373.829	-110.258	-0.251	-0.068
-372.815	-200.000	0.020	-0.132
-371.800	-179.674	0.308	-0.009
-370.785	-66.997	0.165	0.085
-369.771	-147.412	0.414	-0.045
-368.756	-123.631	-0.401	0.083
-367.742	-200.000	0.050	-0.426
-366.727	-58.489	-0.269	0.153
-365.712	68.606	0.368	0.495
-364.698	479.604	0.114	0.341
-363.683	-104.078	0.236	-0.072
-362.669	-150.367	-0.185	0.018
-361.654	566.667	0.084	-0.268
-360.639	14.346	-0.357	0.365
-359.625	-131.397	0.464	0.080
-358.610	-200.000	-0.062	0.397
-357.596	251.889	-0.198	0.442
-356.581	-137.862	-0.298	-0.043
-355.566	-200.000	-0.018	0.570
-354.552	-27.929	-0.300	0.227
-353.537	-139.819	-0.325	0.045
-352.523	-200.000	0.038	-0.241
-351.508	800.000	-0.059	-0.312
-350.493	-199.136	0.275	-0.002
-349.479	-72.839	-0.553	-0.265
-348.464	800.000	-0.091	-0.340
-347.450	-170.668	0.277	0.012
-346.435	-169.196	0.251	0.012
-345.420	439.914	-0.171	0.492
-344.406	82.363	0.080	-0.113
-343.391	124.341	-0.092	-0.152
-342.377	65.394	-0.242	0.320
-341.362	384.816	-0.153	0.413
-340.348	-45.603	0.573	0.370
-339.333	-164.105	0.152	-0.009
-338.318	-58.490	-0.272	-0.154
-337.304	-47.495	0.478	0.303
-336.289	-200.000	0.110	0.734
-335.275	-121.239	-0.180	0.039
-334.260	-57.198	-0.017	0.010
-333.245	13.816	-0.282	-0.286
-332.231	-91.452	0.467	0.173
-331.216	-200.000	0.013	0.140
-330.202	430.982	-0.111	-0.315
-329.187	11.799	0.081	-0.081
-328.172	-154.763	0.544	-0.047
-327.158	77.157	-0.244	0.340
-326.143	-92.305	-0.815	0.299
-325.129	8.807	-0.161	-0.159
-324.114	714.925	-0.094	-0.327
-323.099	-95.552	-0.294	-0.102
-322.085	-176.097	-0.256	0.009
-321.070	291.002	-0.048	-0.115
-320.056	-105.786	0.330	0.097
-319.041	149.047	-0.054	0.096
-318.026	800.000	-0.014	0.051
-317.012	44.825	0.357	0.430
-315.997	102.269	0.242	-0.370
-314.983	-106.996	-0.442	-0.127
-313.968	5.084	-0.150	0.144
-312.953	170.085	-0.288	0.539
-311.939	219.447	0.220	-0.460
-310.924	-97.204	-0.298	-0.101
-309.910	-27.538	-0.381	-0.289
-308.895	-85.043	-0.296	-0.120
-307.880	666.929	0.087	-0.295
-306.866	-82.087	0.217	-0.092
-305.851	800.000	0.141	-0.637
-304.837	-3.407	-0.063	-0.057
-303.822	-5.284	0.363	-0.325
-302.807	245.904	0.047	-0.103
-301.793	-200.000	0.028	-0.207
-300.778	469.232	0.059	0.173
-299.764	-63.680	0.181	0.097
-298.749	-105.758	0.195	-0.057
-297.735	-200.000	-0.008	0.165
-296.720	66.022	-0.102	0.135
-295.705	-182.058	-0.405	-0.010
-294.691	800.000	0.130	0.586
-293.676	-109.666	0.020	-0.005
-292.662	-200.000	-0.030	0.277
-291.647	272.824	0.032	-0.074
-290.632	101.144	0.064	-0.097
-289.618	-88.277	0.784	-0.304
-288.603	211.748	0.142	-0.293
-287.589	-62.102	0.101	-0.055
-286.574	152.585	-0.044	0.078
-285.559	-200.000	-0.027	-0.415
-284.545	-40.716	-0.121	-0.082
-283.530	-200.000	-0.020	-0.229
-282.516	-105.403	-0.129	-0.038
-281.501	-85.740	0.241	0.097
-280.486	-191.391	0.448	-0.006
-279.472	-105.702	0.350	0.103
-278.457	800.000	-0.108	-0.465
-277.443	-171.048	-0.248	0.011
-276.428	325.602	-0.123	0.308
-275.413	45.222	0.078	-0.093
-274.399	-136.187	0.306	0.046
-273.384	-126.042	-0.164	0.032
-272.370	-46.219	0.093	-0.060
-271.355	-1.839	0.149	-0.136
-270.340	-45.770	0.181	-0.116
-269.326	210.854	-0.199	0.409
-268.311	49.117	-0.250	0.306
-267.297	47.810	0.286	0.348
-266.282	-200.000	0.016	-0.324
-265.267	217.037	-0.201	0.418
-264.253	371.440	-0.228	-0.605
-263.238	69.717	0.167	-0.225
-262.224	460.897	-0.043	0.127
-261.209	800.000	-0.066	-0.290
-260.195	162.934	-0.186	0.340
-259.180	-200.000	-0.019	0.212
-258.165	800.000	0.048	-0.262
-257.151	800.000	0.108	-0.498
-256.136	-49.748	-0.401	-0.248
-255.122	800.000	0.050	0.264
-254.107	-200.000	-0.045	-0.331
-253.092	-50.331	0.054	-0.033
-252.078	132.974	-0.201	-0.339
-251.063	-78.847	0.391	0.173
-250.049	699.718	0.162	0.559
-249.034	-89.536	0.321	-0.122
-248.019	135.244	0.122	-0.208
-247.005	103.230	-0.268	0.410
-245.990	-160.320	-0.430	0.030
-244.976	-128.801	-0.465	-0.085
-243.961	800.000	-0.071	0.315
-242.946	295.997	-0.085	0.204
-241.932	-131.030	0.172	-0.030
-240.917	-191.591	-0.305	0.004
-239.903	-200.000	0.017	-0.423
-238.888	550.998	-0.111	-0.347
-237.873	-93.650	0.059	0.021
-236.859	33.545	0.134	0.151
-235.844	800.000	-0.048	-0.226
-234.830	610.532	-0.098	-0.321
-233.815	-147.356	0.103	-0.011
-232.800	-85.194	-0.439	-0.178
-231.786	47.219	-0.549	-0.666
-230.771	-32.271	-0.352	0.255
-229.757	-200.000	-0.014	0.096
-228.742	800.000	-0.032	-0.153
-227.727	-9.501	0.173	-0.150
-226.713	355.392	-0.127	0.330
-225.698	31.280	-0.069	0.078
-224.684	-200.000	0.003	-0.074
-223.669	-200.000	0.026	0.306
-222.655	48.827	-0.240	-0.293
-221.640	-115.899	-0.180	0.043
-220.625	-69.957	-0.081	0.040
-219.611	-127.253	0.349	0.066
-218.596	49.361	-0.105	-0.129
-217.582	-54.825	-0.553	0.324
-216.567	-200.000	0.061	0.496
-215.552	-182.721	0.412	0.010
-214.538	151.886	-0.086	0.153
-213.523	-149.548	-0.031	0.003
-212.509	-93.535	0.090	0.032
-211.494	-166.361	0.290	0.016
-210.479	345.989	-0.137	-0.351
-209.465	-139.863	0.386	-0.053
-208.450	-200.000	0.020	0.135
-207.436	47.654	-0.131	-0.159
-206.421	11.961	0.102	-0.102
-205.406	-45.851	-0.153	0.098
-204.392	800.000	0.065	0.264
-203.377	-91.040	-0.124	0.046
-202.363	-71.362	0.337	0.164
-201.348	719.019	0.061	0.210
-200.333	-81.840	0.404	-0.171
-199.319	740.082	-0.029	0.103
-198.304	-142.838	-0.266	0.033
-197.290	-105.856	0.131	0.038
-196.275	-65.824	0.245	-0.127
-195.260	-200.000	-0.008	-0.568
-194.246	53.024	0.163	0.202
-193.231	359.645	0.152	0.398
-192.217	197.173	0.333	0.663
-191.202	-137.796	0.423	0.061
-190.187	-162.982	-0.534	-0.033
-189.173	-22.146	-0.311	-0.245
-188.158	-80.273	0.238	-0.103
-187.144	18.986	0.287	0.299
-186.129	28.682	0.315	0.347
-185.114	-165.568	0.276	-0.015
-184.100	-101.602	-0.404	0.127
-183.085	-200.000	0.574	0.001
-182.071	-58.557	0.031	0.017
-181.056	369.546	-0.124	0.329
-180.042	98.810	0.107	0.161
-179.027	-115.839	0.196	-0.047
-178.012	-110.643	-0.115	-0.031
-176.998	-200.000	-0.036	0.319
-175.983	-20.868	0.253	-0.201
-174.969	194.726	0.017	0.034
-173.954	200.627	0.090	-0.181
-172.939	-52.602	-0.119	-0.071
-171.925	-200.000	0.024	-0.441
-170.910	-73.209	0.879	-0.416
-169.896	800.000	-0.046	-0.244
-168.881	29.492	-0.077	-0.085
-167.866	-60.731	0.107	-0.059
-166.852	-79.287	0.505	0.221
-165.837	-128.264	0.410	0.075
-164.823	234.174	0.174	0.373
-163.808	-200.000	-0.056	-0.325
-162.793	-51.059	0.224	0.136
-161.779	-130.821	0.338	0.058
-160.764	74.648	-0.314	0.430
-159.750	-46.721	-0.230	0.146
-158.735	-119.553	0.188	-0.042
-157.720	800.000	0.118	-0.548
-156.706	1.797	0.480	0.449
-155.691	-105.292	0.273	-0.080
-154.677	-105.859	-0.274	0.080
-153.662	36.269	-0.093	0.106
-152.647	-60.454	-0.274	0.151
-151.633	-200.000	-0.025	0.366
-150.618	354.760	-0.029	-0.076
-149.604	-108.805	-0.470	0.130
-148.589	-167.018	-0.231	-0.012
-147.574	800.000	-0.057	0.285
-146.560	30.709	0.540	0.599
-145.545	-110.217	0.108	0.029
-144.531	800.000	-0.070	0.386
-143.516	-64.682	0.114	0.060
-142.502	611.129	0.090	0.294
-141.487	-11.551	-0.194	0.165
-140.472	-171.380	-0.159	-0.007
-139.458	95.587	-0.140	-0.207
-138.443	-68.380	0.423	-0.212
-137.429	-68.521	-0.199	0.100
-136.414	371.270	0.135	-0.356
-135.399	-107.717	0.451	-0.127
-134.385	216.828	0.127	0.263
-133.370	800.000	0.070	-0.294
-132.356	116.414	-0.071	0.113
-131.341	-200.000	0.021	-0.292
-130.326	-51.507	-0.273	-0.165
-129.312	-167.055	-0.318	0.017
-128.297	-156.402	0.208	0.017
-127.283	608.854	-0.156	0.508
-126.268	74.802	0.125	-0.171
-125.253	-64.973	-0.453	0.236
-124.239	153.147	-0.106	0.188
-123.224	180.936	-0.197	0.376
-122.210	-183.543	-0.322	0.007
