DTS Sentinel unit serial number:	SN409020Multiplexer serial number:	ORYXHardware model number:	OX4-SRSoftware version number:	ORYX F/W v3.00 Oryx Data Collector v3.7.2.0data status	okinstallation	HaddamTimeLapsedifferential loss correction	single-endedforward channel	channel 3reverse channel	N/Adate	2011/06/22time	07:01:17forward acquisition time	30.00reverse acquisition time	0.00gamma	498.7831k internal	0.1752k external	0.1752temperature offset calibration	1.0074default loss term (dB/km)	0.3790temperature slope calibration	1.3530multiplexer offset coefficient	1.0000multiplexer slope coefficient	1.0000fibre end	0.00T internal ref (°C)	22.81T ext. ref 1 (°C)	19.23T ext. ref 2 (°C)	0.12length (m)	temperature (°C)	Stokes	anti-Stokes-747.200	-104.448	-0.391	-0.119
-746.185	371.702	0.206	0.559
-745.171	-200.000	0.027	-0.694
-744.156	321.379	-0.258	0.654
-743.142	-200.000	0.046	0.414
-742.127	28.541	-0.226	0.254
-741.112	220.872	0.079	0.168
-740.098	-43.323	-0.253	-0.170
-739.083	142.219	-0.204	-0.360
-738.069	-68.740	0.492	0.252
-737.054	153.266	-0.249	0.453
-736.039	-95.439	-0.289	0.102
-735.025	108.881	0.199	0.316
-734.010	292.840	-0.117	0.283
-732.996	-76.258	-0.334	0.156
-731.981	40.996	-0.130	-0.156
-730.966	-99.041	-0.555	-0.185
-729.952	-90.524	0.393	0.150
-728.937	-8.155	-0.287	-0.256
-727.923	521.194	0.027	-0.085
-726.908	-93.111	0.553	-0.203
-725.894	-162.308	0.397	0.026
-724.879	261.246	0.201	-0.463
-723.864	-146.400	0.150	0.017
-722.850	-55.798	0.233	-0.137
-721.835	800.000	0.105	-0.397
-720.821	-79.304	0.108	-0.048
-719.806	14.007	-0.342	-0.353
-718.791	477.732	0.134	-0.404
-717.777	668.916	0.107	0.371
-716.762	-135.592	-0.203	0.032
-715.748	-11.371	-0.180	0.157
-714.733	-106.047	-0.166	-0.049
-713.718	-21.562	-0.686	-0.554
-712.704	177.265	0.119	0.231
-711.689	-80.753	0.055	-0.024
-710.675	241.007	0.136	-0.301
-709.660	800.000	0.073	-0.393
-708.645	-117.824	-0.077	0.018
-707.631	477.120	0.077	-0.231
-706.616	-112.618	-0.452	0.118
-705.602	-126.743	-0.274	-0.053
-704.587	-200.000	-0.051	0.366
-703.572	237.248	-0.109	0.240
-702.558	31.115	0.368	-0.419
-701.543	197.933	-0.223	-0.453
-700.529	2.813	0.386	-0.371
-699.514	86.081	-0.465	-0.680
-698.499	5.287	-0.038	0.038
-697.485	73.734	0.204	0.284
-696.470	-200.000	-0.006	0.272
-695.456	-81.908	-0.191	0.082
-694.441	800.000	-0.167	0.715
-693.426	-200.000	0.012	0.329
-692.412	-161.398	-0.356	0.024
-691.397	160.781	0.126	0.233
-690.383	-86.644	-0.643	0.260
-689.368	-160.351	-0.119	-0.008
-688.354	-89.393	-0.520	-0.201
-687.339	-2.513	-0.291	0.270
-686.324	800.000	0.073	0.409
-685.310	69.863	-0.128	0.176
-684.295	-146.006	-0.195	0.023
-683.281	-200.000	-0.002	-0.259
-682.266	-200.000	-0.023	-0.263
-681.251	162.226	-0.137	-0.254
-680.237	-39.227	0.208	-0.144
-679.222	139.798	-0.152	0.266
-678.208	-200.000	-0.053	0.333
-677.193	-83.856	-0.214	0.090
-676.178	64.627	-0.190	-0.254
-675.164	455.841	-0.183	-0.540
-674.149	-117.543	-0.491	0.117
-673.135	400.025	0.138	0.385
-672.120	-14.928	0.048	0.041
-671.105	87.736	0.286	-0.420
-670.091	-121.959	0.422	-0.091
-669.076	-71.803	0.243	-0.119
-668.062	-45.802	-0.170	0.111
-667.047	329.633	-0.139	0.355
-666.032	-98.834	0.221	-0.074
-665.018	-200.000	-0.032	0.328
-664.003	-200.000	0.023	0.579
-662.989	800.000	0.107	0.468
-661.974	-23.029	0.242	-0.192
-660.959	-33.154	0.149	0.109
-659.945	-40.445	0.033	0.023
-658.930	10.565	0.316	-0.319
-657.916	-79.429	0.562	0.250
-656.901	-107.143	-0.229	0.066
-655.886	80.012	0.113	0.160
-654.872	88.815	0.069	-0.102
-653.857	184.372	-0.137	0.269
-652.843	1.779	-0.228	-0.218
-651.828	-53.000	-0.313	-0.190
-650.814	15.230	-0.151	0.157
-649.799	-122.023	-0.442	0.095
-648.784	-40.293	0.314	0.216
-647.770	205.733	-0.090	0.185
-646.755	-92.049	-0.217	0.081
-645.741	-142.542	-0.084	-0.011
-644.726	-51.945	-0.285	0.175
-643.711	-111.055	0.119	-0.032
-642.697	-20.872	0.180	0.145
-641.682	-127.505	0.126	-0.024
-640.668	-200.000	-0.007	-0.052
-639.653	-31.754	-0.310	-0.229
-638.638	247.062	0.167	-0.373
-637.624	-44.696	-0.160	-0.105
-636.609	800.000	0.079	0.316
-635.595	24.235	0.116	-0.126
-634.580	-66.974	0.464	0.241
-633.565	25.087	-0.154	0.169
-632.551	19.618	-0.137	0.146
-631.536	0.263	-0.166	-0.157
-630.522	-94.976	0.460	0.164
-629.507	-200.000	-0.008	0.221
-628.492	488.382	-0.119	-0.360
-627.478	211.981	0.155	0.324
-626.463	1.925	-0.120	-0.115
-625.449	800.000	-0.074	0.286
-624.434	-200.000	-0.011	0.402
-623.419	-117.612	0.457	-0.108
-622.405	45.061	-0.113	-0.137
-621.390	-109.890	-0.056	-0.015
-620.376	21.161	-0.229	-0.245
-619.361	-129.598	-0.532	0.096
-618.346	359.272	-0.198	0.525
-617.332	78.980	0.220	-0.312
-616.317	-45.266	-0.107	-0.070
-615.303	53.708	-0.284	-0.360
-614.288	-48.656	0.050	-0.031
-613.273	-103.037	-0.192	-0.060
-612.259	-123.363	0.172	-0.036
-611.244	-197.077	-0.316	0.003
-610.230	-200.000	0.197	-0.001
-609.215	-104.097	-0.350	0.107
-608.201	-38.449	0.212	-0.147
-607.186	5.631	-0.075	-0.073
-606.171	-200.000	-0.018	0.160
-605.157	-11.266	0.154	0.134
-604.142	-200.000	-0.020	-0.306
-603.128	-148.705	-0.355	0.038
-602.113	-1.597	0.053	-0.049
-601.098	-74.529	0.443	-0.210
-600.084	-31.614	0.306	0.226
-599.069	266.416	0.048	0.111
-598.055	172.927	0.242	0.461
-597.040	155.140	0.126	0.229
-596.025	-200.000	-0.053	0.410
-595.011	-65.108	-0.197	-0.104
-593.996	49.169	0.201	0.250
-592.982	-122.000	0.385	-0.083
-591.967	-154.035	0.189	-0.017
-590.952	-96.646	0.382	0.132
-589.938	-141.377	0.283	-0.037
-588.923	70.405	0.141	0.193
-587.909	-200.000	-0.045	-0.311
-586.894	244.019	-0.086	0.191
-585.879	313.914	0.179	0.446
-584.865	-18.771	-0.126	-0.103
-583.850	-177.539	0.147	0.005
-582.836	14.469	0.188	0.193
-581.821	800.000	-0.046	-0.195
-580.806	52.992	0.070	-0.089
-579.792	47.048	-0.219	0.269
-578.777	800.000	0.161	-0.808
-577.763	768.011	0.074	-0.267
-576.748	-200.000	-0.019	-0.335
-575.733	16.517	0.090	0.093
-574.719	-12.144	0.207	-0.179
-573.704	-200.000	-0.071	-0.473
-572.690	-46.111	0.383	0.248
-571.675	2.476	0.156	-0.149
-570.661	-95.370	-0.230	-0.081
-569.646	68.416	0.137	0.185
-568.631	-78.253	0.250	0.113
-567.617	-200.000	-0.009	0.379
-566.602	-138.041	-0.443	0.064
-565.588	670.351	0.113	-0.389
-564.573	-200.000	0.036	-0.365
-563.558	109.595	-0.459	0.727
-562.544	45.298	-0.143	0.173
-561.529	-100.971	-0.460	-0.148
-560.515	-200.000	0.029	0.220
-559.500	-147.525	-0.138	-0.015
-558.485	313.852	0.023	-0.058
-557.471	-119.825	0.417	-0.094
-556.456	-26.446	-0.102	0.078
-555.442	-73.519	0.132	0.063
-554.427	-122.095	0.314	0.067
-553.412	-143.506	-0.165	-0.021
-552.398	-133.547	0.448	-0.073
-551.383	-140.063	-0.661	-0.091
-550.369	-200.000	0.002	0.185
-549.354	-72.030	-0.125	-0.061
-548.339	-161.523	0.451	-0.030
-547.325	-118.490	0.226	0.052
-546.310	119.085	-0.266	0.435
-545.296	-104.252	0.139	-0.042
-544.281	800.000	-0.052	0.205
-543.266	-200.000	-0.028	0.371
-542.252	800.000	-0.082	-0.412
-541.237	399.243	-0.176	-0.487
-540.223	-52.403	-0.264	-0.161
-539.208	207.954	0.110	-0.228
-538.193	-30.162	-0.376	-0.281
-537.179	-92.181	-0.207	0.076
-536.164	-27.955	-0.277	0.211
-535.150	-62.649	-0.147	-0.080
-534.135	-111.603	0.384	0.102
-533.121	-6.512	-0.291	-0.261
-532.106	-200.000	-0.003	-0.141
-531.091	172.030	0.314	-0.595
-530.077	32.412	-0.140	-0.159
-529.062	-108.148	0.158	0.045
-528.048	91.293	0.204	0.303
-527.033	152.670	0.178	0.321
-526.018	-19.105	0.355	0.290
-525.004	-123.249	0.473	-0.099
-523.989	-37.201	0.088	-0.062
-522.975	-133.678	0.443	0.072
-521.960	-129.495	-0.193	-0.035
-520.945	30.268	0.035	0.040
-519.931	605.208	0.034	0.112
-518.916	800.000	0.075	0.366
-517.902	-184.719	-0.567	-0.012
-516.887	-123.476	-0.045	0.009
-515.872	-200.000	-0.001	0.259
-514.858	-200.000	0.022	-0.271
-513.843	70.284	0.209	-0.284
-512.829	-84.698	0.394	0.162
-511.814	232.405	0.358	-0.777
-510.799	67.118	-0.083	-0.112
-509.785	-53.007	0.447	0.270
-508.770	489.222	-0.162	-0.488
-507.756	-124.233	-0.634	0.129
-506.741	40.571	0.084	0.100
-505.726	-121.453	0.262	-0.057
-504.712	-196.626	-0.188	-0.002
-503.697	8.337	0.092	0.091
-502.683	-200.000	0.029	0.353
-501.668	-200.000	0.009	-0.167
-500.653	34.096	0.061	-0.070
-499.639	8.309	0.223	0.220
-498.624	123.744	-0.206	0.340
-497.610	178.491	-0.115	0.221
-496.595	-83.307	-0.318	0.133
-495.581	92.533	0.302	0.448
-494.566	-111.124	0.298	0.080
-493.551	33.250	-0.243	-0.277
-492.537	-27.827	0.215	0.164
-491.522	800.000	0.189	0.694
-490.508	-1.402	-0.407	0.377
-489.493	400.154	0.176	-0.487
-488.478	-200.000	-0.086	-0.507
-487.464	-135.842	0.269	-0.041
-486.449	-0.610	-0.127	-0.118
-485.435	439.342	-0.165	0.475
-484.420	93.641	-0.159	-0.237
-483.405	142.117	0.224	0.392
-482.391	-79.298	0.011	-0.005
-481.376	-8.416	0.206	-0.182
-480.362	-126.481	-0.479	0.093
-479.347	-53.883	-0.239	-0.143
-478.332	-92.112	0.481	0.178
-477.318	-30.080	-0.089	-0.066
-476.303	14.633	0.205	-0.210
-475.289	21.495	-0.218	0.233
-474.274	-200.000	0.032	0.297
-473.259	800.000	0.033	0.142
-472.245	120.131	0.218	-0.357
-471.230	234.425	0.178	-0.387
-470.216	-200.000	-0.016	-0.396
-469.201	-200.000	0.017	0.191
-468.186	800.000	-0.047	0.237
-467.172	-103.285	-0.274	0.084
-466.157	-104.451	-0.500	0.151
-465.143	-82.812	-0.365	0.154
-464.128	64.295	-0.246	0.325
-463.113	120.434	0.073	-0.120
-462.099	40.382	0.249	-0.294
-461.084	-48.714	0.162	-0.102
-460.070	334.941	-0.083	-0.212
-459.055	6.453	-0.157	-0.153
-458.040	13.257	-0.220	-0.223
-457.026	800.000	-0.093	0.461
-456.011	800.000	-0.065	-0.241
-454.997	-200.000	-0.043	0.311
-453.982	70.788	-0.229	-0.311
-452.968	-108.153	-0.272	0.077
-451.953	590.774	-0.122	-0.396
-450.938	-112.522	0.224	0.058
-449.924	167.808	0.041	0.076
-448.909	450.960	-0.019	-0.055
-447.895	-200.000	-0.050	-0.592
-446.880	-11.421	0.205	0.177
-445.865	23.144	0.216	-0.233
-444.851	-73.310	0.154	-0.074
-443.836	256.297	0.097	0.219
-442.822	-200.000	0.024	-0.232
-441.807	-58.342	-0.063	0.036
-440.792	-50.582	-0.668	-0.412
-439.778	-91.908	0.568	0.210
-438.763	-149.044	0.171	-0.018
-437.749	-56.487	0.280	-0.162
-436.734	-81.915	-0.269	0.115
-435.719	460.665	-0.040	0.118
-434.705	-200.000	0.010	-0.113
-433.690	-74.891	-0.226	0.106
-432.676	-200.000	0.028	0.170
-431.661	-32.772	0.344	0.250
-430.646	-30.338	0.158	0.117
-429.632	-60.144	0.367	0.205
-428.617	361.194	0.017	-0.045
-427.603	-160.533	-0.259	-0.018
-426.588	236.631	-0.092	0.199
-425.573	647.006	-0.039	0.132
-424.559	-120.407	-0.350	0.077
-423.544	111.909	0.246	0.390
-422.530	-88.447	0.236	0.092
-421.515	-31.260	-0.344	0.253
-420.500	-79.433	-0.392	-0.173
-419.486	-7.486	0.089	0.079
-418.471	-166.076	0.150	0.008
-417.457	-29.820	0.121	-0.090
-416.442	161.658	0.289	-0.531
-415.428	-84.619	0.249	-0.102
-414.413	-200.000	0.079	0.655
-413.398	212.648	0.066	-0.137
-412.384	57.159	0.119	-0.152
-411.369	-200.000	-0.029	0.202
-410.355	-110.923	0.354	0.095
-409.340	-200.000	-0.040	-0.249
-408.325	42.990	0.234	-0.279
-407.311	-74.371	0.331	-0.156
-406.296	221.059	-0.132	-0.278
-405.282	117.256	-0.081	-0.130
-404.267	-44.690	-0.092	0.060
-403.252	37.826	-0.069	0.080
-402.238	159.308	-0.122	0.222
-401.223	-160.365	-0.317	-0.022
-400.209	65.709	0.262	-0.349
-399.194	-85.558	-0.111	0.045
-398.179	-200.000	0.106	-0.671
-397.165	-61.781	0.325	-0.178
-396.150	65.273	0.227	-0.301
-395.136	-12.030	-0.406	0.348
-394.121	128.155	-0.110	-0.183
-393.106	337.703	0.106	-0.271
-392.092	-83.412	-0.451	-0.188
-391.077	800.000	0.103	0.411
-390.063	-200.000	-0.010	0.404
-389.048	800.000	0.050	0.269
-388.033	2.219	0.246	-0.233
-387.019	3.742	-0.123	-0.118
-386.004	83.053	0.362	0.517
-384.990	-166.425	0.502	-0.027
-383.975	-191.930	0.382	0.005
-382.960	-125.490	-0.454	-0.090
-381.946	-200.000	0.008	0.311
-380.931	237.330	0.046	0.099
-379.917	-200.000	0.002	-0.035
-378.902	15.741	-0.076	-0.078
-377.888	315.564	-0.163	0.404
-376.873	-97.055	-0.186	0.063
-375.858	-151.349	-0.337	-0.032
-374.844	32.464	-0.245	0.277
-373.829	800.000	0.134	-0.530
-372.815	-200.000	-0.044	0.381
-371.800	27.300	-0.184	-0.202
-370.785	-138.658	-0.393	0.056
-369.771	-200.000	0.010	0.098
-368.756	-125.635	0.237	-0.047
-367.742	-84.752	-0.232	-0.095
-366.727	800.000	0.054	-0.299
-365.712	-78.851	0.473	0.210
-364.698	-126.537	-0.411	-0.079
-363.683	-85.762	0.497	-0.201
-362.669	195.108	-0.099	0.198
-361.654	-200.000	-0.019	0.261
-360.639	70.863	0.143	0.194
-359.625	-91.322	-0.088	0.033
-358.610	-60.035	-0.386	0.215
-357.596	-200.000	-0.039	0.267
-356.581	-9.230	0.306	0.267
-355.566	231.453	-0.133	0.285
-354.552	34.729	-0.201	0.229
-353.537	-200.000	0.011	-0.229
-352.523	800.000	0.103	-0.423
-351.508	-200.000	0.021	-0.455
-350.493	410.817	0.176	-0.490
-349.479	800.000	0.073	0.406
-348.464	-136.414	-0.133	-0.020
-347.450	0.400	-0.236	0.220
-346.435	-115.112	0.055	-0.013
-345.420	-60.821	-0.174	-0.096
-344.406	-200.000	-0.004	0.259
-343.391	83.343	-0.071	-0.101
-342.377	-32.659	0.311	0.226
-341.362	-122.917	-0.256	-0.053
-340.348	-158.825	-0.337	-0.025
-339.333	-69.122	0.307	-0.154
-338.318	150.308	-0.181	0.321
-337.304	41.609	-0.179	0.211
-336.289	-132.218	-0.655	0.110
-335.275	800.000	-0.060	-0.304
-334.260	115.952	0.043	-0.068
-333.245	800.000	0.088	-0.465
-332.231	-57.914	-0.302	0.172
-331.216	-121.606	-0.441	-0.095
-330.202	800.000	0.057	0.287
-329.187	189.514	0.046	-0.091
-328.172	377.075	-0.043	-0.114
-327.158	14.051	0.125	-0.127
-326.143	453.564	-0.019	-0.054
-325.129	137.726	-0.174	0.298
-324.114	492.343	-0.139	0.417
-323.099	141.545	0.135	0.234
-322.085	-76.933	-0.316	0.144
-321.070	-33.678	-0.136	0.097
-320.056	-71.489	-0.436	-0.212
-319.041	-60.874	-0.208	-0.115
-318.026	-115.274	-0.055	0.013
-317.012	273.409	-0.118	-0.274
-315.997	334.359	-0.046	-0.116
-314.983	226.693	-0.264	0.561
-313.968	-60.506	0.604	-0.334
-312.953	-57.217	0.095	0.055
-311.939	59.452	0.263	0.339
-310.924	-110.840	-0.340	0.091
-309.910	-149.183	0.281	0.029
-308.895	800.000	0.121	0.500
-307.880	-71.578	-0.511	0.248
-306.866	-118.335	0.363	-0.083
-305.851	-110.495	-0.316	0.085
-304.837	382.682	-0.044	-0.118
-303.822	-200.000	0.013	-0.401
-302.807	800.000	0.100	0.490
-301.793	800.000	0.042	-0.203
-300.778	-15.081	0.747	-0.623
-299.764	-74.506	0.139	-0.065
-298.749	-103.159	-0.220	-0.067
-297.735	800.000	0.036	-0.143
-296.720	-200.000	-0.053	0.375
-295.705	-109.888	0.221	0.060
-294.691	-102.896	0.219	-0.067
-293.676	-200.000	-0.001	-0.066
-292.662	164.483	-0.160	0.295
-291.647	-17.203	0.189	-0.155
-290.632	-200.000	0.042	-0.302
-289.618	190.376	-0.140	0.274
-288.603	31.792	-0.143	0.160
-287.589	-10.761	0.278	0.239
-286.574	-147.137	-0.183	-0.020
-285.559	800.000	-0.208	-0.760
-284.545	350.470	0.061	-0.158
-283.530	-166.729	-0.405	-0.022
-282.516	-105.162	0.621	-0.184
-281.501	339.705	0.150	-0.383
-280.486	794.263	-0.032	-0.114
-279.472	-87.731	0.232	0.091
-278.457	101.591	0.203	-0.309
-277.443	-145.814	0.432	0.050
-276.428	-66.835	-0.687	0.353
-275.413	415.594	-0.106	0.297
-274.399	121.592	-0.233	0.380
-273.384	-120.920	-0.159	0.035
-272.370	800.000	-0.064	0.297
-271.355	-30.683	0.347	0.255
-270.340	42.706	0.211	-0.251
-269.326	-161.303	0.098	-0.007
-268.311	-56.663	0.221	0.127
-267.297	-107.739	0.281	0.079
-266.282	-200.000	-0.032	0.369
-265.267	66.497	0.290	-0.384
-264.253	-191.879	0.594	0.007
-263.238	-99.221	-0.124	0.041
-262.224	-52.260	-0.345	-0.208
-261.209	27.154	-0.019	0.021
-260.195	800.000	0.052	-0.191
-259.180	339.141	-0.187	-0.476
-258.165	295.121	0.126	-0.302
-257.151	47.572	-0.167	0.203
-256.136	-200.000	-0.014	-0.354
-255.122	800.000	0.092	-0.350
-254.107	413.829	-0.090	0.250
-253.092	-67.877	-0.478	-0.242
-252.078	28.737	-0.098	0.109
-251.063	-87.672	-0.138	-0.054
-250.049	-153.821	-0.185	0.016
-249.034	800.000	0.077	0.403
-248.019	38.383	0.184	-0.214
-247.005	149.940	-0.206	-0.365
-245.990	-18.363	-0.621	-0.505
-244.976	-163.805	-0.328	-0.020
-243.961	379.401	-0.074	0.199
-242.946	94.946	0.107	-0.159
-241.932	-85.300	0.071	-0.029
-240.917	-150.179	-0.186	-0.019
-239.903	-139.845	-0.281	0.038
-238.888	-114.218	0.375	0.094
-237.873	-57.551	0.413	-0.235
-236.859	183.533	0.129	-0.249
-235.844	-200.000	-0.012	-0.314
-234.830	-134.301	-0.080	0.013
-233.815	35.618	0.236	0.270
-232.800	-121.531	0.349	0.075
-231.786	33.046	-0.180	0.203
-230.771	38.824	-0.102	0.119
-229.757	-123.555	0.446	-0.091
-228.742	115.770	0.136	0.217
-227.727	634.709	0.097	0.322
-226.713	-7.752	0.131	0.115
-225.698	211.329	0.070	0.144
-224.684	-88.680	0.211	0.081
-223.669	118.353	0.262	0.422
-222.655	-123.373	-0.366	0.075
-221.640	800.000	0.037	-0.174
-220.625	800.000	0.080	-0.373
-219.611	-102.513	-0.453	0.140
-218.596	179.935	0.257	-0.491
-217.582	286.212	0.141	0.333
-216.567	-102.171	0.314	0.098
-215.552	-87.720	-0.285	-0.111
-214.538	-154.903	0.424	0.036
-213.523	-37.156	0.298	0.207
-212.509	192.886	-0.132	0.260
-211.494	-200.000	-0.029	0.239
-210.479	279.034	0.141	0.329
-209.465	107.932	-0.106	-0.165
-208.450	-55.465	-0.117	-0.068
-207.436	-26.309	0.486	-0.370
-206.421	47.508	-0.332	-0.403
-205.406	127.874	-0.126	0.208
-204.392	-15.285	0.388	0.322
-203.377	19.153	-0.250	-0.260
-202.363	79.021	0.149	-0.208
-201.348	-156.024	-0.067	-0.005
-200.333	41.454	0.150	-0.177
-199.319	-68.037	-0.164	0.083
-198.304	-128.468	-0.389	-0.071
-197.290	-200.000	-0.067	-0.445
-196.275	15.822	-0.361	-0.369
-195.260	-74.652	0.573	-0.267
-194.246	-128.265	-0.214	-0.039
-193.231	-71.643	-0.313	-0.151
-192.217	41.235	-0.166	0.195
-191.202	-200.000	0.039	0.532
-190.187	-131.114	0.683	0.117
-189.173	-22.090	0.189	-0.149
-188.158	-200.000	-0.016	-0.324
-187.144	-200.000	0.014	-0.336
-186.129	-200.000	-0.049	0.332
-185.114	-88.423	0.119	-0.046
-184.100	-117.679	-0.576	-0.134
-183.085	-87.792	-0.074	-0.029
-182.071	-46.049	0.256	0.163
-181.056	-58.341	-0.337	-0.190
-180.042	369.656	0.157	0.415
-179.027	112.058	0.254	-0.400
-178.012	64.883	-0.117	0.153
-176.998	-175.235	-0.234	-0.008
-175.983	335.690	-0.082	0.208
-174.969	-36.362	-0.349	0.244
-173.954	-4.470	-0.195	-0.175
-172.939	-163.451	0.496	-0.030
-171.925	-200.000	-0.019	0.480
-170.910	-92.002	-0.772	0.282
-169.896	28.846	-0.325	-0.358
-168.881	-93.859	0.458	0.163
-167.866	-100.876	-0.111	0.035
-166.852	-3.158	-0.169	-0.153
-165.837	-200.000	0.055	-0.363
-164.823	-66.828	-0.156	0.080
-163.808	-18.437	-0.253	-0.204
-162.793	-200.000	0.059	-0.369
-161.779	73.822	0.280	-0.381
-160.764	136.347	0.230	-0.391
-159.750	-121.857	-0.526	0.112
-158.735	15.002	-0.217	0.221
-157.720	800.000	0.083	-0.364
-156.706	-86.750	-0.196	-0.077
-155.691	-43.785	0.173	0.112
-154.677	-200.000	0.002	-0.131
-153.662	44.990	-0.306	-0.366
-152.647	310.393	-0.055	0.135
-151.633	-115.657	0.347	0.084
-150.618	-76.291	0.080	0.036
-149.604	-90.637	-0.356	0.133
-148.589	-16.890	-0.093	-0.076
-147.574	-197.040	-0.681	-0.006
-146.560	215.117	-0.099	0.204
-145.545	-56.157	-0.213	-0.123
-144.531	800.000	0.023	-0.094
-143.516	86.590	0.135	-0.193
-142.502	-26.008	0.131	-0.100
-141.487	-9.764	-0.305	0.263
-140.472	-25.758	0.189	-0.144
-139.458	353.796	-0.089	0.230
-138.443	696.557	0.050	-0.170
-137.429	-55.743	0.481	-0.278
-136.414	-5.041	0.204	-0.182
-135.399	-93.179	0.245	0.088
-134.385	-113.666	-0.279	0.070
-133.370	47.271	-0.179	-0.217
-132.356	375.053	0.042	0.111
-131.341	251.636	-0.099	0.220
-130.326	-93.834	-0.170	0.060
-129.312	-170.981	0.416	-0.018
-128.297	-140.461	0.326	-0.043
-127.283	-133.025	0.079	-0.013
-126.268	-122.711	0.153	0.032
-125.253	-20.169	-0.181	-0.144
-124.239	122.267	-0.122	0.198
-123.224	-200.000	0.018	-0.591
-122.210	800.000	0.039	-0.173
-121.195	101.926	0.300	-0.455
