DTS Sentinel unit serial number:	SN409020Multiplexer serial number:	ORYXHardware model number:	OX4-SRSoftware version number:	ORYX F/W v3.00 Oryx Data Collector v3.7.2.0data status	okinstallation	HaddamTimeLapsedifferential loss correction	single-endedforward channel	channel 3reverse channel	N/Adate	2011/06/21time	19:31:17forward acquisition time	30.00reverse acquisition time	0.00gamma	498.7831k internal	0.1796k external	0.1796temperature offset calibration	1.0074default loss term (dB/km)	0.3790temperature slope calibration	1.3530multiplexer offset coefficient	1.0000multiplexer slope coefficient	1.0000fibre end	0.00T internal ref (°C)	33.81T ext. ref 1 (°C)	25.93T ext. ref 2 (°C)	0.25length (m)	temperature (°C)	Stokes	anti-Stokes-747.200	4.177	-0.284	0.269
-746.185	-136.649	-0.242	0.036
-745.171	-200.000	-0.029	-0.311
-744.156	-116.673	0.541	-0.128
-743.142	-56.443	-0.192	0.110
-742.127	-200.000	0.035	0.491
-741.112	101.184	-0.116	-0.176
-740.098	307.726	0.254	0.616
-739.083	15.558	-0.387	0.393
-738.069	-22.734	-0.323	-0.252
-737.054	-48.581	-0.200	-0.124
-736.039	-58.358	-0.437	0.245
-735.025	-200.000	0.038	0.264
-734.010	487.587	-0.037	-0.110
-732.996	-176.822	-0.095	0.003
-731.981	22.662	0.160	-0.169
-730.966	66.410	-0.305	-0.402
-729.952	224.914	0.174	-0.366
-728.937	133.209	-0.153	0.256
-727.923	-200.000	0.025	-0.396
-726.908	-73.163	-0.697	0.329
-725.894	-25.331	-0.139	-0.107
-724.879	-79.760	0.324	-0.141
-723.864	-32.149	0.339	-0.245
-722.850	-102.097	0.432	0.134
-721.835	-200.000	-0.010	-0.326
-720.821	193.170	-0.280	-0.550
-719.806	-35.237	0.080	0.056
-718.791	-42.337	-0.184	-0.121
-717.777	-132.156	0.388	0.064
-716.762	-59.064	-0.213	-0.119
-715.748	-200.000	0.006	-0.449
-714.733	-135.832	-0.297	0.045
-713.718	800.000	-0.037	0.160
-712.704	-94.021	0.278	0.098
-711.689	137.377	-0.113	0.192
-710.675	-40.788	-0.096	0.064
-709.660	-58.994	-0.133	0.074
-708.645	-199.490	-0.516	0.003
-707.631	-200.000	-0.039	-0.420
-706.616	-49.168	-0.233	-0.144
-705.602	-66.833	0.302	-0.154
-704.587	522.291	-0.133	-0.406
-703.572	360.945	-0.117	-0.303
-702.558	-93.304	-0.113	0.040
-701.543	152.810	0.196	0.347
-700.529	-58.102	0.249	0.140
-699.514	-120.498	0.129	-0.028
-698.499	-81.179	0.211	-0.090
-697.485	-31.499	0.391	0.284
-696.470	-89.730	0.348	-0.131
-695.456	-50.001	-0.364	-0.222
-694.441	97.196	0.283	-0.420
-693.426	-10.557	-0.172	-0.147
-692.412	-200.000	0.038	-0.360
-691.397	696.385	-0.043	-0.147
-690.383	-200.000	-0.037	0.225
-689.368	-200.000	0.055	0.409
-688.354	-200.000	-0.209	-0.001
-687.339	-200.000	-0.323	-0.001
-686.324	-200.000	0.015	0.221
-685.310	-200.000	-0.035	0.579
-684.295	320.246	-0.136	0.336
-683.281	800.000	-0.088	-0.388
-682.266	-159.976	0.458	0.032
-681.251	104.336	0.081	-0.124
-680.237	296.288	0.029	0.068
-679.222	-16.899	0.061	-0.050
-678.208	626.040	0.118	-0.386
-677.193	-21.423	0.345	0.272
-676.178	-67.282	-0.269	0.136
-675.164	-141.052	0.214	-0.028
-674.149	184.787	0.125	-0.240
-673.135	-176.103	0.253	0.008
-672.120	154.458	0.086	0.153
-671.105	-154.599	0.429	0.036
-670.091	-200.000	-0.053	-0.335
-669.076	-41.468	-0.116	0.077
-668.062	-177.776	-0.035	-0.001
-667.047	220.222	0.110	-0.229
-666.032	-119.104	0.284	-0.064
-665.018	-200.000	0.028	0.238
-664.003	-145.506	0.198	0.023
-662.989	116.744	0.212	-0.336
-661.974	43.645	-0.324	0.383
-660.959	-90.771	-0.192	-0.071
-659.945	184.114	-0.094	0.180
-658.930	-132.023	0.198	0.033
-657.916	17.135	0.453	-0.463
-656.901	330.935	-0.201	-0.503
-655.886	45.445	-0.261	-0.312
-654.872	-165.918	-0.204	0.011
-653.857	382.386	0.110	-0.292
-652.843	21.620	0.289	-0.303
-651.828	122.422	-0.074	-0.119
-650.814	-75.467	-0.124	0.057
-649.799	496.000	0.011	0.033
-648.784	800.000	0.056	-0.300
-647.770	-133.834	0.350	-0.056
-646.755	-96.155	0.300	-0.102
-645.741	-200.000	-0.009	0.128
-644.726	-54.680	0.572	-0.332
-643.711	-156.882	0.387	0.030
-642.697	-8.909	0.075	0.065
-641.682	291.766	0.034	0.081
-640.668	38.419	-0.062	-0.071
-639.653	-161.813	0.266	0.017
-638.638	12.099	-0.091	-0.090
-637.624	-85.832	-0.131	-0.052
-636.609	-52.554	0.364	0.216
-635.595	-189.872	-0.398	-0.006
-634.580	475.401	0.045	-0.131
-633.565	800.000	-0.046	-0.231
-632.551	-200.000	-0.011	-0.142
-631.536	-14.838	-0.192	-0.159
-630.522	-29.252	-0.150	0.111
-629.507	18.328	0.545	-0.560
-628.492	-200.000	-0.021	0.366
-627.478	25.276	0.252	-0.270
-626.463	457.405	0.147	-0.424
-625.449	3.724	0.180	-0.170
-624.434	-200.000	0.065	-0.000
-623.419	110.097	0.096	-0.148
-622.405	590.374	-0.081	-0.260
-621.390	-172.397	0.206	-0.008
-620.376	-97.373	0.260	-0.087
-619.361	88.436	0.207	-0.297
-618.346	-200.000	0.048	0.430
-617.332	118.190	0.258	0.411
-616.317	-200.000	0.004	-0.468
-615.303	13.634	-0.300	-0.301
-614.288	263.075	-0.085	0.191
-613.273	98.378	-0.162	-0.241
-612.259	-120.776	0.539	0.116
-611.244	112.327	0.289	0.451
-610.230	196.926	0.063	0.124
-609.215	-41.189	-0.585	-0.388
-608.201	-4.027	-0.241	0.215
-607.186	-158.300	0.061	0.005
-606.171	-200.000	0.025	-0.599
-605.157	23.937	0.270	0.287
-604.142	800.000	-0.049	-0.193
-603.128	-200.000	-0.003	-0.164
-602.113	51.102	-0.162	-0.198
-601.098	0.648	0.202	-0.186
-600.084	119.994	-0.226	0.362
-599.069	800.000	-0.077	-0.362
-598.055	-136.081	0.150	0.022
-597.040	-162.665	0.083	0.005
-596.025	-84.544	-0.692	-0.280
-595.011	136.531	-0.096	0.161
-593.996	-200.000	0.034	0.362
-592.982	-200.000	0.001	-0.335
-591.967	110.753	-0.113	-0.175
-590.952	127.117	-0.140	0.229
-589.938	800.000	0.036	-0.184
-588.923	-2.693	0.434	-0.390
-587.909	-179.608	-0.118	-0.003
-586.894	-6.131	0.064	0.056
-585.879	-11.762	-0.125	0.106
-584.865	-200.000	-0.015	-0.093
-583.850	-200.000	0.030	0.363
-582.836	-200.000	0.013	0.100
-581.821	-52.916	-0.113	-0.067
-580.806	-3.990	0.202	0.180
-579.792	-87.351	0.170	-0.066
-578.777	-39.834	0.167	-0.112
-577.763	-104.381	0.313	-0.093
-576.748	-34.455	-0.224	0.158
-575.733	4.559	0.173	0.164
-574.719	51.995	0.168	0.206
-573.704	-61.924	-0.208	-0.112
-572.690	-154.261	0.234	0.020
-571.675	800.000	0.066	0.286
-570.661	-91.226	0.356	0.131
-569.646	590.066	0.120	-0.383
-568.631	-184.148	-0.460	-0.010
-567.617	646.036	0.040	-0.131
-566.602	-54.361	0.189	-0.110
-565.588	-153.267	0.503	-0.045
-564.573	-28.091	0.210	-0.156
-563.558	-33.833	0.195	0.138
-562.544	14.635	-0.133	-0.134
-561.529	-175.475	-0.303	0.010
-560.515	-110.067	-0.340	-0.091
-559.500	-200.000	-0.032	0.366
-558.485	411.278	-0.023	-0.064
-557.471	96.836	-0.112	-0.165
-556.456	800.000	-0.030	0.166
-555.442	-94.145	0.398	-0.139
-554.427	-97.415	-0.224	0.075
-553.412	-35.857	-0.650	-0.452
-552.398	36.527	-0.107	-0.121
-551.383	800.000	-0.052	-0.294
-550.369	29.859	-0.027	-0.029
-549.354	-112.373	0.310	0.079
-548.339	124.060	-0.205	0.331
-547.325	0.540	-0.362	-0.332
-546.310	800.000	0.115	0.608
-545.296	-65.782	0.036	-0.018
-544.281	81.999	0.228	0.317
-543.266	800.000	-0.052	0.210
-542.252	219.910	-0.034	-0.070
-541.237	109.685	-0.056	0.087
-540.223	-8.458	-0.293	0.253
-539.208	-160.557	-0.464	-0.031
-538.193	-35.228	0.138	0.096
-537.179	-200.000	-0.025	-0.557
-536.164	800.000	-0.052	-0.200
-535.150	-104.118	0.566	0.168
-534.135	-70.107	0.068	-0.033
-533.121	-98.644	-0.278	0.090
-532.106	-80.290	0.529	-0.226
-531.091	-6.442	-0.253	-0.221
-530.077	19.432	0.049	-0.051
-529.062	-200.000	-0.012	0.500
-528.048	-12.666	0.077	-0.064
-527.033	-46.346	0.370	-0.233
-526.018	-79.795	-0.138	-0.059
-525.004	-200.000	0.015	-0.247
-523.989	65.452	-0.533	-0.693
-522.975	23.700	-0.267	-0.282
-521.960	-200.000	0.004	-0.542
-520.945	-117.679	-0.326	-0.075
-519.931	-200.000	-0.023	-0.151
-518.916	231.129	-0.110	-0.232
-517.902	240.294	-0.249	0.534
-516.887	-108.691	-0.096	-0.026
-515.872	208.503	-0.064	0.130
-514.858	-113.547	0.164	-0.041
-513.843	-100.110	0.064	0.020
-512.829	151.023	0.173	0.303
-511.814	-91.743	0.382	-0.139
-510.799	-16.067	0.584	0.476
-509.785	-141.881	0.271	-0.034
-508.770	-113.687	-0.304	-0.076
-507.756	800.000	0.091	-0.395
-506.741	10.146	0.128	0.125
-505.726	290.541	-0.110	0.256
-504.712	800.000	0.109	-0.548
-503.697	255.965	0.315	0.697
-502.683	187.423	0.086	-0.165
-501.668	-200.000	0.018	0.110
-500.653	-118.608	0.295	0.066
-499.639	95.231	0.183	-0.268
-498.624	800.000	-0.089	-0.343
-497.610	-77.699	-0.360	-0.159
-496.595	90.101	0.206	0.296
-495.581	-58.771	0.379	0.210
-494.566	238.063	-0.045	0.096
-493.551	255.178	-0.157	-0.346
-492.537	-9.741	0.147	0.126
-491.522	-200.000	0.039	-0.222
-490.508	-94.500	-0.289	0.101
-489.493	141.275	-0.083	0.141
-488.478	-14.000	0.237	-0.196
-487.464	-50.967	-0.343	-0.206
-486.449	-13.088	0.221	0.184
-485.435	-47.220	-0.214	-0.133
-484.420	-118.458	-0.462	-0.104
-483.405	-200.000	0.001	0.138
-482.391	-89.819	0.183	0.068
-481.376	-184.143	0.328	0.007
-480.362	63.028	0.047	0.060
-479.347	-7.775	-0.710	0.614
-478.332	-124.482	0.174	0.034
-477.318	-159.285	0.319	-0.023
-476.303	-56.285	-0.151	-0.086
-475.289	-37.880	0.440	0.299
-474.274	84.466	-0.050	0.071
-473.259	-17.769	-0.262	-0.210
-472.245	-97.905	0.349	-0.115
-471.230	8.006	0.194	0.186
-470.216	39.972	0.134	-0.154
-469.201	-162.485	-0.149	0.009
-468.186	432.421	-0.092	0.257
-467.172	800.000	-0.092	-0.338
-466.157	-21.981	-0.391	-0.304
-465.143	157.074	-0.178	-0.316
-464.128	4.128	-0.244	0.229
-463.113	-174.228	0.205	0.007
-462.099	-114.820	-0.245	0.059
-461.084	-76.743	0.270	-0.120
-460.070	-175.462	0.205	-0.007
-459.055	306.159	0.060	-0.144
-458.040	-83.917	-0.231	-0.094
-457.026	2.148	0.042	0.039
-456.011	-200.000	0.036	-0.430
-454.997	685.191	0.158	-0.531
-453.982	-91.532	0.475	0.173
-452.968	7.476	0.218	0.209
-451.953	14.591	-0.333	0.332
-450.938	467.624	0.088	0.254
-449.924	28.739	0.369	0.400
-448.909	-172.287	0.100	-0.004
-447.895	309.296	0.059	0.141
-446.880	86.512	0.247	0.349
-445.865	139.335	0.053	-0.089
-444.851	-45.931	0.541	0.341
-443.836	204.423	0.263	0.523
-442.822	165.827	-0.208	0.377
-441.807	800.000	-0.049	0.187
-440.792	-166.753	-0.033	0.002
-439.778	-17.562	0.183	-0.147
-438.763	-10.329	-0.154	-0.131
-437.749	-200.000	0.048	0.739
-436.734	395.777	0.086	-0.230
-435.719	800.000	-0.067	0.367
-434.705	-153.261	-0.341	0.030
-433.690	-200.000	-0.046	-0.398
-432.676	-200.000	-0.008	-0.194
-431.661	-178.411	-0.019	0.001
-430.646	-65.171	-0.490	-0.252
-429.632	-94.458	-0.355	-0.123
-428.617	-200.000	-0.005	-0.222
-427.603	-200.000	-0.032	0.496
-426.588	245.572	-0.131	0.284
-425.573	-145.136	-0.524	-0.060
-424.559	-144.593	-0.289	0.034
-423.544	10.771	-0.153	0.149
-422.530	800.000	-0.101	0.518
-421.515	87.926	0.302	0.428
-420.500	13.357	0.335	0.332
-419.486	183.501	-0.224	0.424
-418.471	-200.000	-0.015	-0.340
-417.457	113.113	0.096	0.149
-416.442	800.000	0.044	-0.196
-415.428	205.954	-0.093	0.186
-414.413	-10.779	-0.177	-0.149
-413.398	-81.670	0.079	0.033
-412.384	-70.100	-0.111	0.054
-411.369	-184.021	0.348	0.007
-410.355	-54.141	-0.325	-0.188
-409.340	-87.327	-0.503	-0.194
-408.325	-105.022	-0.340	0.099
-407.311	-79.795	-0.161	-0.069
-406.296	153.449	0.179	0.313
-405.282	40.142	-0.155	0.178
-404.267	-74.709	0.346	-0.158
-403.252	-200.000	-0.017	0.153
-402.238	-134.666	0.239	-0.037
-401.223	-3.460	-0.097	0.086
-400.209	-162.761	-0.379	0.023
-399.194	-174.824	-0.258	0.009
-398.179	-2.194	0.216	0.193
-397.165	-164.695	0.428	-0.024
-396.150	112.307	0.043	0.067
-395.136	-103.613	0.328	0.098
-394.121	196.389	-0.067	-0.130
-393.106	242.104	-0.082	0.177
-392.092	-47.076	0.359	0.223
-391.077	-136.382	0.561	-0.083
-390.063	471.946	0.078	-0.226
-389.048	-42.690	-0.190	0.123
-388.033	-0.734	-0.175	0.158
-387.019	800.000	-0.069	0.292
-386.004	-108.224	0.275	-0.076
-384.990	129.135	0.102	0.167
-383.975	-73.643	-0.510	0.236
-382.960	-200.000	0.033	0.446
-381.946	-200.000	-0.017	0.389
-380.931	507.521	-0.166	-0.494
-379.917	-39.924	-0.412	0.274
-378.902	-118.120	-0.231	0.052
-377.888	-140.279	0.531	-0.070
-376.873	65.182	0.303	-0.392
-375.858	-200.000	-0.012	0.239
-374.844	-8.590	0.209	-0.179
-373.829	516.112	-0.163	0.487
-372.815	800.000	-0.111	0.451
-371.800	574.029	-0.057	-0.179
-370.785	113.005	0.155	0.241
-369.771	84.246	-0.273	0.382
-368.756	-149.975	0.318	-0.031
-367.742	242.143	-0.177	0.378
-366.727	-200.000	0.061	-0.389
-365.712	-161.638	0.137	-0.009
-364.698	-156.774	0.302	0.023
-363.683	-200.000	-0.071	-0.583
-362.669	-84.622	0.210	-0.084
-361.654	139.769	-0.046	0.078
-360.639	63.244	0.242	0.309
-359.625	800.000	0.037	0.146
-358.610	-200.000	0.009	0.574
-357.596	424.172	-0.110	0.304
-356.581	-200.000	0.002	-0.404
-355.566	-178.250	0.389	-0.011
-354.552	800.000	-0.037	-0.153
-353.537	-52.444	0.379	0.223
-352.523	236.388	-0.204	-0.431
-351.508	-6.703	0.159	-0.138
-350.493	800.000	-0.101	-0.473
-349.479	131.733	0.274	-0.451
-348.464	-200.000	-0.006	0.045
-347.450	170.488	0.143	0.262
-346.435	-34.750	0.278	-0.193
-345.420	-127.040	0.523	-0.097
-344.406	-124.747	-0.208	0.041
-343.391	141.902	-0.093	0.157
-342.377	-96.676	-0.486	0.162
-341.362	39.350	-0.429	0.490
-340.348	-200.000	0.064	-0.510
-339.333	-121.072	-0.237	0.050
-338.318	-200.000	0.006	0.043
-337.304	69.633	0.295	0.388
-336.289	582.137	-0.079	0.249
-335.275	-150.746	0.434	-0.042
-334.260	-41.148	0.305	-0.200
-333.245	520.905	0.023	-0.070
-332.231	-52.878	0.399	0.233
-331.216	1.597	0.169	0.155
-330.202	7.811	-0.222	0.212
-329.187	421.526	0.200	0.550
-328.172	-42.137	0.495	-0.321
-327.158	289.895	-0.199	-0.462
-326.143	-75.225	-0.198	-0.090
-325.129	-96.903	-0.480	-0.160
-324.114	-7.928	-0.652	-0.560
-323.099	-27.380	-0.435	-0.321
-322.085	-32.230	0.275	-0.195
-321.070	389.823	0.083	-0.219
-320.056	453.489	0.179	-0.507
-319.041	800.000	-0.060	-0.216
-318.026	-200.000	-0.027	0.237
-317.012	-200.000	0.088	-0.652
-315.997	-25.255	-0.132	0.099
-314.983	800.000	0.017	-0.064
-313.968	677.686	-0.047	-0.158
-312.953	188.331	0.211	0.404
-311.939	800.000	0.063	0.231
-310.924	-51.860	-0.304	-0.180
-309.910	417.877	0.193	0.528
-308.895	800.000	-0.022	0.117
-307.880	-120.984	-0.552	0.117
-306.866	374.059	0.088	-0.229
-305.851	133.700	0.218	0.359
-304.837	-115.455	-0.243	-0.058
-303.822	-200.000	-0.094	-0.532
-302.807	8.626	0.115	-0.111
-301.793	-200.000	0.027	-0.366
-300.778	83.022	0.413	-0.573
-299.764	3.549	-0.097	0.090
-298.749	30.447	0.307	-0.334
-297.735	-200.000	0.017	0.262
-296.720	306.664	0.152	0.362
-295.705	1.213	-0.217	-0.198
-294.691	223.683	0.021	-0.043
-293.676	-132.442	0.329	0.053
-292.662	28.616	0.265	-0.286
-291.647	800.000	0.035	0.150
-290.632	-46.399	-0.376	-0.234
-289.618	-104.672	-0.263	-0.077
-288.603	-74.700	-0.369	0.168
-287.589	-70.488	-0.190	-0.091
-286.574	-59.977	0.392	0.212
-285.559	17.920	0.124	-0.125
-284.545	23.441	-0.189	0.197
-283.530	125.598	-0.080	0.128
-282.516	-82.694	-0.161	-0.066
-281.501	38.832	0.106	0.120
-280.486	-200.000	-0.004	-0.323
-279.472	323.852	0.090	-0.220
-278.457	-159.799	0.219	0.015
-277.443	800.000	-0.066	-0.304
-276.428	-31.059	-0.126	-0.090
-275.413	-88.598	0.452	-0.170
-274.399	-63.569	0.821	-0.427
-273.384	329.460	-0.131	-0.321
-272.370	-5.612	-0.413	-0.359
-271.355	-5.877	0.364	0.317
-270.340	128.739	-0.176	-0.286
-269.326	166.687	0.234	-0.422
-268.311	-37.390	0.087	0.059
-267.297	-200.000	-0.017	-0.430
-266.282	225.016	-0.231	-0.476
-265.267	-130.763	0.236	-0.040
-264.253	-90.986	0.127	-0.046
-263.238	131.299	0.065	0.107
-262.224	322.689	0.053	-0.128
-261.209	-154.098	-0.191	-0.016
-260.195	800.000	-0.110	0.557
-259.180	-102.321	0.164	0.050
-258.165	93.726	-0.193	0.278
-257.151	-200.000	-0.048	0.282
-256.136	-10.038	0.315	0.266
-255.122	-0.926	-0.332	-0.299
-254.107	39.423	-0.142	-0.162
-253.092	-137.278	-0.324	0.046
-252.078	-200.000	0.021	-0.315
-251.063	297.253	-0.164	0.383
-250.049	153.648	-0.185	-0.324
-249.034	-200.000	-0.029	-0.374
-248.019	126.356	-0.106	-0.170
-247.005	-40.897	-0.307	0.201
-245.990	-10.225	-0.302	-0.254
-244.976	-149.134	-0.307	0.031
-243.961	-114.270	-0.296	0.072
-242.946	32.061	-0.264	0.289
-241.932	74.724	-0.261	0.349
-240.917	-103.219	0.207	-0.062
-239.903	198.743	0.211	0.412
-238.888	272.180	-0.038	-0.086
-237.873	368.695	0.120	-0.308
-236.859	17.148	0.376	-0.378
-235.844	-142.163	0.175	-0.022
-234.830	603.859	-0.102	-0.323
-233.815	-150.958	-0.451	-0.043
-232.800	-15.126	0.039	-0.031
-231.786	-133.087	0.439	-0.070
-230.771	37.083	0.139	0.156
-229.757	61.574	-0.049	-0.062
-228.742	-31.352	-0.168	-0.120
-227.727	-5.121	-0.464	0.404
-226.713	213.413	0.219	-0.440
-225.698	-74.023	0.721	-0.330
-224.684	-86.688	0.336	-0.130
-223.669	8.133	-0.284	-0.270
-222.655	-65.285	-0.352	-0.179
-221.640	377.548	-0.093	0.242
-220.625	-108.255	-0.364	0.099
-219.611	391.449	-0.182	0.483
-218.596	-158.720	-0.398	0.029
-217.582	-87.938	-0.388	0.147
-216.567	-17.088	-0.215	0.172
-215.552	-12.911	-0.300	0.247
-214.538	-139.219	-0.368	0.050
-213.523	532.806	0.103	-0.310
-212.509	800.000	0.064	-0.339
-211.494	-200.000	0.025	-0.336
-210.479	171.452	-0.204	-0.373
-209.465	-16.092	-0.506	0.407
-208.450	-200.000	0.042	-0.485
-207.436	-77.559	-0.111	-0.049
-206.421	-179.951	0.147	-0.004
-205.406	99.882	-0.261	-0.384
-204.392	-117.918	-0.509	0.115
-203.377	-121.519	-0.173	0.036
-202.363	122.755	-0.259	0.411
-201.348	123.690	0.096	-0.154
-200.333	21.301	0.197	0.203
-199.319	243.935	0.032	-0.069
-198.304	-32.228	0.250	-0.177
-197.290	800.000	-0.040	0.157
-196.275	555.826	0.191	-0.586
-195.260	800.000	0.028	-0.101
-194.246	800.000	0.100	0.520
-193.231	38.798	-0.145	0.164
-192.217	-141.873	0.185	-0.023
-191.202	-87.135	0.188	-0.072
-190.187	0.478	0.312	0.283
-189.173	83.854	-0.360	0.499
-188.158	41.028	-0.411	0.471
-187.144	-51.143	-0.179	0.106
-186.129	-146.312	0.372	-0.041
-185.114	14.984	0.067	0.066
-184.100	60.937	-0.100	0.126
-183.085	800.000	-0.088	0.340
-182.071	97.416	-0.084	0.122
-181.056	-197.699	-0.513	-0.004
-180.042	123.633	-0.040	-0.064
-179.027	16.386	0.208	0.208
-178.012	-81.780	-0.434	0.179
-176.998	-67.564	-0.110	-0.054
-175.983	39.694	-0.035	0.040
-174.969	-90.292	-0.242	-0.089
-173.954	-112.720	-0.479	0.120
-172.939	46.366	-0.456	0.535
-171.925	256.302	0.124	0.271
-170.910	800.000	0.133	0.641
-169.896	-128.224	-0.330	0.059
-168.881	30.958	-0.148	-0.160
-167.866	101.955	0.137	0.203
-166.852	-87.542	0.224	0.085
-165.837	224.292	0.081	-0.166
-164.823	-27.230	0.124	-0.091
-163.808	800.000	0.018	-0.087
-162.793	37.833	0.230	0.259
-161.779	-132.775	0.211	-0.034
-160.764	103.513	-0.132	0.196
-159.750	-35.782	-0.249	0.170
-158.735	21.157	-0.166	0.171
-157.720	-200.000	-0.024	0.391
-156.706	115.346	-0.124	0.192
-155.691	-200.000	-0.008	0.413
-154.677	-88.537	0.354	-0.133
-153.662	-200.000	-0.064	0.453
-152.647	61.183	0.209	-0.263
-151.633	-135.643	0.274	0.041
-150.618	-15.876	-0.247	-0.198
-149.604	-114.919	-0.345	-0.082
-148.589	-200.000	0.036	-0.359
-147.574	61.248	0.272	0.342
-146.560	32.491	-0.123	-0.134
-145.545	-200.000	-0.013	-0.102
-144.531	-182.054	-0.468	-0.011
-143.516	-62.025	0.508	-0.267
-142.502	-200.000	-0.008	0.279
-141.487	-87.830	0.205	-0.078
-140.472	30.086	0.101	-0.109
-139.458	56.161	-0.283	0.348
-138.443	-76.032	-0.012	0.005
-137.429	800.000	0.059	-0.240
-136.414	-54.386	0.121	0.069
-135.399	-200.000	0.019	0.190
-134.385	115.943	0.054	0.084
-133.370	-200.000	-0.027	0.164
-132.356	-109.506	0.288	-0.076
-131.341	-79.514	0.334	0.142
-130.326	800.000	-0.103	0.389
-129.312	-120.034	0.286	-0.062
-128.297	-126.996	0.632	0.116
-127.283	49.935	0.033	-0.039
-126.268	223.733	0.135	-0.276
-125.253	369.835	-0.095	-0.244
-124.239	-42.359	-0.495	0.318
-123.224	-18.225	-0.164	-0.129
-122.210	-106.673	0.130	0.036
-121.195	172.224	0.066	0.121
