DTS Sentinel unit serial number:	SN409020Multiplexer serial number:	ORYXHardware model number:	OX4-SRSoftware version number:	ORYX F/W v3.00 Oryx Data Collector v3.7.2.0data status	okinstallation	HaddamTimeLapsedifferential loss correction	single-endedforward channel	channel 3reverse channel	N/Adate	2011/06/22time	00:51:17forward acquisition time	30.00reverse acquisition time	0.00gamma	498.7831k internal	0.1751k external	0.1751temperature offset calibration	1.0074default loss term (dB/km)	0.3790temperature slope calibration	1.3530multiplexer offset coefficient	1.0000multiplexer slope coefficient	1.0000fibre end	0.00T internal ref (°C)	22.56T ext. ref 1 (°C)	17.95T ext. ref 2 (°C)	0.06length (m)	temperature (°C)	Stokes	anti-Stokes-747.200	-7.959	0.163	-0.146
-746.185	397.865	-0.162	0.453
-745.171	-39.240	-0.513	0.357
-744.156	-200.000	-0.103	0.676
-743.142	233.389	-0.075	-0.166
-742.127	-72.555	-0.240	0.117
-741.112	-59.032	-0.153	-0.087
-740.098	-154.350	0.623	0.055
-739.083	28.726	-0.342	-0.385
-738.069	-200.000	0.016	0.123
-737.054	-200.000	-0.030	0.796
-736.039	-191.817	-0.511	0.007
-735.025	-85.864	-0.226	0.092
-734.010	65.883	-0.114	0.154
-732.996	-23.172	0.243	0.194
-731.981	-106.441	-0.316	-0.093
-730.966	-153.311	0.153	0.014
-729.952	-40.948	0.645	0.442
-728.937	11.359	0.197	0.200
-727.923	-59.138	0.118	0.067
-726.908	-79.944	-0.392	-0.174
-725.894	115.228	0.083	-0.134
-724.879	49.059	-0.249	-0.311
-723.864	800.000	-0.111	0.428
-722.850	47.064	-0.081	-0.100
-721.835	-198.967	-0.058	-0.000
-720.821	-108.737	0.289	0.082
-719.806	-77.652	0.626	0.286
-718.791	320.151	-0.205	-0.519
-717.777	-49.001	0.481	0.305
-716.762	-9.113	0.321	-0.284
-715.748	41.751	-0.295	0.355
-714.733	-118.431	0.554	-0.129
-713.718	152.478	0.163	0.295
-712.704	136.519	0.110	-0.190
-711.689	-111.050	-0.136	-0.037
-710.675	280.648	0.043	-0.103
-709.660	-21.146	-0.167	-0.135
-708.645	379.029	-0.173	-0.473
-707.631	-149.981	-0.525	-0.054
-706.616	-63.729	0.165	0.090
-705.602	28.704	0.113	-0.127
-704.587	123.930	0.217	-0.361
-703.572	49.957	0.294	0.368
-702.558	-200.000	0.019	0.185
-701.543	-200.000	0.010	0.192
-700.529	164.004	0.156	-0.293
-699.514	-94.105	0.494	-0.178
-698.499	-5.604	0.089	0.081
-697.485	-77.147	0.339	-0.156
-696.470	-4.208	-0.380	-0.348
-695.456	-113.730	-0.140	0.036
-694.441	-153.249	-0.456	0.042
-693.426	202.435	-0.073	-0.151
-692.412	559.944	0.087	-0.281
-691.397	38.505	0.198	-0.234
-690.383	-200.000	-0.055	-0.350
-689.368	222.945	-0.181	-0.388
-688.354	15.474	0.243	-0.252
-687.339	-48.386	-0.226	-0.144
-686.324	57.959	-0.043	0.056
-685.310	163.048	0.056	0.105
-684.295	-51.025	-0.241	0.149
-683.281	-26.845	0.094	0.073
-682.266	303.066	-0.034	-0.083
-681.251	-141.483	0.560	-0.074
-680.237	-200.000	0.013	-0.388
-679.222	-148.318	0.244	0.026
-678.208	-200.000	0.197	-0.001
-677.193	-140.727	0.093	0.013
-676.178	13.046	0.063	0.064
-675.164	800.000	-0.161	-0.599
-674.149	-109.034	-0.532	-0.149
-673.135	-10.044	0.455	-0.400
-672.120	-53.462	0.149	0.090
-671.105	-42.151	0.302	0.204
-670.091	-200.000	0.044	0.473
-669.076	1.905	0.223	0.213
-668.062	374.832	0.055	0.149
-667.047	256.746	-0.046	0.104
-666.032	-24.002	0.359	0.284
-665.018	252.285	-0.083	0.188
-664.003	290.073	-0.107	0.259
-662.989	-92.985	-0.396	-0.146
-661.974	73.100	-0.217	-0.301
-660.959	-129.783	-0.294	0.053
-659.945	-48.851	-0.346	-0.219
-658.930	342.904	0.173	-0.450
-657.916	-200.000	-0.009	-0.578
-656.901	382.667	-0.207	-0.567
-655.886	45.393	0.201	0.245
-654.872	-82.343	-0.200	-0.086
-653.857	-70.682	-0.300	-0.149
-652.843	184.543	0.012	-0.024
-651.828	-200.000	-0.022	0.312
-650.814	-200.000	0.011	0.407
-649.799	-0.686	-0.212	0.198
-648.784	99.353	0.320	-0.490
-647.770	365.961	-0.014	0.039
-646.755	181.846	-0.291	-0.568
-645.741	-5.424	-0.122	0.110
-644.726	-200.000	0.028	-0.177
-643.711	-5.400	-0.254	-0.230
-642.697	67.008	0.276	0.372
-641.682	31.687	0.339	0.385
-640.668	-17.558	0.250	0.208
-639.653	-68.855	-0.607	-0.309
-638.638	124.270	-0.288	-0.479
-637.624	37.743	0.172	-0.202
-636.609	187.821	0.159	0.315
-635.595	-116.827	0.253	0.061
-634.580	65.063	-0.245	0.327
-633.565	-92.424	0.482	-0.178
-632.551	-142.496	0.131	0.017
-631.536	-200.000	-0.009	-0.307
-630.522	-200.000	-0.039	-0.504
-629.507	-169.596	0.376	-0.018
-628.492	-200.000	0.001	0.026
-627.478	273.763	-0.086	0.201
-626.463	-200.000	0.009	-0.269
-625.449	-62.253	-0.121	-0.066
-624.434	-160.914	-0.772	-0.053
-623.419	-28.939	-0.328	0.249
-622.405	-30.306	0.317	-0.237
-621.390	-161.378	-0.235	-0.016
-620.376	400.534	-0.115	-0.321
-619.361	-112.279	0.282	-0.074
-618.346	291.731	-0.072	0.175
-617.332	-3.845	-0.541	-0.496
-616.317	106.374	0.181	-0.284
-615.303	278.512	-0.039	-0.093
-614.288	200.191	-0.144	0.293
-613.273	192.145	0.052	0.104
-612.259	134.505	-0.032	0.056
-611.244	-190.534	0.083	0.001
-610.230	-11.470	-0.119	0.104
-609.215	-90.061	-0.104	0.040
-608.201	623.066	-0.071	-0.236
-607.186	-96.106	0.649	0.226
-606.171	-32.873	-0.563	-0.413
-605.157	-141.698	0.327	0.043
-604.142	-137.111	-0.134	-0.020
-603.128	-159.360	0.194	-0.014
-602.113	87.861	-0.110	0.161
-601.098	59.972	-0.419	0.548
-600.084	126.908	-0.166	0.279
-599.069	378.427	-0.100	-0.271
-598.055	-36.580	-0.075	-0.053
-597.040	105.667	-0.127	-0.198
-596.025	55.431	0.087	-0.111
-595.011	63.924	0.152	-0.202
-593.996	134.783	-0.319	-0.549
-592.982	-40.724	-0.098	-0.067
-591.967	-200.000	0.003	-0.062
-590.952	-111.525	0.185	-0.049
-589.938	-116.067	0.344	0.084
-588.923	-177.854	-0.307	-0.010
-587.909	-31.908	-0.295	0.217
-586.894	485.037	-0.099	0.299
-585.879	-98.066	-0.360	0.121
-584.865	-65.334	-0.149	0.079
-583.850	800.000	0.067	-0.332
-582.836	-71.078	-0.275	-0.136
-581.821	-72.664	0.246	-0.119
-580.806	-118.604	-0.316	-0.073
-579.792	168.551	0.130	0.245
-578.777	-101.003	0.267	0.086
-577.763	-106.829	0.284	-0.082
-576.748	-165.390	0.260	0.015
-575.733	69.257	0.030	0.040
-574.719	-200.000	-0.060	-0.490
-573.704	-36.684	0.536	-0.379
-572.690	-200.000	0.029	-0.224
-571.675	158.385	-0.254	-0.466
-570.661	646.022	-0.080	-0.271
-569.646	158.779	0.337	0.619
-568.631	25.462	0.354	0.388
-567.617	9.002	0.117	-0.117
-566.602	-7.929	0.133	0.118
-565.588	-87.955	-0.302	0.119
-564.573	242.454	-0.120	-0.266
-563.558	-200.000	-0.060	0.370
-562.544	-21.368	-0.233	-0.187
-561.529	-200.000	-0.047	-0.418
-560.515	800.000	0.089	0.338
-559.500	-25.445	0.071	0.055
-558.485	-83.133	0.091	0.038
-557.471	-86.591	0.547	0.220
-556.456	286.683	0.048	0.114
-555.442	15.196	-0.320	-0.331
-554.427	92.504	0.207	0.308
-553.412	-175.006	0.266	0.010
-552.398	-200.000	-0.054	-0.535
-551.383	-200.000	-0.006	0.182
-550.369	-200.000	0.002	-0.034
-549.354	-200.000	-0.021	0.386
-548.339	-200.000	-0.056	0.504
-547.325	-200.000	-0.000	0.410
-546.310	660.568	-0.090	0.308
-545.296	-52.284	-0.444	0.270
-544.281	227.247	-0.122	0.261
-543.266	8.556	-0.259	0.257
-542.252	-96.246	0.336	0.117
-541.237	-107.886	0.058	-0.017
-540.223	-84.992	0.256	0.105
-539.208	-73.989	0.423	0.201
-538.193	-200.000	-0.009	-0.283
-537.179	800.000	0.060	-0.248
-536.164	148.690	0.324	-0.578
-535.150	302.235	-0.051	-0.126
-534.135	-200.000	-0.040	-0.284
-533.121	194.903	0.287	-0.575
-532.106	50.181	-0.463	-0.576
-531.091	-53.904	-0.237	0.142
-530.077	-80.983	-0.196	0.085
-529.062	-36.825	-0.109	0.077
-528.048	704.301	0.106	-0.370
-527.033	-63.110	-0.159	-0.086
-526.018	800.000	0.032	0.144
-525.004	-200.000	-0.001	0.062
-523.989	185.471	-0.229	0.448
-522.975	18.083	0.158	0.165
-521.960	-200.000	-0.045	-0.430
-520.945	-150.297	0.224	-0.022
-519.931	33.227	0.392	-0.447
-518.916	35.354	-0.127	0.147
-517.902	135.399	-0.215	0.368
-516.887	5.878	-0.210	0.204
-515.872	800.000	-0.041	-0.163
-514.858	-102.971	-0.567	-0.176
-513.843	-82.545	0.250	0.106
-512.829	-113.480	0.078	0.020
-511.814	344.826	-0.110	-0.286
-510.799	-200.000	0.033	0.288
-509.785	-200.000	0.012	-0.257
-508.770	800.000	0.037	-0.150
-507.756	261.876	0.103	-0.237
-506.741	56.028	-0.140	0.178
-505.726	-60.593	-0.097	-0.054
-504.712	280.582	-0.068	-0.161
-503.697	412.160	0.034	-0.097
-502.683	545.587	0.177	-0.559
-501.668	632.450	0.046	0.154
-500.653	-112.707	0.197	0.051
-499.639	710.634	-0.082	0.289
-498.624	-200.000	-0.040	0.356
-497.610	163.007	-0.099	0.183
-496.595	100.826	0.091	0.140
-495.581	-31.337	-0.572	-0.422
-494.566	-51.721	-0.474	0.289
-493.551	370.373	0.145	0.388
-492.537	-100.609	-0.216	0.070
-491.522	8.837	0.086	0.085
-490.508	-11.564	-0.091	-0.079
-489.493	-200.000	0.023	-0.246
-488.478	-200.000	-0.054	0.412
-487.464	103.577	-0.139	0.215
-486.449	800.000	-0.090	0.397
-485.435	-56.227	0.320	0.187
-484.420	187.223	0.159	0.313
-483.405	-27.400	0.229	0.175
-482.391	800.000	-0.038	-0.209
-481.376	-18.089	0.258	-0.212
-480.362	-67.155	0.270	-0.139
-479.347	62.676	-0.066	-0.087
-478.332	159.267	-0.328	-0.601
-477.318	356.378	-0.115	0.303
-476.303	800.000	0.153	0.610
-475.289	800.000	-0.070	-0.406
-474.274	31.408	0.154	0.174
-473.259	-128.915	-0.097	-0.018
-472.245	300.360	-0.196	-0.476
-471.230	-48.494	0.262	-0.166
-470.216	26.664	-0.496	-0.545
-469.201	180.797	-0.101	-0.196
-468.186	-77.111	0.393	0.179
-467.172	-105.270	-0.226	-0.067
-466.157	800.000	-0.090	0.400
-465.143	231.305	0.090	-0.195
-464.128	-200.000	-0.007	0.054
-463.113	-134.879	0.213	0.034
-462.099	325.456	0.182	0.459
-461.084	328.455	-0.219	0.555
-460.070	582.080	0.141	0.458
-459.055	-137.648	-0.386	0.057
-458.040	165.568	-0.052	0.097
-457.026	-200.000	-0.027	0.462
-456.011	-71.936	0.135	-0.066
-454.997	58.146	0.420	0.541
-453.982	83.410	0.385	0.552
-452.968	166.575	0.097	0.180
-451.953	-55.773	-0.232	0.135
-450.938	-29.277	0.282	-0.211
-449.924	-108.279	-0.359	0.101
-448.909	11.537	0.169	0.170
-447.895	-200.000	0.001	-0.013
-446.880	-200.000	0.075	0.537
-445.865	-200.000	-0.031	0.254
-444.851	-200.000	0.020	0.516
-443.836	-41.180	-0.359	-0.242
-442.822	-200.000	0.014	0.148
-441.807	-101.593	-0.254	0.081
-440.792	-58.677	0.153	-0.087
-439.778	128.977	-0.129	0.216
-438.763	-1.718	-0.244	-0.225
-437.749	-35.034	-0.220	-0.157
-436.734	-59.883	0.082	0.046
-435.719	-200.000	-0.041	-0.363
-434.705	-31.666	0.110	0.081
-433.690	133.043	-0.040	-0.068
-432.676	-3.672	0.097	0.089
-431.661	-110.269	-0.099	-0.027
-430.646	-64.144	-0.227	-0.121
-429.632	117.515	-0.258	-0.417
-428.617	-79.339	-0.398	-0.176
-427.603	-73.791	0.108	0.051
-426.588	-181.763	0.626	-0.015
-425.573	135.241	-0.184	0.314
-424.559	-151.212	-0.323	0.031
-423.544	-121.469	0.341	0.074
-422.530	-156.290	-0.095	0.008
-421.515	-141.291	-0.270	-0.036
-420.500	-51.891	0.147	-0.089
-419.486	800.000	0.073	0.364
-418.471	-64.243	-0.165	-0.088
-417.457	800.000	-0.031	-0.167
-416.442	62.160	-0.021	0.028
-415.428	-20.575	0.254	0.204
-414.413	-82.282	0.154	-0.065
-413.398	90.011	0.362	-0.531
-412.384	800.000	0.014	0.050
-411.369	399.151	-0.066	-0.182
-410.355	-62.066	0.122	-0.067
-409.340	-92.095	-0.342	0.126
-408.325	-65.891	-0.316	0.165
-407.311	-53.754	0.390	0.232
-406.296	-182.599	0.203	-0.005
-405.282	98.346	-0.135	0.204
-404.267	-102.714	0.516	-0.160
-403.252	-106.514	0.345	-0.100
-402.238	447.301	0.154	-0.446
-401.223	-22.893	-0.363	-0.287
-400.209	800.000	0.043	-0.213
-399.194	369.208	-0.120	-0.319
-398.179	-48.945	0.461	-0.289
-397.165	-4.140	0.273	-0.247
-396.150	-146.261	-0.441	0.050
-395.136	-94.426	0.124	-0.044
-394.121	130.415	-0.152	0.256
-393.106	-200.000	-0.022	0.414
-392.092	-200.000	0.019	-0.212
-391.077	-59.806	-0.300	0.167
-390.063	-141.049	-0.240	-0.032
-389.048	231.931	-0.012	0.026
-388.033	-63.777	-0.192	-0.103
-387.019	-5.689	-0.106	0.095
-386.004	28.339	0.209	0.231
-384.990	-185.701	0.738	-0.014
-383.975	-200.000	-0.008	0.484
-382.960	800.000	0.005	-0.029
-381.946	-3.028	0.119	-0.109
-380.931	501.938	0.209	0.636
-379.917	-84.122	0.206	-0.085
-378.902	55.938	-0.201	-0.255
-377.888	-200.000	-0.012	0.346
-376.873	332.599	0.032	-0.080
-375.858	-114.861	0.343	0.085
-374.844	15.459	0.249	-0.256
-373.829	185.289	0.198	-0.386
-372.815	28.164	-0.118	-0.131
-371.800	-43.241	0.256	0.169
-370.785	185.664	0.095	-0.184
-369.771	78.101	-0.222	-0.311
-368.756	-67.489	0.333	-0.170
-367.742	800.000	0.065	-0.254
-366.727	6.642	-0.160	0.156
-365.712	800.000	0.076	-0.338
-364.698	-84.341	-0.229	-0.094
-363.683	-89.904	-0.214	0.081
-362.669	-200.000	0.061	-0.428
-361.654	216.383	0.288	-0.600
-360.639	-200.000	0.009	-0.149
-359.625	44.323	0.121	-0.146
-358.610	-134.795	-0.397	-0.062
-357.596	127.854	-0.272	-0.453
-356.581	329.491	-0.150	0.378
-355.566	800.000	0.018	0.100
-354.552	-133.054	0.569	0.093
-353.537	-137.785	-0.353	0.051
-352.523	-140.314	0.471	-0.064
-351.508	-119.164	0.101	0.023
-350.493	-15.482	-0.094	-0.078
-349.479	-81.840	-0.242	-0.103
-348.464	428.338	0.073	0.207
-347.450	-200.000	0.023	0.182
-346.435	-112.875	-0.365	0.094
-345.420	-200.000	0.023	-0.181
-344.406	-138.896	0.443	0.062
-343.391	726.229	0.014	-0.049
-342.377	-24.570	-0.164	-0.127
-341.362	245.904	0.200	0.441
-340.348	-12.850	-0.322	0.274
-339.333	800.000	-0.091	-0.392
-338.318	343.890	0.060	0.155
-337.304	22.526	-0.539	0.576
-336.289	-200.000	0.067	-0.631
-335.275	38.798	0.233	-0.272
-334.260	10.499	-0.160	-0.160
-333.245	-158.800	0.577	-0.042
-332.231	-104.750	-0.379	-0.113
-331.216	-57.958	-0.213	-0.121
-330.202	-200.000	0.020	-0.145
-329.187	-139.037	-0.314	0.044
-328.172	-193.047	-0.469	-0.005
-327.158	-10.863	-0.342	-0.295
-326.143	534.265	0.122	0.378
-325.129	547.992	0.029	-0.093
-324.114	168.214	-0.098	0.183
-323.099	-36.302	-0.178	0.125
-322.085	-60.410	-0.470	0.260
-321.070	-200.000	0.030	-0.297
-320.056	175.754	-0.110	-0.209
-319.041	800.000	-0.038	-0.192
-318.026	-21.269	0.295	-0.235
-317.012	-124.139	-0.449	0.091
-315.997	102.358	-0.090	-0.137
-314.983	-25.331	-0.245	-0.189
-313.968	243.186	-0.181	-0.398
-312.953	-148.574	-0.665	0.070
-311.939	-132.481	-0.296	-0.049
-310.924	-22.646	0.079	-0.062
-309.910	-157.910	0.484	-0.037
-308.895	-21.465	0.217	-0.173
-307.880	-58.936	0.140	0.079
-306.866	-80.117	-0.289	0.126
-305.851	-90.560	0.190	0.071
-304.837	123.405	0.251	0.412
-303.822	-25.703	0.299	-0.230
-302.807	76.156	0.364	0.504
-301.793	-39.094	0.352	0.241
-300.778	5.569	0.039	-0.038
-299.764	-126.091	0.053	-0.010
-298.749	-200.000	-0.042	0.345
-297.735	-45.520	0.034	0.022
-296.720	-98.664	0.227	0.075
-295.705	32.318	0.207	0.233
-294.691	-72.840	0.308	-0.147
-293.676	14.741	0.254	-0.259
-292.662	166.504	-0.125	-0.233
-291.647	800.000	-0.081	-0.322
-290.632	800.000	-0.061	0.320
-289.618	21.945	0.193	0.205
-288.603	338.232	0.106	-0.271
-287.589	431.230	0.068	-0.194
-286.574	4.470	0.093	0.089
-285.559	172.799	0.208	-0.392
-284.545	105.165	-0.122	-0.188
-283.530	800.000	-0.093	-0.489
-282.516	-31.257	0.246	0.180
-281.501	-200.000	-0.290	-0.001
-280.486	210.384	0.083	-0.171
-279.472	21.927	0.072	0.076
-278.457	-74.370	-0.235	0.110
-277.443	32.231	-0.270	-0.303
-276.428	-200.000	0.006	0.216
-275.413	213.704	0.186	-0.384
-274.399	41.518	0.070	0.083
-273.384	455.922	-0.191	-0.556
-272.370	-125.069	-0.297	-0.059
-271.355	15.931	0.179	-0.184
-270.340	-77.013	-0.262	0.119
-269.326	-58.010	0.373	-0.212
-268.311	-1.962	0.124	0.114
-267.297	269.918	-0.230	0.529
-266.282	-80.395	-0.151	-0.065
-265.267	-102.481	-0.093	-0.029
-264.253	-98.720	-0.394	-0.130
-263.238	-2.178	-0.162	0.148
-262.224	-200.000	0.019	0.338
-261.209	-1.965	-0.071	0.065
-260.195	194.364	0.156	0.309
-259.180	-73.224	0.382	0.181
-258.165	-29.300	-0.394	0.293
-257.151	-76.995	-0.117	-0.053
-256.136	800.000	-0.033	-0.142
-255.122	516.984	0.080	-0.245
-254.107	-200.000	-0.219	0.001
-253.092	800.000	-0.046	-0.193
-252.078	-200.000	0.026	0.231
-251.063	-55.438	-0.440	-0.257
-250.049	394.456	0.091	0.249
-249.034	-200.000	-0.004	0.152
-248.019	800.000	-0.077	0.347
-247.005	-29.617	-0.247	-0.184
-245.990	-31.457	-0.210	-0.154
-244.976	800.000	0.027	0.121
-243.961	76.311	-0.143	-0.197
-242.946	258.324	-0.323	0.727
-241.932	239.896	-0.212	0.461
-240.917	70.306	0.095	-0.128
-239.903	43.468	0.220	0.262
-238.888	175.945	-0.366	0.694
-237.873	627.926	0.045	-0.150
-236.859	-200.000	-0.069	-0.777
-235.844	800.000	-0.034	0.166
-234.830	-139.110	0.404	0.056
-233.815	-200.000	0.015	0.251
-232.800	-35.475	0.358	0.253
-231.786	7.301	0.434	-0.422
-230.771	-96.673	0.367	0.125
-229.757	-108.076	-0.474	-0.133
-228.742	-165.520	-0.111	-0.006
-227.727	-118.154	0.509	0.117
-226.713	800.000	-0.101	-0.415
-225.698	-153.356	0.442	0.040
-224.684	-200.000	0.006	0.279
-223.669	-76.353	0.294	-0.134
-222.655	-30.904	0.136	0.100
-221.640	-103.758	-0.108	0.033
-220.625	-58.637	-0.339	0.190
-219.611	-200.000	0.017	0.136
-218.596	-154.422	-0.225	-0.019
-217.582	-170.069	-0.202	-0.009
-216.567	-200.000	-0.047	0.320
-215.552	-129.984	-0.381	-0.067
-214.538	630.237	0.177	0.585
-213.523	55.442	0.266	-0.336
-212.509	15.261	0.188	-0.191
-211.494	-96.896	0.640	-0.217
-210.479	-160.967	-0.265	0.018
-209.465	345.774	0.059	0.153
-208.450	-162.001	0.473	-0.031
-207.436	-149.592	-0.161	-0.016
-206.421	-186.201	0.493	-0.009
-205.406	-134.816	0.023	-0.004
-204.392	-88.157	0.341	0.132
-203.377	-24.390	-0.125	0.097
-202.363	-200.000	-0.019	0.298
-201.348	800.000	-0.025	0.121
-200.333	180.340	0.126	-0.240
-199.319	-167.789	-0.176	-0.009
-198.304	593.062	0.108	-0.350
-197.290	403.229	0.128	-0.351
-196.275	-38.167	0.191	-0.132
-195.260	-37.004	0.159	0.110
-194.246	800.000	-0.043	-0.193
-193.231	-200.000	0.008	0.066
-192.217	-200.000	-0.003	-0.288
-191.202	289.707	-0.037	-0.088
-190.187	-14.911	-0.390	0.325
-189.173	-158.292	-0.254	0.019
-188.158	-112.974	0.137	0.035
-187.144	74.510	-0.088	-0.120
-186.129	-14.187	-0.084	0.071
-185.114	-200.000	-0.015	-0.226
-184.100	-138.924	0.408	0.057
-183.085	255.510	0.106	0.236
-182.071	-172.125	0.362	0.015
-181.056	-25.897	0.401	-0.307
-180.042	7.605	0.066	-0.064
-179.027	-137.499	0.227	-0.033
-178.012	-53.071	0.602	0.358
-176.998	-94.484	-0.223	0.078
-175.983	-136.583	0.433	0.064
-174.969	630.699	-0.037	0.121
-173.954	58.129	-0.064	-0.082
-172.939	800.000	-0.085	0.436
-171.925	290.932	0.091	0.216
-170.910	27.030	-0.380	0.414
-169.896	-98.213	-0.205	0.068
-168.881	-117.507	0.277	0.065
-167.866	-126.166	-0.331	-0.064
-166.852	-12.120	-0.099	0.084
-165.837	-59.105	-0.177	-0.099
-164.823	2.837	-0.018	-0.017
-163.808	-148.018	0.216	-0.023
-162.793	800.000	-0.044	-0.191
-161.779	-35.712	-0.108	0.076
-160.764	-10.085	-0.230	-0.198
-159.750	-91.576	-0.211	0.077
-158.735	-99.355	-0.274	0.089
-157.720	-124.566	-0.150	-0.030
-156.706	800.000	0.147	0.654
-155.691	-17.429	-0.179	0.146
-154.677	-72.210	0.436	-0.209
-153.662	-200.000	0.021	0.475
-152.647	-200.000	-0.045	-0.315
-151.633	69.272	0.102	0.136
-150.618	668.456	0.092	-0.310
-149.604	62.974	0.185	0.241
-148.589	233.618	-0.243	-0.521
-147.574	-120.119	-0.249	-0.055
-146.560	-200.000	-0.061	-0.396
-145.545	-200.000	-0.042	-0.245
-144.531	-53.620	-0.357	-0.211
-143.516	-55.606	-0.023	0.013
-142.502	107.359	0.041	-0.064
-141.487	49.697	0.274	-0.335
-140.472	-200.000	0.002	-0.188
-139.458	800.000	0.070	0.296
-138.443	-54.059	0.482	-0.284
-137.429	112.106	0.149	0.233
-136.414	-134.503	-0.228	0.036
-135.399	84.535	0.045	0.064
-134.385	13.768	-0.384	-0.387
-133.370	536.556	-0.128	0.398
-132.356	-72.460	0.112	-0.053
-131.341	800.000	-0.162	-0.701
-130.326	800.000	0.087	0.339
-129.312	800.000	-0.017	0.066
-128.297	-155.972	-0.173	0.014
-127.283	10.240	0.259	0.255
-126.268	-145.316	-0.181	0.021
-125.253	8.219	-0.225	0.219
-124.239	-148.176	-0.037	-0.004
-123.224	800.000	-0.017	0.066
-122.210	800.000	-0.029	0.159
