DTS Sentinel unit serial number:	SN409020Multiplexer serial number:	ORYXHardware model number:	OX4-SRSoftware version number:	ORYX F/W v3.00 Oryx Data Collector v3.7.2.0data status	okinstallation	HaddamTimeLapsedifferential loss correction	single-endedforward channel	channel 3reverse channel	N/Adate	2011/06/22time	06:31:18forward acquisition time	30.00reverse acquisition time	0.00gamma	498.7831k internal	0.1752k external	0.1752temperature offset calibration	1.0074default loss term (dB/km)	0.3790temperature slope calibration	1.3530multiplexer offset coefficient	1.0000multiplexer slope coefficient	1.0000fibre end	0.00T internal ref (°C)	22.62T ext. ref 1 (°C)	18.49T ext. ref 2 (°C)	0.20length (m)	temperature (°C)	Stokes	anti-Stokes-747.200	-45.099	0.154	-0.101
-746.185	-56.284	0.386	0.227
-745.171	-52.597	0.451	0.275
-744.156	10.728	-0.387	0.392
-743.142	-89.499	-0.167	0.065
-742.127	-200.000	-0.011	0.132
-741.112	578.925	-0.173	-0.566
-740.098	12.053	-0.243	0.248
-739.083	86.013	-0.215	-0.314
-738.069	-8.598	0.053	0.047
-737.054	6.593	0.073	0.072
-736.039	53.178	-0.274	-0.349
-735.025	137.042	0.247	-0.430
-734.010	-200.000	0.024	-0.454
-732.996	-146.370	0.245	-0.028
-731.981	-4.665	0.241	-0.221
-730.966	-76.367	-0.609	-0.283
-729.952	527.775	-0.027	0.086
-728.937	-41.570	0.221	0.150
-727.923	800.000	-0.069	-0.341
-726.908	302.568	-0.208	-0.513
-725.894	-16.973	-0.429	-0.359
-724.879	31.327	-0.287	-0.327
-723.864	-200.000	-0.034	0.253
-722.850	133.389	0.160	0.275
-721.835	-19.503	-0.094	0.077
-720.821	-16.498	0.230	-0.193
-719.806	-32.986	0.215	0.158
-718.791	-64.889	-0.421	0.225
-717.777	734.048	0.067	0.238
-716.762	-20.389	0.220	0.180
-715.748	-200.000	-0.021	0.144
-714.733	-103.607	0.191	-0.059
-713.718	-73.891	-0.171	-0.082
-712.704	-80.315	-0.315	0.139
-711.689	-112.853	-0.081	0.021
-710.675	-83.669	-0.100	-0.042
-709.660	110.203	0.232	0.371
-708.645	334.874	0.047	0.122
-707.631	-69.271	0.309	-0.157
-706.616	88.392	-0.352	-0.519
-705.602	800.000	0.135	0.604
-704.587	-17.624	0.452	0.376
-703.572	-111.858	-0.505	0.134
-702.558	800.000	0.070	-0.321
-701.543	176.444	-0.068	-0.131
-700.529	13.025	-0.072	-0.074
-699.514	-200.000	0.011	-0.413
-698.499	-200.000	0.244	0.001
-697.485	-200.000	0.015	-0.128
-696.470	22.536	0.174	0.189
-695.456	-121.525	-0.220	0.048
-694.441	96.865	0.322	0.490
-693.426	-161.832	0.053	-0.004
-692.412	50.320	0.100	0.126
-691.397	47.858	0.187	-0.232
-690.383	-200.000	0.066	-0.586
-689.368	-87.218	-0.393	0.157
-688.354	-3.288	-0.355	0.327
-687.339	-94.982	-0.353	-0.126
-686.324	-200.000	-0.105	-0.631
-685.310	-200.000	-0.014	0.175
-684.295	-107.635	-0.369	-0.106
-683.281	-200.000	0.063	0.491
-682.266	130.214	0.127	-0.215
-681.251	-172.866	-0.396	-0.016
-680.237	87.497	0.151	-0.221
-679.222	-48.460	0.227	-0.144
-678.208	-65.189	-0.229	-0.122
-677.193	-200.000	0.057	-0.335
-676.178	-1.827	0.418	0.389
-675.164	-110.143	0.144	-0.040
-674.149	800.000	0.172	-0.813
-673.135	-156.885	-0.482	0.039
-672.120	-24.180	-0.109	-0.086
-671.105	-179.830	-0.321	-0.009
-670.091	-200.000	-0.006	-0.112
-669.076	104.849	-0.064	0.101
-668.062	30.881	0.234	0.266
-667.047	800.000	-0.109	0.409
-666.032	4.589	-0.204	-0.198
-665.018	-45.850	0.235	-0.153
-664.003	738.491	0.149	-0.534
-662.989	-200.000	0.054	-0.353
-661.974	-34.950	-0.111	-0.080
-660.959	-174.294	-0.229	-0.009
-659.945	-91.977	0.085	-0.032
-658.930	-154.852	-0.438	-0.038
-657.916	-88.364	-0.218	0.086
-656.901	800.000	0.126	0.475
-655.886	69.466	0.251	0.343
-654.872	-17.489	-0.287	0.239
-653.857	-128.796	-0.197	-0.036
-652.843	-149.716	0.040	0.004
-651.828	-73.784	-0.173	0.083
-650.814	272.121	-0.215	-0.504
-649.799	-149.485	0.101	0.010
-648.784	-56.381	-0.211	-0.124
-647.770	92.452	0.156	-0.233
-646.755	52.253	-0.180	-0.228
-645.741	-104.618	0.400	0.121
-644.726	-57.623	0.082	-0.048
-643.711	173.966	0.148	-0.284
-642.697	-56.680	-0.526	-0.307
-641.682	-115.658	0.200	-0.049
-640.668	-85.126	-0.227	0.093
-639.653	-186.703	0.554	-0.010
-638.638	-172.637	-0.420	-0.017
-637.624	800.000	0.024	-0.095
-636.609	206.062	-0.197	-0.406
-635.595	-101.214	0.410	0.132
-634.580	800.000	0.035	-0.145
-633.565	88.791	0.069	0.101
-632.551	-130.363	-0.406	-0.072
-631.536	-117.655	0.424	0.100
-630.522	-89.708	-0.635	0.245
-629.507	256.430	0.063	0.144
-628.492	-138.240	0.305	-0.044
-627.478	-110.995	0.162	-0.044
-626.463	87.717	-0.148	-0.218
-625.449	-41.900	-0.313	-0.212
-624.434	800.000	-0.083	0.370
-623.419	-144.515	0.163	0.020
-622.405	800.000	0.122	0.457
-621.390	13.516	-0.219	0.225
-620.376	79.552	-0.160	0.228
-619.361	64.164	0.322	-0.429
-618.346	-23.762	0.402	-0.318
-617.332	-170.518	0.308	0.014
-616.317	52.279	-0.032	-0.041
-615.303	800.000	-0.033	0.172
-614.288	73.063	0.214	-0.296
-613.273	800.000	-0.031	-0.143
-612.259	-60.440	0.131	0.073
-611.244	766.737	-0.114	-0.411
-610.230	99.998	-0.169	0.259
-609.215	-57.307	0.476	0.275
-608.201	-158.753	-0.198	0.015
-607.186	-72.958	-0.199	-0.096
-606.171	-149.406	-0.722	-0.075
-605.157	-89.128	-0.112	0.043
-604.142	-40.938	-0.309	-0.211
-603.128	-38.551	-0.488	-0.340
-602.113	-4.176	-0.340	0.311
-601.098	19.685	0.142	0.151
-600.084	-200.000	-0.062	-0.460
-599.069	-174.235	-0.388	0.015
-598.055	-141.649	-0.183	0.024
-597.040	69.209	-0.142	-0.193
-596.025	-143.788	-0.276	0.034
-595.011	-7.155	0.263	-0.235
-593.996	-200.000	-0.018	-0.404
-592.982	18.416	-0.355	-0.374
-591.967	-144.548	-0.122	0.015
-590.952	-45.389	0.129	0.084
-589.938	-200.000	-0.010	0.334
-588.923	-108.844	0.259	0.073
-587.909	-9.723	0.199	0.175
-586.894	800.000	0.117	-0.608
-585.879	-23.430	0.288	0.228
-584.865	-82.069	-0.166	0.071
-583.850	274.831	-0.209	0.490
-582.836	-160.405	0.471	0.033
-581.821	-106.270	-0.472	-0.139
-580.806	117.093	0.243	-0.395
-579.792	28.327	0.237	0.264
-578.777	-47.486	0.405	0.259
-577.763	704.468	-0.132	0.461
-576.748	-17.198	-0.129	0.107
-575.733	26.337	0.226	-0.249
-574.719	239.949	0.205	0.452
-573.704	800.000	-0.060	0.300
-572.690	8.636	0.280	-0.278
-571.675	-199.652	-0.785	-0.005
-570.661	-169.401	0.345	0.016
-569.646	-113.099	0.243	0.063
-568.631	-20.317	-0.341	-0.277
-567.617	-23.705	-0.297	-0.234
-566.602	-71.016	-0.292	0.144
-565.588	-91.459	-0.327	0.122
-564.573	25.085	-0.249	0.272
-563.558	-200.000	-0.035	-0.359
-562.544	-200.000	-0.009	0.207
-561.529	466.485	-0.203	-0.604
-560.515	197.324	-0.134	-0.271
-559.500	-200.000	0.013	-0.142
-558.485	-179.391	-0.154	0.004
-557.471	-200.000	-0.145	1.131
-556.456	-93.089	-0.364	-0.133
-555.442	287.928	-0.114	-0.273
-554.427	7.944	-0.214	-0.211
-553.412	-82.137	0.088	-0.038
-552.398	75.535	0.234	-0.327
-551.383	469.549	0.093	0.275
-550.369	-149.888	0.444	0.045
-549.354	59.636	-0.275	-0.358
-548.339	42.567	0.123	-0.148
-547.325	-35.562	-0.553	-0.395
-546.310	-78.898	0.456	0.204
-545.296	-67.162	-0.419	-0.217
-544.281	-31.360	0.216	-0.159
-543.266	-6.360	-0.093	-0.084
-542.252	-106.887	-0.459	-0.133
-541.237	7.269	-0.208	0.205
-540.223	373.529	0.128	-0.343
-539.208	1.748	0.564	-0.535
-538.193	-48.652	-0.172	0.109
-537.179	482.122	-0.134	-0.404
-536.164	-34.439	0.296	0.213
-535.150	160.233	0.195	0.359
-534.135	113.558	-0.041	0.065
-533.121	-129.729	0.119	-0.021
-532.106	479.192	-0.082	-0.245
-531.091	2.474	0.251	0.239
-530.077	-22.146	0.264	0.210
-529.062	-200.000	-0.009	0.324
-528.048	289.716	-0.103	0.248
-527.033	329.452	-0.046	-0.117
-526.018	72.357	-0.102	-0.141
-525.004	-110.200	-0.492	-0.134
-523.989	-98.130	-0.029	-0.010
-522.975	85.851	-0.188	0.272
-521.960	203.503	-0.088	0.181
-520.945	-146.681	0.198	0.022
-519.931	138.124	0.139	-0.240
-518.916	800.000	0.137	0.599
-517.902	12.631	0.060	-0.061
-516.887	-12.130	-0.180	-0.155
-515.872	-68.513	0.247	0.125
-514.858	171.459	-0.065	0.123
-513.843	-105.760	-0.295	-0.087
-512.829	326.173	0.044	0.112
-511.814	154.106	-0.167	0.302
-510.799	-59.272	-0.130	0.074
-509.785	316.299	0.140	0.350
-508.770	-106.591	0.380	-0.111
-507.756	542.589	0.021	-0.065
-506.741	-32.754	0.114	-0.083
-505.726	-108.047	-0.683	0.194
-504.712	362.392	-0.054	0.143
-503.697	511.102	0.099	0.305
-502.683	-110.867	-0.330	-0.089
-501.668	-196.416	-0.578	0.005
-500.653	-200.000	0.004	-0.305
-499.639	766.244	-0.060	-0.216
-498.624	362.679	-0.204	-0.540
-497.610	800.000	0.063	0.232
-496.595	107.074	0.122	0.191
-495.581	-6.633	-0.208	0.186
-494.566	414.995	0.146	0.410
-493.551	-96.437	0.074	0.025
-492.537	146.196	-0.053	-0.094
-491.522	-200.000	-0.012	-0.142
-490.508	-200.000	0.005	-0.521
-489.493	-176.749	0.492	-0.016
-488.478	-48.418	-0.083	0.052
-487.464	-127.186	-0.233	-0.044
-486.449	366.744	-0.009	0.025
-485.435	132.713	-0.230	-0.392
-484.420	-117.296	-0.188	-0.045
-483.405	-104.278	-0.246	-0.075
-482.391	-200.000	-0.070	0.567
-481.376	-140.558	0.242	0.033
-480.362	153.868	0.172	-0.310
-479.347	-200.000	-0.029	-0.302
-478.332	-65.675	0.353	-0.185
-477.318	-200.000	-0.016	0.150
-476.303	-73.001	0.301	0.145
-475.289	-200.000	0.450	-0.002
-474.274	800.000	-0.147	0.700
-473.259	-94.195	-0.382	-0.136
-472.245	800.000	0.055	-0.257
-471.230	101.887	-0.187	-0.288
-470.216	-200.000	-0.003	0.184
-469.201	23.419	-0.583	-0.630
-468.186	-123.322	0.374	0.078
-467.172	-6.896	-0.123	-0.110
-466.157	-200.000	0.031	0.244
-465.143	-45.085	0.204	-0.133
-464.128	-45.946	0.165	0.107
-463.113	-77.428	0.218	-0.099
-462.099	-43.185	0.176	0.117
-461.084	-137.906	0.387	-0.056
-460.070	126.688	0.298	0.497
-459.055	-86.345	0.071	0.028
-458.040	-99.479	-0.507	-0.167
-457.026	178.669	0.119	-0.229
-456.011	-156.423	1.003	-0.081
-454.997	-200.000	-0.019	0.269
-453.982	-29.028	-0.147	0.111
-452.968	-133.544	0.259	-0.042
-451.953	-145.123	-0.242	-0.029
-450.938	-30.030	-0.124	0.093
-449.924	105.881	0.073	0.114
-448.909	-1.743	0.144	0.133
-447.895	-74.313	0.276	0.130
-446.880	-11.401	-0.127	0.109
-445.865	178.864	-0.219	-0.421
-444.851	800.000	-0.037	-0.202
-443.836	-57.194	-0.398	-0.229
-442.822	-20.865	-0.272	0.219
-441.807	189.396	-0.150	-0.296
-440.792	91.861	-0.303	0.448
-439.778	-9.678	-0.193	-0.169
-438.763	312.510	0.114	-0.282
-437.749	-38.550	-0.339	-0.235
-436.734	-36.328	-0.412	0.291
-435.719	-1.324	-0.203	-0.188
-434.705	-91.280	0.235	-0.088
-433.690	-7.990	-0.096	0.084
-432.676	-75.043	-0.205	0.096
-431.661	-22.892	0.192	-0.151
-430.646	800.000	-0.050	0.209
-429.632	474.879	-0.140	0.416
-428.617	20.025	-0.261	-0.276
-427.603	193.937	0.197	-0.393
-426.588	-39.972	-0.154	0.105
-425.573	32.948	0.386	0.439
-424.559	475.451	-0.116	-0.344
-423.544	711.881	0.103	0.359
-422.530	68.813	-0.161	0.217
-421.515	-81.030	-0.493	-0.213
-420.500	-163.472	-0.316	0.019
-419.486	254.889	0.114	-0.258
-418.471	367.759	-0.093	0.247
-417.457	800.000	0.149	0.666
-416.442	29.454	0.164	0.183
-415.428	-200.000	0.062	-0.452
-414.413	-151.747	-0.400	-0.038
-413.398	-83.365	0.142	0.059
-412.384	-106.509	0.528	0.153
-411.369	96.404	0.409	0.614
-410.355	31.006	-0.287	0.322
-409.340	-53.904	0.523	-0.312
-408.325	419.070	-0.057	0.161
-407.311	-184.489	0.518	0.011
-406.296	395.631	-0.062	0.170
-405.282	-44.384	0.289	-0.189
-404.267	280.524	-0.297	0.699
-403.252	-71.077	0.237	-0.116
-402.238	-200.000	-0.022	-0.208
-401.223	27.002	0.173	0.190
-400.209	538.008	-0.070	-0.219
-399.194	-36.348	0.162	0.114
-398.179	-85.514	-0.571	0.232
-397.165	252.723	-0.141	0.316
-396.150	-67.978	0.623	0.317
-395.136	-91.623	0.256	0.095
-394.121	-138.881	-0.198	0.028
-393.106	146.600	-0.099	-0.175
-392.092	-63.781	-0.383	0.205
-391.077	611.917	-0.089	0.294
-390.063	-106.954	0.287	0.082
-389.048	-45.458	0.321	-0.208
-388.033	800.000	0.054	-0.258
-387.019	1.630	0.020	0.019
-386.004	-200.000	0.021	-0.198
-384.990	368.104	-0.073	0.194
-383.975	-200.000	-0.021	0.156
-382.960	-172.574	0.246	0.010
-381.946	447.629	0.101	-0.292
-380.931	-67.652	0.306	-0.156
-379.917	34.222	-0.117	0.133
-378.902	-73.432	-0.220	0.105
-377.888	800.000	-0.059	0.297
-376.873	-119.211	0.519	0.118
-375.858	-29.212	0.181	0.136
-374.844	-92.982	0.173	-0.063
-373.829	121.631	-0.212	0.346
-372.815	800.000	0.089	-0.411
-371.800	76.522	-0.265	-0.368
-370.785	-177.197	0.409	-0.013
-369.771	120.705	0.109	0.178
-368.756	-99.673	-0.429	-0.140
-367.742	-185.074	0.274	-0.005
-366.727	-200.000	-0.021	-0.189
-365.712	87.232	0.269	-0.389
-364.698	49.516	0.175	0.216
-363.683	800.000	0.055	-0.308
-362.669	800.000	0.031	-0.129
-361.654	-86.777	-0.232	0.092
-360.639	-16.496	0.301	-0.249
-359.625	427.706	-0.124	0.351
-358.610	82.406	-0.192	0.273
-357.596	420.439	-0.075	0.212
-356.581	178.372	0.130	-0.249
-355.566	663.889	-0.079	-0.267
-354.552	-111.739	-0.199	0.052
-353.537	69.559	-0.014	0.019
-352.523	-143.511	-0.478	0.059
-351.508	198.260	0.121	0.242
-350.493	15.454	-0.337	0.345
-349.479	398.659	0.096	0.263
-348.464	800.000	-0.086	-0.327
-347.450	-141.470	0.405	0.053
-346.435	800.000	-0.115	0.503
-345.420	-89.781	-0.279	-0.106
-344.406	0.107	0.502	0.467
-343.391	390.385	0.122	0.332
-342.377	-38.425	-0.058	-0.040
-341.362	-60.399	-0.208	-0.115
-340.348	-71.155	-0.226	-0.111
-339.333	-173.276	0.533	0.021
-338.318	177.224	-0.100	0.191
-337.304	82.093	0.081	0.116
-336.289	315.794	-0.117	-0.290
-335.275	-83.092	-0.169	-0.071
-334.260	-33.027	0.415	0.300
-333.245	-132.273	-0.166	0.028
-332.231	-29.339	0.441	0.329
-331.216	519.623	0.082	0.252
-330.202	-106.450	-0.241	-0.070
-329.187	-134.820	0.145	0.023
-328.172	77.071	0.045	-0.062
-327.158	-65.884	0.377	-0.196
-326.143	-200.000	0.043	0.492
-325.129	424.867	0.082	0.233
-324.114	-163.120	-0.456	0.028
-323.099	11.371	0.112	0.112
-322.085	-99.130	0.609	-0.200
-321.070	-57.080	0.148	0.085
-320.056	-139.115	0.233	-0.033
-319.041	81.943	-0.206	0.291
-318.026	-39.601	-0.240	-0.164
-317.012	800.000	0.138	-0.501
-315.997	800.000	-0.037	0.166
-314.983	-6.998	-0.216	-0.191
-313.968	-154.561	-0.342	0.029
-312.953	194.973	0.165	-0.329
-311.939	13.369	-0.198	-0.200
-310.924	800.000	-0.037	-0.136
-309.910	-96.766	0.239	-0.082
-308.895	-2.766	-0.147	0.134
-307.880	-100.681	0.532	-0.170
-306.866	-200.000	-0.066	-0.433
-305.851	65.226	-0.347	-0.458
-304.837	-3.842	0.292	-0.264
-303.822	-132.219	-0.235	-0.039
-302.807	-61.336	-0.537	0.294
-301.793	171.884	0.017	-0.032
-300.778	-144.056	-0.224	0.027
-299.764	459.244	0.155	0.453
-298.749	-67.923	0.482	0.244
-297.735	-8.876	-0.239	-0.209
-296.720	-114.465	-0.356	0.089
-295.705	49.078	-0.192	0.235
-294.691	5.286	-0.259	-0.249
-293.676	123.099	-0.191	0.313
-292.662	-113.553	-0.514	0.130
-291.647	-140.686	-0.160	0.021
-290.632	-200.000	0.046	-0.541
-289.618	119.602	0.141	-0.229
-288.603	183.477	-0.173	0.335
-287.589	-200.000	-0.081	0.634
-286.574	-22.172	-0.264	-0.209
-285.559	-200.000	0.006	0.276
-284.545	-15.467	-0.101	0.084
-283.530	800.000	-0.041	-0.161
-282.516	214.248	-0.071	-0.147
-281.501	-26.384	-0.284	-0.217
-280.486	-110.338	0.211	-0.057
-279.472	105.229	0.106	-0.164
-278.457	54.239	-0.094	0.118
-277.443	379.523	-0.072	0.192
-276.428	800.000	0.076	0.401
-275.413	-74.336	-0.332	0.156
-274.399	159.212	0.109	0.198
-273.384	-31.666	0.258	0.188
-272.370	-44.786	0.264	0.171
-271.355	800.000	0.054	-0.288
-270.340	-134.201	-0.306	0.049
-269.326	23.571	0.274	-0.294
-268.311	198.208	0.131	0.262
-267.297	-200.000	0.006	-0.507
-266.282	-200.000	0.021	0.187
-265.267	-58.887	0.400	-0.225
-264.253	-155.114	0.253	-0.021
-263.238	198.677	0.143	-0.286
-262.224	800.000	0.057	0.226
-261.209	68.342	-0.131	-0.175
-260.195	60.282	-0.147	0.190
-259.180	-102.657	0.228	0.070
-258.165	-17.397	0.277	-0.227
-257.151	-46.967	-0.345	0.219
-256.136	4.645	0.306	0.293
-255.122	18.831	0.344	0.359
-254.107	-10.824	0.331	-0.284
-253.092	-180.479	-0.726	0.019
-252.078	-60.655	0.338	-0.186
-251.063	-131.087	0.493	0.085
-250.049	800.000	-0.066	-0.266
-249.034	-75.214	0.020	-0.009
-248.019	-122.558	0.098	-0.021
-247.005	416.046	-0.075	0.211
-245.990	-200.000	-0.021	0.258
-244.976	-9.018	-0.108	-0.094
-243.961	800.000	0.040	-0.181
-242.946	81.392	0.037	0.053
-241.932	800.000	-0.091	0.360
-240.917	180.865	-0.214	-0.411
-239.903	597.002	-0.104	0.338
-238.888	-86.576	0.123	-0.049
-237.873	800.000	0.091	-0.451
-236.859	116.388	0.099	-0.159
-235.844	387.372	-0.092	0.249
-234.830	-200.000	0.001	-0.008
-233.815	158.276	-0.122	0.221
-232.800	8.233	0.160	0.156
-231.786	3.600	0.413	0.392
-230.771	-120.224	-0.331	0.073
-229.757	800.000	-0.023	0.112
-228.742	-56.746	0.255	0.146
-227.727	-104.122	0.238	-0.072
-226.713	101.324	0.186	-0.282
-225.698	-200.000	0.016	0.113
-224.684	-121.279	-0.150	0.032
-223.669	-71.106	0.101	-0.049
-222.655	720.392	0.034	-0.117
-221.640	291.299	-0.111	-0.263
-220.625	-161.136	-0.260	0.017
-219.611	342.148	0.126	-0.322
-218.596	130.673	0.300	-0.502
-217.582	-35.423	-0.392	-0.277
-216.567	165.544	0.159	-0.292
-215.552	800.000	0.018	-0.087
-214.538	83.867	0.194	0.276
-213.523	366.537	0.190	-0.501
-212.509	-165.176	-0.359	-0.020
-211.494	230.607	0.121	0.258
-210.479	32.289	0.212	0.238
-209.465	358.878	0.133	-0.346
-208.450	800.000	-0.073	-0.305
-207.436	-79.454	-0.419	0.183
-206.421	-102.045	0.130	0.040
-205.406	-200.000	-0.005	-0.197
-204.392	-146.174	-0.102	-0.012
-203.377	313.627	0.138	-0.339
-202.363	-148.437	0.477	0.050
-201.348	-150.342	0.467	0.046
-200.333	-80.588	-0.228	-0.098
-199.319	-22.886	0.487	-0.381
-198.304	307.641	-0.165	0.402
-197.290	-86.272	0.108	0.043
-196.275	800.000	0.054	-0.200
-195.260	148.982	-0.221	-0.389
-194.246	-105.424	0.386	0.113
-193.231	25.469	0.243	0.262
-192.217	80.522	0.198	0.278
-191.202	-200.000	0.022	0.293
-190.187	-120.743	0.250	-0.054
-189.173	27.430	0.201	0.220
-188.158	-163.299	0.060	-0.004
-187.144	400.320	0.107	-0.293
-186.129	-200.000	-0.072	0.430
-185.114	-46.701	0.137	0.087
-184.100	-135.104	-0.266	-0.041
-183.085	-103.199	-0.257	-0.078
-182.071	45.253	0.210	-0.252
-181.056	246.727	-0.177	0.389
-180.042	800.000	-0.069	0.369
-179.027	-60.642	-0.445	-0.244
-178.012	-200.000	-0.033	-0.535
-176.998	68.398	-0.235	0.313
-175.983	-121.061	0.662	0.143
-174.969	555.139	0.071	-0.222
-173.954	-200.000	0.010	-0.098
-172.939	150.265	0.145	0.255
-171.925	-200.000	-0.023	0.229
-170.910	301.886	-0.167	-0.401
-169.896	267.987	0.214	-0.488
-168.881	-142.596	-0.234	-0.029
-167.866	-109.822	0.247	0.067
-166.852	-38.876	0.198	-0.135
-165.837	-119.449	0.361	-0.081
-164.823	81.732	-0.172	-0.242
-163.808	750.888	-0.035	-0.125
-162.793	-77.293	-0.278	0.125
-161.779	-161.655	0.221	0.014
-160.764	144.788	-0.062	-0.108
-159.750	800.000	-0.026	-0.130
-158.735	-44.735	-0.340	0.220
-157.720	74.530	0.144	-0.196
-156.706	31.418	-0.393	0.438
-155.691	-70.099	0.199	-0.098
-154.677	-88.886	-0.332	0.127
-153.662	-74.526	-0.171	0.080
-152.647	-42.476	-0.107	-0.071
-151.633	-200.000	-0.047	-0.319
-150.618	800.000	0.069	-0.326
-149.604	4.082	-0.276	0.262
-148.589	268.350	0.016	0.036
-147.574	-136.809	-0.299	-0.044
-146.560	70.361	-0.191	-0.256
-145.545	-187.678	-0.449	0.008
-144.531	409.162	-0.092	-0.254
-143.516	-200.000	0.006	0.080
-142.502	800.000	-0.099	0.515
-141.487	-83.631	-0.557	-0.229
-140.472	-111.361	0.078	0.021
-139.458	-200.000	0.013	0.173
-138.443	-99.611	-0.226	0.073
-137.429	274.222	-0.123	-0.282
-136.414	101.086	-0.292	-0.442
-135.399	170.380	-0.063	-0.117
-134.385	633.327	0.050	0.165
-133.370	-45.889	0.329	0.210
-132.356	-175.828	-0.224	-0.008
-131.341	43.654	0.094	-0.112
-130.326	-95.776	0.037	-0.013
-129.312	-200.000	-0.043	0.342
-128.297	63.049	0.143	0.186
-127.283	127.592	0.230	0.379
-126.268	-100.226	0.115	-0.037
-125.253	-20.382	0.319	-0.254
-124.239	800.000	0.051	0.209
-123.224	8.889	-0.178	-0.173
-122.210	-155.118	0.091	-0.008
-121.195	800.000	-0.034	-0.157
