DTS Sentinel unit serial number:	SN409020Multiplexer serial number:	ORYXHardware model number:	OX4-SRSoftware version number:	ORYX F/W v3.00 Oryx Data Collector v3.7.2.0data status	okinstallation	HaddamTimeLapsedifferential loss correction	single-endedforward channel	channel 3reverse channel	N/Adate	2011/06/22time	10:01:17forward acquisition time	30.00reverse acquisition time	0.00gamma	498.7831k internal	0.1810k external	0.1810temperature offset calibration	1.0074default loss term (dB/km)	0.3790temperature slope calibration	1.3530multiplexer offset coefficient	1.0000multiplexer slope coefficient	1.0000fibre end	0.00T internal ref (°C)	28.87T ext. ref 1 (°C)	25.92T ext. ref 2 (°C)	0.20length (m)	temperature (°C)	Stokes	anti-Stokes-747.200	565.575	0.088	0.277
-746.185	40.383	0.279	0.323
-745.171	-200.000	-0.007	-0.222
-744.156	-4.479	-0.170	0.151
-743.142	55.078	-0.314	-0.390
-742.127	298.876	-0.194	0.460
-741.112	800.000	0.077	0.292
-740.098	-26.005	0.378	0.286
-739.083	800.000	-0.057	-0.261
-738.069	242.691	-0.308	0.664
-737.054	364.603	0.040	0.104
-736.039	47.393	-0.115	-0.138
-735.025	-171.204	0.338	0.014
-734.010	-200.000	0.155	0.925
-732.996	-137.269	0.377	-0.054
-731.981	233.908	0.290	0.616
-730.966	-32.955	0.208	-0.148
-729.952	-136.329	-0.316	-0.047
-728.937	-61.152	-0.288	0.156
-727.923	91.256	-0.217	0.314
-726.908	-200.000	-0.039	-0.254
-725.894	217.512	0.164	-0.337
-724.879	56.905	0.240	-0.301
-723.864	-99.736	-0.164	0.052
-722.850	-55.378	0.081	0.047
-721.835	92.048	0.225	-0.327
-720.821	11.770	0.376	-0.371
-719.806	800.000	-0.049	-0.263
-718.791	117.194	-0.097	0.153
-717.777	-10.083	-0.367	-0.313
-716.762	413.234	-0.103	-0.284
-715.748	53.921	-0.123	-0.152
-714.733	116.229	-0.126	0.199
-713.718	-5.991	-0.164	0.144
-712.704	-122.531	-0.535	-0.111
-711.689	247.623	-0.251	-0.546
-710.675	-21.452	-0.403	-0.315
-709.660	-50.734	0.460	-0.277
-708.645	547.838	-0.136	0.421
-707.631	-12.725	-0.448	-0.374
-706.616	43.727	-0.311	0.366
-705.602	-200.000	-0.230	-0.001
-704.587	-1.019	-0.364	-0.330
-703.572	-129.863	0.190	0.033
-702.558	185.721	0.078	0.149
-701.543	21.356	0.393	-0.410
-700.529	800.000	-0.037	-0.180
-699.514	435.135	0.087	-0.243
-698.499	29.137	0.246	-0.268
-697.485	-200.000	-0.073	-0.468
-696.470	-200.000	-0.014	0.432
-695.456	-56.026	-0.279	-0.159
-694.441	-94.642	0.184	-0.064
-693.426	18.993	-0.120	-0.123
-692.412	-113.099	-0.015	-0.004
-691.397	-75.214	-0.282	-0.129
-690.383	-111.663	0.382	-0.099
-689.368	-72.132	0.437	0.207
-688.354	-110.708	-0.250	0.066
-687.339	-46.465	0.118	-0.074
-686.324	-200.000	0.059	-0.381
-685.310	-62.464	-0.148	0.079
-684.295	558.506	0.031	-0.097
-683.281	-69.105	0.216	0.106
-682.266	-129.074	-0.348	-0.062
-681.251	110.514	-0.216	-0.333
-680.237	194.323	0.128	-0.250
-679.222	-19.473	0.308	-0.245
-678.208	-129.729	-0.344	0.060
-677.193	800.000	-0.104	0.375
-676.178	-36.057	0.288	-0.199
-675.164	800.000	-0.155	-0.722
-674.149	-112.311	0.206	-0.052
-673.135	74.101	-0.184	0.248
-672.120	338.712	-0.179	-0.449
-671.105	-67.284	0.083	0.042
-670.091	263.171	-0.071	0.158
-669.076	-200.000	-0.045	0.321
-668.062	-200.000	-0.001	-0.021
-667.047	-43.996	-0.164	-0.105
-666.032	800.000	-0.069	-0.339
-665.018	315.373	-0.103	-0.251
-664.003	154.251	-0.178	0.314
-662.989	107.227	-0.155	-0.237
-661.974	-40.851	0.109	-0.072
-660.959	-139.264	-0.342	0.047
-659.945	-69.521	0.305	0.149
-658.930	-29.875	-0.192	0.140
-657.916	-102.695	-0.252	-0.076
-656.901	-54.323	-0.189	-0.109
-655.886	321.878	-0.211	-0.517
-654.872	24.924	0.217	0.231
-653.857	-126.341	0.267	-0.050
-652.843	-200.000	-0.028	0.466
-651.828	-200.000	0.036	0.376
-650.814	7.139	-0.159	-0.152
-649.799	64.900	-0.240	0.310
-648.784	112.022	-0.221	0.342
-647.770	-35.844	-0.390	-0.270
-646.755	-200.000	-0.026	0.320
-645.741	6.172	0.122	0.116
-644.726	-135.790	0.438	-0.066
-643.711	-200.000	0.021	-0.140
-642.697	-169.149	-0.316	0.015
-641.682	-65.104	0.202	0.104
-640.668	-55.361	-0.173	-0.099
-639.653	19.649	-0.387	-0.398
-638.638	-108.884	-0.286	-0.078
-637.624	45.703	0.265	-0.313
-636.609	-72.340	0.134	0.063
-635.595	-126.328	-0.295	-0.056
-634.580	-200.000	-0.037	-0.298
-633.565	-200.000	-0.001	0.177
-632.551	-24.946	-0.205	0.155
-631.536	-60.294	-0.128	0.069
-630.522	-18.318	0.289	-0.231
-629.507	538.126	0.137	0.419
-628.492	-103.234	0.115	0.035
-627.478	-144.823	0.388	0.045
-626.463	363.736	-0.225	0.582
-625.449	-127.882	-0.225	0.041
-624.434	-82.218	0.212	0.088
-623.419	-115.600	0.393	0.094
-622.405	-200.000	-0.083	-0.723
-621.390	102.684	0.064	-0.095
-620.376	-31.515	-0.373	0.267
-619.361	135.382	-0.196	-0.327
-618.346	84.114	0.225	-0.314
-617.332	35.077	-0.134	0.150
-616.317	3.407	-0.776	0.722
-615.303	252.249	0.206	0.452
-614.288	313.236	-0.087	0.211
-613.273	656.837	-0.157	0.519
-612.259	-32.242	0.330	0.235
-611.244	137.068	-0.242	0.405
-610.230	-200.000	-0.028	-0.180
-609.215	-200.000	-0.023	-0.389
-608.201	-74.091	0.187	-0.086
-607.186	289.532	0.219	0.511
-606.171	-141.654	-0.406	-0.052
-605.157	-6.426	-0.088	-0.077
-604.142	-131.436	0.069	0.012
-603.128	-34.367	-0.272	-0.190
-602.113	581.014	0.057	0.179
-601.098	-116.641	0.417	0.097
-600.084	66.615	0.194	-0.252
-599.069	-110.392	0.274	0.072
-598.055	-135.484	-0.967	0.146
-597.040	245.798	-0.213	-0.459
-596.025	800.000	0.053	0.215
-595.011	-64.733	-0.316	-0.163
-593.996	-141.349	-0.438	0.056
-592.982	-76.710	-0.469	0.209
-591.967	800.000	-0.081	-0.422
-590.952	800.000	0.029	-0.151
-589.938	-200.000	0.019	-0.261
-588.923	99.815	0.234	0.346
-587.909	68.176	-0.270	-0.354
-586.894	-106.807	-0.508	-0.143
-585.879	-122.791	-0.396	0.081
-584.865	-52.537	-0.453	-0.266
-583.850	-5.238	-0.191	0.168
-582.836	46.160	-0.299	-0.354
-581.821	-134.647	-0.453	-0.070
-580.806	573.459	0.031	-0.098
-579.792	-107.918	0.201	-0.055
-578.777	-38.977	-0.283	0.189
-577.763	33.538	0.212	-0.236
-576.748	-200.000	-0.002	-0.135
-575.733	-100.014	0.206	0.065
-574.719	-125.241	-0.536	-0.104
-573.704	770.726	-0.029	0.101
-572.690	-72.727	-0.460	0.216
-571.675	252.897	0.041	0.089
-570.661	6.755	-0.189	0.180
-569.646	-200.000	0.038	0.224
-568.631	68.829	0.156	0.204
-567.617	-177.089	-0.270	-0.008
-566.602	-200.000	-0.022	0.323
-565.588	-10.582	0.514	0.434
-564.573	-100.949	0.303	-0.094
-563.558	-200.000	0.498	-0.001
-562.544	-200.000	0.028	-0.297
-561.529	30.967	-0.376	-0.412
-560.515	-25.012	0.152	-0.115
-559.500	559.697	0.174	-0.538
-558.485	-85.264	-0.308	-0.122
-557.471	-13.691	0.140	0.116
-556.456	-137.981	-0.389	-0.055
-555.442	800.000	-0.107	-0.412
-554.427	360.028	0.057	-0.146
-553.412	37.638	-0.235	-0.266
-552.398	192.525	-0.247	0.477
-551.383	800.000	0.056	0.306
-550.369	-9.074	0.191	-0.163
-549.354	-62.029	-0.618	-0.328
-548.339	35.305	0.204	0.228
-547.325	251.753	-0.146	0.319
-546.310	4.792	0.086	0.080
-545.296	-42.609	-0.501	0.325
-544.281	-129.112	0.448	0.079
-543.266	-122.837	0.435	0.089
-542.252	48.237	-0.166	-0.198
-541.237	-121.636	-0.419	-0.088
-540.223	-53.306	0.094	0.055
-539.208	-200.000	0.055	0.324
-538.193	-200.000	-0.014	0.204
-537.179	-66.076	-0.268	-0.136
-536.164	-200.000	0.012	0.264
-535.150	33.585	0.056	0.062
-534.135	5.729	-0.505	0.476
-533.121	-108.155	0.518	-0.142
-532.106	-200.000	-0.020	0.382
-531.091	-129.515	0.325	0.057
-530.077	341.508	0.063	0.156
-529.062	-106.217	0.223	-0.063
-528.048	-200.000	0.044	0.695
-527.033	-27.544	0.062	0.046
-526.018	-96.392	0.822	-0.275
-525.004	25.562	0.353	-0.375
-523.989	6.278	-0.155	0.147
-522.975	-103.461	-0.220	0.066
-521.960	352.192	-0.382	-0.968
-520.945	108.639	0.185	0.282
-519.931	204.806	-0.218	0.432
-518.916	800.000	-0.036	-0.175
-517.902	-99.528	-0.442	0.141
-516.887	375.726	0.193	0.503
-515.872	800.000	0.084	0.377
-514.858	462.913	-0.166	-0.476
-513.843	-155.784	-0.337	0.027
-512.829	-19.164	-0.117	-0.093
-511.814	-200.000	0.001	-0.510
-510.799	-122.473	-0.494	-0.102
-509.785	-132.787	-0.511	-0.082
-508.770	-200.000	0.037	-0.237
-507.756	800.000	0.024	-0.087
-506.741	-4.019	0.083	-0.073
-505.726	167.697	0.195	-0.354
-504.712	-139.607	0.116	-0.016
-503.697	-23.923	0.096	0.073
-502.683	120.848	-0.106	-0.169
-501.668	230.935	-0.035	-0.073
-500.653	21.176	-0.086	-0.089
-499.639	62.803	-0.079	-0.101
-498.624	-91.007	0.076	-0.028
-497.610	192.428	0.182	-0.350
-496.595	62.568	0.238	-0.303
-495.581	133.593	-0.315	-0.520
-494.566	800.000	-0.063	-0.283
-493.551	-35.097	-0.334	-0.231
-492.537	116.064	-0.272	0.425
-491.522	201.884	-0.297	0.584
-490.508	-126.790	-0.067	-0.012
-489.493	-200.000	-0.025	-0.537
-488.478	337.027	-0.006	0.015
-487.464	-77.173	-0.190	0.084
-486.449	107.647	-0.173	-0.262
-485.435	800.000	-0.124	0.527
-484.420	-4.550	-0.562	0.493
-483.405	-135.389	-0.361	-0.054
-482.391	-124.513	-0.036	0.007
-481.376	-149.185	-0.330	-0.033
-480.362	64.700	0.309	-0.397
-479.347	-18.117	0.593	0.471
-478.332	-122.034	-0.100	0.021
-477.318	279.474	-0.227	0.518
-476.303	53.827	-0.043	-0.053
-475.289	-148.703	-0.057	-0.006
-474.274	-200.000	0.004	0.133
-473.259	-114.223	0.385	-0.094
-472.245	182.433	0.196	-0.369
-471.230	139.496	0.162	0.272
-470.216	800.000	0.060	0.320
-469.201	-200.000	-0.046	0.259
-468.186	299.480	-0.191	-0.450
-467.172	-98.108	-0.216	-0.070
-466.157	61.009	0.112	-0.141
-465.143	-58.693	-0.157	0.086
-464.128	-200.000	-0.033	0.197
-463.113	100.213	-0.156	-0.231
-462.099	-200.000	-0.026	0.491
-461.084	1.599	0.146	-0.134
-460.070	800.000	-0.085	0.426
-459.055	38.742	-0.269	0.305
-458.040	-66.081	-0.050	0.025
-457.026	-168.413	-0.170	0.008
-456.011	-21.296	-0.112	0.087
-454.997	-35.960	-0.332	-0.228
-453.982	-74.340	-0.491	0.224
-452.968	-54.143	-0.146	-0.084
-451.953	-13.547	0.133	-0.109
-450.938	800.000	-0.051	0.242
-449.924	427.686	0.140	0.387
-448.909	-191.167	0.560	-0.007
-447.895	-200.000	0.016	0.166
-446.880	-11.264	-0.284	-0.237
-445.865	290.980	-0.018	0.042
-444.851	-39.015	0.117	0.078
-443.836	-71.457	0.111	0.052
-442.822	-200.000	0.013	0.451
-441.807	-200.000	-0.123	0.766
-440.792	632.696	-0.056	0.180
-439.778	387.497	-0.080	0.212
-438.763	59.022	-0.054	-0.067
-437.749	-27.137	0.213	-0.157
-436.734	360.962	0.095	-0.244
-435.719	-52.753	-0.226	0.132
-434.705	47.150	0.020	-0.023
-433.690	-52.474	0.123	-0.072
-432.676	-149.085	0.202	0.020
-431.661	-38.987	-0.392	0.261
-430.646	163.293	0.148	0.265
-429.632	-156.286	0.489	-0.038
-428.617	25.997	0.263	0.278
-427.603	115.475	-0.133	-0.206
-426.588	-30.044	0.272	-0.196
-425.573	800.000	0.113	-0.440
-424.559	61.239	-0.080	0.101
-423.544	30.793	0.118	-0.129
-422.530	121.403	-0.035	0.055
-421.515	116.829	-0.130	-0.204
-420.500	-44.369	-0.091	-0.058
-419.486	-47.851	0.090	0.055
-418.471	-8.427	0.196	0.167
-417.457	-25.324	-0.455	-0.341
-416.442	-83.278	-0.319	0.129
-415.428	800.000	-0.073	0.284
-414.413	800.000	-0.121	0.450
-413.398	-82.457	0.102	0.042
-412.384	-61.207	0.221	-0.118
-411.369	-22.107	0.230	-0.177
-410.355	-107.273	0.145	0.040
-409.340	157.092	-0.206	-0.362
-408.325	-15.666	-0.591	-0.477
-407.311	-68.317	0.046	-0.023
-406.296	-46.948	0.218	0.135
-405.282	432.044	0.044	0.121
-404.267	82.313	0.347	-0.478
-403.252	-103.290	-0.184	0.055
-402.238	85.029	-0.424	-0.591
-401.223	37.322	0.232	-0.260
-400.209	-102.022	0.566	0.172
-399.194	-23.664	0.390	-0.296
-398.179	800.000	0.130	0.474
-397.165	800.000	0.115	0.563
-396.150	748.399	-0.085	-0.293
-395.136	800.000	0.060	-0.260
-394.121	182.080	0.154	0.288
-393.106	800.000	-0.068	-0.273
-392.092	-121.625	0.237	-0.049
-391.077	610.318	-0.084	0.267
-390.063	-200.000	-0.030	-0.179
-389.048	119.961	0.078	-0.123
-388.033	31.122	0.166	0.180
-387.019	-200.000	0.027	-0.175
-386.004	36.200	-0.203	-0.227
-384.990	-17.814	0.456	-0.362
-383.975	69.972	-0.019	-0.025
-382.960	-200.000	-0.027	-0.334
-381.946	800.000	-0.061	0.266
-380.931	-95.970	-0.243	-0.081
-379.917	662.372	0.165	-0.542
-378.902	-200.000	-0.011	-0.123
-377.888	210.648	0.083	-0.166
-376.873	800.000	0.119	-0.537
-375.858	-135.557	-0.282	-0.042
-374.844	113.360	-0.100	0.154
-373.829	-200.000	0.012	0.191
-372.815	208.260	0.246	0.488
-371.800	800.000	-0.023	0.112
-370.785	-26.762	0.140	0.104
-369.771	-200.000	-0.056	-0.432
-368.756	-200.000	-0.023	-0.192
-367.742	64.574	-0.187	-0.239
-366.727	-84.716	-0.245	0.097
-365.712	104.315	0.239	-0.357
-364.698	-159.054	0.316	0.022
-363.683	800.000	-0.037	0.186
-362.669	-200.000	0.055	0.526
-361.654	-92.727	0.528	-0.186
-360.639	543.071	0.034	-0.104
-359.625	11.259	0.436	0.422
-358.610	-147.721	0.304	-0.032
-357.596	-22.101	0.207	-0.159
-356.581	-200.000	0.116	0.000
-355.566	-64.876	0.248	-0.126
-354.552	-59.020	-0.039	0.021
-353.537	-148.866	-0.545	0.055
-352.523	-56.998	-0.245	0.136
-351.508	800.000	0.085	-0.341
-350.493	800.000	-0.164	-0.695
-349.479	-29.647	-0.385	-0.278
-348.464	-61.136	0.409	-0.218
-347.450	-122.096	-0.169	0.035
-346.435	299.045	0.027	-0.064
-345.420	-183.633	0.205	-0.004
-344.406	-142.353	0.332	0.041
-343.391	-29.906	-0.215	0.155
-342.377	94.199	0.012	0.017
-341.362	193.650	0.190	-0.365
-340.348	-85.489	-0.110	-0.043
-339.333	-0.348	0.285	-0.256
-338.318	-110.632	-0.556	-0.144
-337.304	-129.480	-0.470	0.082
-336.289	-200.000	-0.065	0.389
-335.275	-75.004	0.421	0.190
-334.260	177.268	-0.251	0.464
-333.245	56.927	-0.227	0.279
-332.231	-90.371	0.505	0.184
-331.216	336.522	0.050	-0.123
-330.202	-200.000	-0.029	0.257
-329.187	-26.768	0.164	-0.121
-328.172	-116.808	-0.261	0.060
-327.158	138.440	-0.211	-0.351
-326.143	-200.000	-0.006	0.410
-325.129	307.349	-0.098	-0.232
-324.114	360.495	-0.076	-0.192
-323.099	36.698	0.136	-0.152
-322.085	-121.207	0.648	0.136
-321.070	-39.020	-0.045	0.030
-320.056	129.293	0.169	-0.274
-319.041	-200.000	0.021	0.182
-318.026	-12.097	-0.122	-0.101
-317.012	266.341	-0.254	-0.562
-315.997	271.247	-0.012	0.026
-314.983	-200.000	-0.064	-0.570
-313.968	-143.163	-0.588	-0.071
-312.953	-165.374	-0.174	0.009
-311.939	-143.055	0.196	0.024
-310.924	-136.876	-0.396	-0.057
-309.910	-43.364	-0.166	-0.105
-308.895	-72.463	-0.261	0.121
-307.880	800.000	-0.138	-0.501
-306.866	-90.085	0.486	0.178
-305.851	-74.687	-0.064	-0.029
-304.837	-43.029	0.282	0.180
-303.822	-3.365	0.054	0.047
-302.807	-200.000	0.048	-0.309
-301.793	-9.972	-0.259	-0.218
-300.778	35.132	-0.211	0.233
-299.764	-77.427	-0.404	0.176
-298.749	-47.139	-0.250	-0.153
-297.735	260.352	0.167	0.365
-296.720	-4.384	-0.160	0.140
-295.705	249.524	-0.210	-0.451
-294.691	-34.602	-0.149	-0.103
-293.676	-143.236	0.337	0.040
-292.662	-55.699	0.152	-0.086
-291.647	775.599	0.143	0.498
-290.632	260.704	0.059	0.129
-289.618	20.236	-0.285	-0.291
-288.603	-115.469	0.303	0.072
-287.589	-67.636	0.166	0.082
-286.574	-31.345	0.343	-0.243
-285.559	-59.454	0.231	-0.125
-284.545	800.000	-0.078	-0.329
-283.530	-22.249	0.306	-0.234
-282.516	-147.908	0.310	0.032
-281.501	406.656	-0.094	-0.252
-280.486	-11.844	0.101	0.083
-279.472	387.117	-0.130	0.342
-278.457	-112.413	-0.296	-0.074
-277.443	-101.418	0.368	-0.113
-276.428	223.529	-0.082	0.168
-275.413	378.494	-0.064	-0.167
-274.399	-200.000	0.028	0.170
-273.384	-90.822	0.498	0.180
-272.370	-200.000	-0.030	0.191
-271.355	92.648	-0.062	0.089
-270.340	83.128	0.208	0.286
-269.326	-2.675	0.469	0.414
-268.311	241.671	0.096	0.203
-267.297	-38.451	0.633	0.422
-266.282	77.556	0.185	0.248
-265.267	-110.323	0.077	-0.020
-264.253	-178.177	0.364	0.011
-263.238	16.033	-0.062	0.062
-262.224	97.756	0.117	-0.170
-261.209	154.158	0.108	0.187
-260.195	332.199	0.147	0.361
-259.180	218.725	0.088	-0.178
-258.165	-123.768	0.399	0.079
-257.151	-129.655	-0.593	0.102
-256.136	-66.711	0.210	-0.105
-255.122	-138.421	0.367	-0.050
-254.107	-40.414	-0.161	-0.105
-253.092	-105.395	-0.448	0.128
-252.078	568.916	0.128	-0.393
-251.063	-113.093	0.196	0.049
-250.049	-9.482	-0.190	0.159
-249.034	800.000	-0.005	-0.024
-248.019	434.183	-0.011	0.029
-247.005	-74.147	0.095	0.043
-245.990	-163.283	0.528	-0.031
-244.976	-97.421	0.497	-0.162
-243.961	-102.458	0.469	-0.141
-242.946	-46.065	-0.257	0.159
-241.932	-43.159	0.571	-0.364
-240.917	128.627	-0.366	-0.589
-239.903	-200.000	0.001	0.086
-238.888	-87.957	0.744	0.280
-237.873	6.406	-0.130	-0.121
-236.859	109.207	0.072	0.108
-235.844	-116.653	0.585	-0.134
-234.830	-95.820	0.532	-0.178
-233.815	-9.028	0.298	0.251
-232.800	74.616	-0.170	0.226
-231.786	284.719	0.111	-0.253
-230.771	-23.216	0.188	0.142
-229.757	-184.707	-0.171	-0.003
-228.742	1.583	0.157	-0.142
-227.727	199.669	0.108	0.210
-226.713	-124.690	-0.214	-0.041
-225.698	407.610	0.062	-0.165
-224.684	-119.035	-0.323	-0.071
-223.669	-146.799	-0.188	0.020
-222.655	-53.962	-0.126	0.072
-221.640	119.428	-0.090	0.140
-220.625	-83.001	-0.306	-0.124
-219.611	-200.000	-0.047	-0.672
-218.596	7.313	-0.254	-0.238
-217.582	-89.198	0.462	-0.171
-216.567	800.000	0.156	0.710
-215.552	-77.514	0.413	0.179
-214.538	-8.769	0.219	-0.185
-213.523	-159.153	0.448	0.031
-212.509	651.938	-0.133	0.431
-211.494	94.237	0.096	-0.138
-210.479	-63.995	-0.473	0.242
-209.465	-8.752	0.383	0.323
-208.450	-138.601	0.272	-0.037
-207.436	-20.884	0.200	-0.154
-206.421	-43.808	-0.323	0.204
-205.406	800.000	-0.079	-0.307
-204.392	-60.093	0.338	0.181
-203.377	-200.000	-0.038	0.286
-202.363	154.874	0.203	-0.352
-201.348	-19.226	0.061	0.048
-200.333	800.000	-0.032	0.137
-199.319	-103.475	-0.586	-0.172
-198.304	301.931	-0.092	-0.215
-197.290	36.575	-0.104	0.116
-196.275	-200.000	-0.018	0.268
-195.260	-200.000	-0.007	0.503
-194.246	-137.803	-0.147	0.021
-193.231	-104.465	-0.257	-0.074
-192.217	745.841	-0.064	-0.219
-191.202	23.687	-0.532	0.551
-190.187	-200.000	-0.004	0.187
-189.173	800.000	0.151	-0.763
-188.158	-116.695	0.808	0.185
-187.144	41.951	0.211	0.241
-186.129	312.480	0.115	0.272
-185.114	80.624	-0.228	0.309
-184.100	221.274	0.085	-0.172
-183.085	-158.315	0.455	-0.033
-182.071	-136.608	0.251	0.036
-181.056	800.000	0.055	0.255
-180.042	-79.601	0.223	-0.094
-179.027	-200.000	-0.045	-0.282
-178.012	-200.000	0.005	-0.060
-176.998	-200.000	-0.064	0.481
-175.983	800.000	-0.094	0.338
-174.969	-121.446	-0.139	0.029
-173.954	-200.000	0.009	0.109
-172.939	-198.416	0.388	0.003
-171.925	46.044	0.084	-0.098
-170.910	145.439	-0.111	-0.187
-169.896	166.355	-0.300	-0.535
-168.881	639.515	-0.061	-0.197
-167.866	-42.002	-0.618	-0.397
-166.852	65.440	-0.208	-0.265
-165.837	-200.000	-0.027	-0.172
-164.823	-36.418	-0.201	-0.136
-163.808	-91.828	0.440	0.156
-162.793	141.914	-0.040	0.067
-161.779	-1.655	-0.062	-0.055
-160.764	-200.000	0.076	0.487
-159.750	-169.038	0.581	0.027
-158.735	82.825	-0.122	0.167
-157.720	339.890	0.091	0.223
-156.706	-126.143	0.572	-0.107
-155.691	800.000	-0.092	-0.401
-154.677	800.000	0.121	-0.479
-153.662	2.140	0.089	-0.081
-152.647	358.218	-0.112	0.281
-151.633	338.114	-0.084	-0.205
-150.618	-200.000	0.024	-0.198
-149.604	157.966	-0.121	-0.210
-148.589	70.215	-0.350	0.454
-147.574	0.993	-0.134	-0.120
-146.560	-128.267	0.361	0.064
-145.545	-77.202	-0.198	0.086
-144.531	-0.705	-0.189	0.168
-143.516	-119.752	-0.704	-0.151
-142.502	-98.566	0.427	-0.136
-141.487	-100.480	-0.295	0.091
-140.472	56.214	-0.209	-0.255
-139.458	113.412	0.196	-0.299
-138.443	-85.220	-0.365	-0.143
-137.429	9.479	-0.369	-0.350
-136.414	59.590	-0.190	-0.235
-135.399	-159.107	-0.109	-0.008
-134.385	-200.000	0.013	-0.170
-133.370	322.294	0.310	-0.745
-132.356	617.981	0.120	-0.381
-131.341	-70.295	-0.256	0.122
-130.326	451.394	0.105	-0.293
-129.312	-59.658	0.210	-0.112
-128.297	-169.400	0.169	-0.008
-127.283	-200.000	-0.060	0.585
-126.268	4.128	0.156	0.143
-125.253	634.699	-0.122	-0.390
-124.239	-67.392	0.186	0.091
-123.224	800.000	-0.099	0.519
-122.210	14.206	-0.252	0.246
