DTS Sentinel unit serial number:	SN409020Multiplexer serial number:	ORYXHardware model number:	OX4-SRSoftware version number:	ORYX F/W v3.00 Oryx Data Collector v3.7.2.0data status	okinstallation	HaddamTimeLapsedifferential loss correction	single-endedforward channel	channel 3reverse channel	N/Adate	2011/06/22time	00:11:17forward acquisition time	30.00reverse acquisition time	0.00gamma	498.7831k internal	0.1752k external	0.1752temperature offset calibration	1.0074default loss term (dB/km)	0.3790temperature slope calibration	1.3530multiplexer offset coefficient	1.0000multiplexer slope coefficient	1.0000fibre end	0.00T internal ref (°C)	22.81T ext. ref 1 (°C)	18.09T ext. ref 2 (°C)	0.05length (m)	temperature (°C)	Stokes	anti-Stokes-747.200	133.873	-0.054	-0.093
-746.185	-62.132	-0.780	0.431
-745.171	-200.000	-0.025	-0.258
-744.156	410.915	0.091	0.258
-743.142	-74.787	0.360	-0.171
-742.127	-33.954	-0.249	0.182
-741.112	72.569	0.125	-0.173
-740.098	30.122	0.223	0.253
-739.083	11.329	-0.152	0.155
-738.069	1.297	0.080	-0.076
-737.054	-200.000	-0.046	0.274
-736.039	-200.000	0.039	-0.448
-735.025	-193.484	0.071	-0.001
-734.010	45.616	0.183	-0.225
-732.996	800.000	-0.050	-0.277
-731.981	-92.835	0.290	0.107
-730.966	177.869	0.250	-0.485
-729.952	-22.041	0.233	0.188
-728.937	10.890	-0.666	0.675
-727.923	800.000	-0.048	-0.189
-726.908	800.000	-0.075	-0.306
-725.894	-200.000	-0.014	-0.299
-724.879	6.796	0.119	0.117
-723.864	-200.000	-0.001	0.056
-722.850	-200.000	-0.021	0.422
-721.835	800.000	-0.063	0.301
-720.821	471.815	-0.118	-0.356
-719.806	-81.101	-0.131	0.057
-718.791	71.725	-0.352	-0.485
-717.777	-41.569	-0.026	0.018
-716.762	-86.656	0.283	0.114
-715.748	-196.133	-0.135	0.001
-714.733	-158.172	-0.844	0.065
-713.718	-117.445	-0.566	-0.135
-712.704	394.184	-0.054	-0.149
-711.689	800.000	0.078	-0.380
-710.675	800.000	0.064	-0.273
-709.660	-64.762	0.447	-0.239
-708.645	167.480	0.157	0.297
-707.631	-50.606	0.172	0.107
-706.616	258.336	-0.104	0.238
-705.602	510.893	-0.084	-0.260
-704.587	-125.013	0.229	0.046
-703.572	-200.000	0.007	0.293
-702.558	-122.286	0.240	0.052
-701.543	-72.189	0.561	-0.275
-700.529	201.663	-0.095	-0.194
-699.514	196.415	-0.171	0.346
-698.499	424.780	0.065	-0.186
-697.485	-77.089	0.339	0.156
-696.470	-134.552	0.211	-0.034
-695.456	-79.891	0.300	0.133
-694.441	-88.359	-0.389	-0.153
-693.426	-123.698	0.137	0.029
-692.412	-46.711	0.390	0.252
-691.397	-127.605	0.240	0.046
-690.383	114.302	0.217	-0.350
-689.368	-93.724	0.332	0.120
-688.354	143.857	-0.223	0.394
-687.339	-149.138	-0.255	0.027
-686.324	-3.622	0.011	0.010
-685.310	-116.431	0.114	0.028
-684.295	-80.848	0.207	-0.090
-683.281	104.423	-0.216	0.337
-682.266	-30.847	-0.444	0.331
-681.251	-136.696	-0.420	-0.064
-680.237	237.434	0.135	0.298
-679.222	47.120	0.486	0.599
-678.208	800.000	0.135	0.495
-677.193	-137.517	-0.128	-0.019
-676.178	-170.487	-0.403	0.018
-675.164	-200.000	-0.066	-0.440
-674.149	-22.292	0.072	0.058
-673.135	-41.845	0.194	0.131
-672.120	436.408	-0.093	-0.270
-671.105	-20.924	-0.295	0.239
-670.091	-98.586	-0.129	0.043
-669.076	-200.000	-0.028	0.256
-668.062	800.000	0.021	0.100
-667.047	452.767	-0.188	-0.553
-666.032	-200.000	-0.042	0.346
-665.018	65.224	-0.320	-0.429
-664.003	191.197	0.172	-0.344
-662.989	333.548	-0.125	-0.322
-661.974	512.594	0.116	-0.359
-660.959	-12.907	0.521	-0.448
-659.945	-200.000	0.002	-0.068
-658.930	-27.038	-0.012	-0.009
-657.916	-25.638	0.570	0.444
-656.901	9.416	0.239	-0.239
-655.886	44.107	-0.209	0.254
-654.872	-158.909	-0.407	-0.030
-653.857	-66.082	0.058	-0.030
-652.843	69.060	0.402	-0.547
-651.828	-1.216	-0.177	0.166
-650.814	-200.000	0.026	0.271
-649.799	-51.450	-0.105	0.065
-648.784	290.809	0.126	0.304
-647.770	68.578	0.152	0.207
-646.755	-152.964	-0.210	-0.019
-645.741	-200.000	0.017	0.116
-644.726	203.395	0.049	-0.101
-643.711	555.827	0.107	-0.343
-642.697	-69.180	0.083	-0.042
-641.682	-200.000	-0.006	-0.301
-640.668	12.195	-0.398	-0.405
-639.653	-147.468	0.568	-0.063
-638.638	-117.957	-0.337	0.079
-637.624	-179.187	0.329	-0.010
-636.609	157.783	0.062	0.114
-635.595	151.284	0.068	-0.123
-634.580	-31.882	-0.484	-0.358
-633.565	182.374	-0.075	0.146
-632.551	92.351	0.105	0.157
-631.536	-158.220	0.007	0.001
-630.522	-125.785	0.392	-0.078
-629.507	800.000	-0.089	-0.417
-628.492	118.685	-0.173	-0.282
-627.478	-193.553	-0.220	-0.002
-626.463	436.842	0.195	-0.564
-625.449	13.689	-0.129	-0.132
-624.434	-32.664	0.366	-0.268
-623.419	-176.316	-0.204	-0.007
-622.405	-39.065	-0.352	0.244
-621.390	290.130	-0.012	-0.029
-620.376	-92.648	0.117	-0.043
-619.361	45.812	0.177	-0.217
-618.346	-173.442	-0.602	0.024
-617.332	800.000	-0.042	-0.156
-616.317	-200.000	-0.012	-0.159
-615.303	81.490	0.099	-0.142
-614.288	-65.862	0.278	-0.146
-613.273	-200.000	0.050	0.430
-612.259	-112.622	-0.253	-0.066
-611.244	-106.761	-0.149	-0.043
-610.230	-200.000	0.001	0.072
-609.215	448.832	0.083	-0.243
-608.201	-200.000	0.005	0.133
-607.186	49.128	0.152	-0.189
-606.171	-80.478	-0.361	0.158
-605.157	-200.000	-0.030	-0.275
-604.142	-16.828	-0.311	-0.259
-603.128	268.896	-0.086	-0.200
-602.113	-61.216	0.314	-0.174
-601.098	-125.231	-0.527	-0.106
-600.084	-24.040	0.186	-0.147
-599.069	-200.000	-0.020	-0.223
-598.055	88.581	-0.172	-0.252
-597.040	69.891	-0.102	0.139
-596.025	-200.000	-0.059	0.415
-595.011	-51.882	0.496	-0.303
-593.996	-125.321	-0.347	-0.069
-592.982	46.331	0.179	-0.219
-591.967	150.323	-0.163	-0.293
-590.952	-120.588	0.238	0.053
-589.938	-41.751	0.171	-0.116
-588.923	-109.068	-0.619	-0.173
-587.909	-108.072	0.244	0.069
-586.894	-78.699	-0.040	0.018
-585.879	261.953	-0.186	0.428
-584.865	-75.078	-0.242	0.114
-583.850	-79.326	-0.056	0.025
-582.836	-200.000	0.004	0.343
-581.821	800.000	-0.112	0.454
-580.806	233.828	0.014	0.030
-579.792	307.412	-0.096	0.238
-578.777	132.464	0.158	-0.270
-577.763	18.768	0.104	-0.109
-576.748	-39.483	-0.175	-0.121
-575.733	10.140	-0.251	-0.252
-574.719	800.000	-0.059	-0.263
-573.704	24.562	0.309	0.337
-572.690	34.343	-0.035	0.040
-571.675	-200.000	0.051	-0.314
-570.661	-165.433	-0.201	0.011
-569.646	-8.963	-0.153	-0.135
-568.631	-121.128	0.222	0.049
-567.617	15.727	0.148	0.154
-566.602	-45.301	-0.103	-0.067
-565.588	-94.302	0.158	0.057
-564.573	-28.992	-0.124	-0.093
-563.558	-118.450	-0.334	0.077
-562.544	-200.000	0.006	0.462
-561.529	-76.140	-0.274	-0.127
-560.515	-200.000	-0.059	-0.428
-559.500	-10.408	0.246	0.215
-558.485	800.000	-0.019	0.092
-557.471	-200.000	0.050	0.292
-556.456	-200.000	0.002	0.263
-555.442	-200.000	0.011	0.163
-554.427	-200.000	0.005	0.030
-553.412	36.800	0.190	-0.221
-552.398	800.000	0.005	-0.027
-551.383	177.385	-0.034	0.065
-550.369	-4.428	0.302	0.275
-549.354	161.058	-0.273	0.504
-548.339	-24.363	0.215	0.168
-547.325	-200.000	0.016	0.476
-546.310	-200.000	0.041	-0.392
-545.296	-117.871	-0.386	-0.091
-544.281	226.081	0.184	0.394
-543.266	63.269	-0.190	0.251
-542.252	305.392	-0.054	-0.132
-541.237	-200.000	0.064	-0.613
-540.223	-59.289	-0.830	-0.469
-539.208	468.793	0.024	0.073
-538.193	-55.800	0.346	-0.203
-537.179	-200.000	-0.090	0.672
-536.164	-145.705	0.219	-0.026
-535.150	561.273	-0.034	0.108
-534.135	-189.570	-0.455	0.007
-533.121	-66.169	-0.317	0.166
-532.106	-146.879	0.541	0.061
-531.091	-120.779	-0.376	0.083
-530.077	-94.397	-0.228	-0.081
-529.062	1.276	0.258	0.244
-528.048	-116.757	-0.258	0.062
-527.033	279.424	0.181	0.428
-526.018	81.485	-0.234	-0.334
-525.004	97.263	-0.162	-0.245
-523.989	-141.912	-0.538	0.070
-522.975	123.295	-0.040	0.066
-521.960	-129.952	0.490	-0.088
-520.945	-48.392	0.190	-0.120
-519.931	800.000	-0.083	-0.441
-518.916	-125.157	-0.199	0.040
-517.902	120.384	0.244	-0.399
-516.887	599.325	-0.053	-0.174
-515.872	-183.011	-0.092	-0.002
-514.858	758.686	-0.111	0.398
-513.843	-170.140	0.208	-0.010
-512.829	400.815	-0.053	0.147
-511.814	-197.434	-0.285	-0.002
-510.799	-123.983	-0.356	0.073
-509.785	-17.836	0.178	0.147
-508.770	-200.000	-0.020	-0.157
-507.756	36.572	-0.183	0.213
-506.741	-103.137	-0.305	0.094
-505.726	151.787	-0.268	0.481
-504.712	65.371	0.051	-0.067
-503.697	800.000	0.051	0.279
-502.683	800.000	0.065	-0.343
-501.668	11.908	0.140	0.141
-500.653	414.468	-0.234	-0.658
-499.639	-23.514	0.255	-0.201
-498.624	64.315	-0.234	-0.311
-497.610	-156.851	-0.161	0.013
-496.595	220.808	0.091	-0.193
-495.581	-80.852	-0.602	-0.261
-494.566	-48.808	-0.205	0.129
-493.551	-109.539	0.756	-0.208
-492.537	292.661	-0.119	0.287
-491.522	186.023	0.254	0.498
-490.508	-18.607	0.184	0.150
-489.493	49.899	-0.202	0.251
-488.478	-173.133	-0.405	-0.016
-487.464	-120.524	0.402	-0.089
-486.449	800.000	-0.010	0.057
-485.435	-81.066	-0.198	-0.086
-484.420	169.663	-0.238	0.449
-483.405	-66.129	-0.503	0.262
-482.391	800.000	0.073	0.302
-481.376	-76.793	0.113	-0.052
-480.362	-15.228	-0.278	-0.233
-479.347	-200.000	-0.014	0.100
-478.332	87.586	0.501	0.730
-477.318	-0.290	0.076	-0.071
-476.303	35.752	-0.283	-0.327
-475.289	-61.477	0.464	0.255
-474.274	-133.810	0.282	0.046
-473.259	8.050	-0.227	-0.224
-472.245	-171.351	0.581	0.025
-471.230	305.062	0.040	-0.097
-470.216	-200.000	-0.034	0.318
-469.201	4.023	-0.366	0.352
-468.186	48.206	-0.176	0.216
-467.172	800.000	0.042	-0.222
-466.157	-103.987	0.123	0.037
-465.143	223.664	-0.146	0.311
-464.128	340.248	-0.044	0.114
-463.113	536.245	-0.077	-0.242
-462.099	116.897	-0.093	-0.151
-461.084	-120.744	-0.528	0.116
-460.070	65.589	-0.149	-0.198
-459.055	-38.416	-0.333	0.231
-458.040	311.850	-0.105	-0.259
-457.026	-101.259	0.195	-0.062
-456.011	9.195	-0.172	-0.170
-454.997	516.946	-0.072	-0.223
-453.982	101.619	0.069	-0.106
-452.968	66.439	0.201	-0.268
-451.953	51.666	-0.310	-0.387
-450.938	-116.177	0.281	0.068
-449.924	-200.000	0.052	0.324
-448.909	-97.184	-0.299	0.102
-447.895	56.711	0.343	0.439
-446.880	-100.354	0.122	-0.040
-445.865	66.663	-0.152	-0.204
-444.851	320.273	-0.051	0.127
-443.836	64.390	0.302	0.399
-442.822	82.215	-0.075	-0.107
-441.807	22.150	0.075	-0.080
-440.792	-32.373	-0.320	-0.234
-439.778	-200.000	-0.392	0.000
-438.763	-79.779	-0.594	0.261
-437.749	136.019	0.191	-0.328
-436.734	24.091	-0.265	0.287
-435.719	-200.000	-0.049	0.294
-434.705	-117.016	0.136	-0.032
-433.690	-89.346	0.134	-0.051
-432.676	649.394	-0.075	0.253
-431.661	-14.263	-0.269	0.227
-430.646	-135.778	0.298	-0.046
-429.632	-127.108	-0.126	-0.024
-428.617	178.988	-0.156	-0.300
-427.603	-200.000	-0.020	0.167
-426.588	-115.746	-0.239	0.058
-425.573	397.366	-0.365	1.004
-424.559	-94.370	-0.565	0.201
-423.544	-39.058	-0.563	-0.387
-422.530	-12.560	-0.328	-0.280
-421.515	-45.941	0.344	0.222
-420.500	47.388	0.315	-0.385
-419.486	333.991	-0.149	-0.380
-418.471	52.544	-0.120	-0.150
-417.457	73.359	-0.377	-0.517
-416.442	681.639	0.101	-0.347
-415.428	-200.000	0.009	0.302
-414.413	-27.504	0.255	-0.194
-413.398	-17.318	-0.099	0.082
-412.384	-59.757	-0.323	0.181
-411.369	162.837	0.115	0.213
-410.355	-200.000	0.038	0.363
-409.340	-80.018	-0.187	-0.082
-408.325	348.820	-0.046	0.120
-407.311	-120.223	-0.154	-0.034
-406.296	-200.000	-0.041	-0.883
-405.282	-50.657	0.156	-0.096
-404.267	-61.093	0.336	-0.185
-403.252	-28.909	-0.222	-0.167
-402.238	-5.851	0.236	0.212
-401.223	-200.000	0.026	-0.429
-400.209	-80.411	-0.174	0.076
-399.194	48.675	-0.086	0.106
-398.179	-200.000	-0.002	0.164
-397.165	-76.687	-0.112	-0.051
-396.150	-161.443	0.133	-0.009
-395.136	-13.794	-0.128	0.108
-394.121	-200.000	-0.008	-0.074
-393.106	93.381	-0.238	-0.354
-392.092	-53.762	0.452	-0.269
-391.077	-62.850	0.168	-0.091
-390.063	800.000	0.118	0.585
-389.048	292.198	-0.158	0.378
-388.033	154.080	0.089	0.160
-387.019	108.535	0.141	0.221
-386.004	800.000	0.034	-0.155
-384.990	-134.249	-0.414	0.066
-383.975	-136.674	0.278	-0.042
-382.960	334.985	0.170	-0.433
-381.946	209.028	-0.039	0.081
-380.931	25.759	0.168	-0.183
-379.917	-83.384	0.156	-0.065
-378.902	-160.680	-0.342	0.023
-377.888	-25.900	-0.295	-0.227
-376.873	800.000	0.011	-0.057
-375.858	-163.147	-0.321	-0.020
-374.844	-144.110	0.849	0.103
-373.829	-196.345	-0.022	0.000
-372.815	-61.573	-0.243	-0.133
-371.800	-34.657	0.541	0.387
-370.785	-200.000	-0.049	-0.377
-369.771	-200.000	-0.001	-0.223
-368.756	-44.391	-0.294	0.192
-367.742	-84.081	-0.581	0.240
-366.727	-200.000	0.096	0.683
-365.712	245.088	0.049	-0.108
-364.698	101.948	0.137	-0.209
-363.683	114.704	0.373	-0.596
-362.669	-92.632	-0.417	-0.152
-361.654	207.857	0.103	-0.211
-360.639	-20.129	0.306	-0.246
-359.625	-200.000	0.002	-0.048
-358.610	-200.000	-0.006	0.391
-357.596	-166.651	-0.382	-0.020
-356.581	-200.000	0.017	0.148
-355.566	-75.042	0.264	0.123
-354.552	-123.528	0.697	0.144
-353.537	-66.766	0.356	0.184
-352.523	773.913	0.039	-0.139
-351.508	-200.000	0.021	0.402
-350.493	-3.200	0.129	-0.117
-349.479	114.958	-0.136	0.218
-348.464	800.000	0.035	-0.181
-347.450	290.792	-0.072	0.173
-346.435	-141.244	0.230	-0.030
-345.420	0.530	0.358	0.334
-344.406	-64.089	0.172	-0.091
-343.391	-92.670	-0.320	-0.117
-342.377	-80.323	-0.604	0.262
-341.362	-107.642	0.260	0.074
-340.348	-13.208	0.266	0.226
-339.333	-83.351	0.299	-0.125
-338.318	189.983	-0.156	-0.307
-337.304	-40.563	0.434	0.294
-336.289	800.000	0.011	-0.051
-335.275	108.501	0.157	0.245
-334.260	-140.109	-0.265	-0.036
-333.245	193.006	0.218	0.431
-332.231	-200.000	0.059	0.622
-331.216	241.419	0.252	0.553
-330.202	-70.705	0.282	0.139
-329.187	-200.000	0.006	-0.279
-328.172	-11.439	0.113	0.097
-327.158	49.795	0.088	-0.108
-326.143	254.338	0.262	-0.587
-325.129	-103.110	-0.210	-0.064
-324.114	-173.382	0.637	0.025
-323.099	-200.000	0.017	0.168
-322.085	800.000	-0.011	-0.059
-321.070	-135.032	-0.333	-0.052
-320.056	59.797	0.191	0.247
-319.041	529.015	-0.119	0.368
-318.026	-52.958	-0.233	-0.139
-317.012	210.325	0.050	0.102
-315.997	-103.846	0.049	-0.015
-314.983	110.603	0.183	0.288
-313.968	145.890	0.206	-0.361
-312.953	220.394	0.120	0.253
-311.939	-55.783	0.399	0.232
-310.924	51.226	0.288	-0.357
-309.910	800.000	0.115	-0.478
-308.895	247.053	0.056	-0.124
-307.880	-143.624	-0.150	0.018
-306.866	-112.543	0.370	0.096
-305.851	548.223	0.102	-0.320
-304.837	-63.118	0.220	0.118
-303.822	-95.245	-0.193	-0.067
-302.807	359.054	0.089	-0.234
-301.793	332.854	0.110	-0.278
-300.778	-121.051	0.321	-0.070
-299.764	-200.000	0.032	-0.532
-298.749	606.283	-0.164	-0.536
-297.735	244.660	0.101	0.221
-296.720	101.581	0.142	-0.216
-295.705	108.854	-0.241	-0.376
-294.691	148.752	-0.318	-0.562
-293.676	287.242	-0.118	-0.280
-292.662	-85.682	-0.351	-0.141
-291.647	690.376	-0.141	-0.486
-290.632	-54.742	0.250	0.147
-289.618	800.000	-0.063	0.351
-288.603	-194.328	-0.307	0.003
-287.589	16.563	0.234	-0.241
-286.574	197.917	-0.147	-0.293
-285.559	-103.664	-0.332	-0.101
-284.545	800.000	0.049	0.250
-283.530	-200.000	0.071	-0.541
-282.516	-65.409	-0.097	-0.051
-281.501	68.589	0.181	-0.242
-280.486	-34.640	-0.449	0.320
-279.472	-19.208	0.368	0.297
-278.457	119.388	-0.100	-0.161
-277.443	-141.262	0.590	0.077
-276.428	-124.415	-0.363	0.073
-275.413	-67.316	0.275	0.140
-274.399	20.186	0.201	-0.211
-273.384	0.984	0.094	-0.088
-272.370	-66.025	0.357	-0.185
-271.355	-79.283	-0.192	0.084
-270.340	432.056	0.251	0.714
-269.326	800.000	-0.062	0.228
-268.311	-95.917	-0.458	0.158
-267.297	-97.945	0.558	-0.187
-266.282	-76.499	-0.240	0.110
-265.267	-14.162	0.251	0.211
-264.253	49.858	0.262	-0.323
-263.238	-127.765	-0.182	-0.034
-262.224	-26.849	0.175	0.133
-261.209	-32.288	-0.288	0.209
-260.195	-200.000	-0.014	0.542
-259.180	173.030	0.200	0.376
-258.165	-86.884	-0.419	-0.166
-257.151	43.916	0.108	-0.129
-256.136	156.791	-0.158	0.285
-255.122	-200.000	-0.011	0.068
-254.107	-169.534	-0.296	-0.014
-253.092	-91.010	0.438	-0.163
-252.078	15.470	-0.226	-0.231
-251.063	104.058	0.313	0.479
-250.049	203.336	-0.155	-0.313
-249.034	-200.000	-0.074	0.536
-248.019	-110.441	-0.205	0.055
-247.005	-132.935	0.203	0.033
-245.990	-127.637	-0.083	-0.015
-244.976	-82.800	-0.053	-0.022
-243.961	-200.000	0.019	0.210
-242.946	-79.596	0.261	0.114
-241.932	-200.000	0.003	-0.186
-240.917	62.195	0.377	0.490
-239.903	228.429	-0.184	-0.392
-238.888	-188.512	0.471	0.007
-237.873	-200.000	-0.049	0.284
-236.859	-196.736	-0.364	-0.003
-235.844	-13.651	0.445	0.374
-234.830	86.348	0.054	0.077
-233.815	23.474	0.201	0.215
-232.800	-100.022	0.166	-0.053
-231.786	25.937	-0.209	0.227
-230.771	64.943	0.260	0.342
-229.757	-200.000	0.006	0.487
-228.742	-105.355	0.224	-0.066
-227.727	-82.223	-0.250	-0.106
-226.713	-90.741	0.535	-0.200
-225.698	-16.975	-0.373	-0.306
-224.684	769.710	0.105	0.375
-223.669	-13.627	0.112	0.095
-222.655	800.000	-0.014	-0.072
-221.640	399.100	-0.067	0.184
-220.625	-87.584	0.063	0.024
-219.611	800.000	-0.071	-0.284
-218.596	-92.262	-0.218	0.080
-217.582	648.155	0.052	0.175
-216.567	29.077	-0.397	-0.438
-215.552	74.022	-0.295	-0.403
-214.538	245.731	-0.227	-0.498
-213.523	82.364	0.021	-0.029
-212.509	48.861	0.413	-0.504
-211.494	-110.684	0.567	0.151
-210.479	-80.533	-0.657	-0.283
-209.465	-152.167	-0.302	-0.028
-208.450	135.261	0.130	0.219
-207.436	-174.035	-0.251	0.009
-206.421	31.155	0.417	0.465
-205.406	3.733	0.333	-0.316
-204.392	-96.487	0.349	-0.119
-203.377	-200.000	-0.024	0.533
-202.363	18.586	-0.148	-0.154
-201.348	-200.000	0.008	-0.071
-200.333	128.625	0.067	0.111
-199.319	-39.735	-0.082	-0.056
-198.304	-200.000	0.031	-0.367
-197.290	117.189	-0.097	0.155
-196.275	-16.298	-0.166	-0.137
-195.260	82.440	0.283	0.399
-194.246	46.537	-0.241	0.291
-193.231	46.730	0.247	-0.298
-192.217	800.000	0.190	-0.700
-191.202	-125.240	0.393	0.077
-190.187	-105.959	-0.226	-0.066
-189.173	-96.516	0.377	0.129
-188.158	-40.832	0.382	0.256
-187.144	383.864	0.179	-0.482
-186.129	61.526	-0.041	-0.053
-185.114	-105.558	0.432	-0.126
-184.100	-200.000	-0.048	0.342
-183.085	-50.696	-0.017	-0.010
-182.071	-144.466	0.272	0.032
-181.056	-87.603	0.157	0.061
-180.042	-97.975	0.372	0.124
-179.027	-3.843	0.133	0.120
-178.012	75.515	-0.414	0.569
-176.998	800.000	-0.106	0.487
-175.983	14.108	0.230	-0.232
-174.969	322.914	0.080	0.198
-173.954	154.718	0.045	0.080
-172.939	-130.999	-0.562	0.097
-171.925	-64.851	-0.203	0.106
-170.910	800.000	0.151	-0.604
-169.896	24.774	-0.179	0.193
-168.881	263.260	0.119	0.270
-167.866	800.000	0.055	0.212
-166.852	800.000	0.012	0.059
-165.837	-82.401	-0.359	-0.151
-164.823	800.000	0.046	0.200
-163.808	154.995	0.319	-0.570
-162.793	800.000	-0.037	0.177
-161.779	-102.700	-0.154	-0.047
-160.764	117.107	0.153	0.244
-159.750	-63.212	-0.330	-0.176
-158.735	140.016	0.059	-0.101
-157.720	-144.866	0.730	-0.086
-156.706	-175.961	-0.345	-0.012
-155.691	800.000	-0.025	-0.095
-154.677	-118.691	0.669	-0.152
-153.662	-200.000	-0.039	-0.353
-152.647	91.848	-0.125	0.182
-151.633	158.625	0.058	0.105
-150.618	-200.000	0.041	0.292
-149.604	-200.000	-0.022	-0.307
-148.589	-69.785	0.138	0.068
-147.574	-19.913	-0.473	0.379
-146.560	-24.516	0.151	0.117
-145.545	732.208	-0.126	-0.439
-144.531	71.208	0.367	0.494
-143.516	-9.636	0.183	-0.158
-142.502	-62.276	-0.179	0.096
-141.487	-107.201	-0.360	0.102
-140.472	572.681	-0.081	0.257
-139.458	-62.952	-0.311	-0.166
-138.443	-133.287	-0.501	0.081
-137.429	635.543	0.032	0.107
-136.414	32.977	-0.203	0.228
-135.399	-72.414	-0.320	0.153
-134.385	33.512	-0.229	-0.258
-133.370	-153.249	0.091	0.008
-132.356	137.761	0.179	0.304
-131.341	-200.000	0.000	0.264
-130.326	-105.769	0.495	0.144
-129.312	103.559	0.270	0.412
-128.297	-200.000	0.115	-0.752
-127.283	43.026	-0.099	0.117
-126.268	-124.176	0.498	-0.100
-125.253	-1.758	-0.264	0.241
-124.239	-130.541	0.240	-0.042
-123.224	-150.979	0.318	0.031
-122.210	800.000	-0.085	-0.344
-121.195	-35.929	-0.148	-0.103
