DTS Sentinel unit serial number:	SN409020Multiplexer serial number:	ORYXHardware model number:	OX4-SRSoftware version number:	ORYX F/W v3.00 Oryx Data Collector v3.7.2.0data status	okinstallation	HaddamTimeLapsedifferential loss correction	single-endedforward channel	channel 3reverse channel	N/Adate	2011/06/22time	06:36:17forward acquisition time	30.00reverse acquisition time	0.00gamma	498.7831k internal	0.1751k external	0.1751temperature offset calibration	1.0074default loss term (dB/km)	0.3790temperature slope calibration	1.3530multiplexer offset coefficient	1.0000multiplexer slope coefficient	1.0000fibre end	0.00T internal ref (°C)	22.62T ext. ref 1 (°C)	18.53T ext. ref 2 (°C)	0.19length (m)	temperature (°C)	Stokes	anti-Stokes-747.200	253.755	0.025	-0.056
-746.185	232.319	-0.194	0.424
-745.171	-86.114	-0.157	-0.064
-744.156	228.546	0.201	0.437
-743.142	-52.019	-0.139	-0.086
-742.127	48.525	-0.158	0.197
-741.112	-83.774	0.460	-0.194
-740.098	-112.689	-0.451	0.118
-739.083	-131.569	-1.286	0.223
-738.069	-180.012	-0.398	-0.011
-737.054	-37.168	-0.368	-0.261
-736.039	800.000	-0.026	0.132
-735.025	-200.000	-0.037	0.256
-734.010	-152.558	-0.479	0.045
-732.996	775.153	0.131	-0.476
-731.981	-46.795	-0.136	-0.088
-730.966	-200.000	0.012	-0.339
-729.952	43.939	0.188	-0.228
-728.937	75.855	-0.043	0.060
-727.923	800.000	0.091	-0.450
-726.908	800.000	-0.077	-0.411
-725.894	113.075	0.100	-0.162
-724.879	-40.288	-0.179	0.123
-723.864	-200.000	-0.022	0.269
-722.850	290.960	0.206	-0.499
-721.835	-148.864	-0.684	0.072
-720.821	-106.475	-0.033	-0.010
-719.806	-62.293	0.288	0.158
-718.791	24.658	-0.191	-0.210
-717.777	-159.570	-0.293	-0.021
-716.762	19.598	-0.274	0.292
-715.748	20.553	-0.459	0.492
-714.733	-22.836	0.446	0.357
-713.718	288.227	0.088	0.213
-712.704	22.165	-0.116	-0.125
-711.689	-65.171	-0.733	0.390
-710.675	-151.583	-0.414	0.040
-709.660	50.046	-0.093	0.116
-708.645	569.796	-0.040	0.130
-707.631	-134.452	-0.334	0.054
-706.616	193.432	0.197	-0.396
-705.602	-90.480	0.345	0.132
-704.587	-56.476	0.333	0.195
-703.572	7.258	0.220	0.218
-702.558	-59.983	0.486	0.274
-701.543	-11.980	-0.450	-0.390
-700.529	649.200	-0.193	-0.659
-699.514	-200.000	-0.009	-0.095
-698.499	-200.000	-0.006	-0.186
-697.485	-21.904	0.173	0.139
-696.470	-149.354	0.452	-0.047
-695.456	307.790	0.139	-0.345
-694.441	330.753	-0.053	-0.136
-693.426	-127.312	-0.184	0.035
-692.412	-200.000	0.121	0.714
-691.397	-200.000	0.032	-0.246
-690.383	-102.403	-0.207	0.065
-689.368	-200.000	-0.008	-0.288
-688.354	354.259	-0.099	-0.261
-687.339	-200.000	0.012	-0.163
-686.324	75.485	-0.088	-0.124
-685.310	-79.878	-0.218	-0.097
-684.295	-200.000	0.007	-0.085
-683.281	-36.039	0.450	0.321
-682.266	-0.786	0.380	0.357
-681.251	-84.996	0.176	-0.073
-680.237	571.597	0.072	-0.234
-679.222	800.000	0.081	0.318
-678.208	-113.979	0.093	-0.024
-677.193	-200.000	0.052	-0.781
-676.178	746.929	0.056	0.203
-675.164	-94.668	-0.262	0.094
-674.149	-197.309	-0.216	0.002
-673.135	-97.477	-0.316	0.108
-672.120	82.050	-0.211	-0.303
-671.105	-17.290	-0.338	-0.282
-670.091	105.541	-0.217	-0.341
-669.076	43.346	-0.111	-0.135
-668.062	215.899	0.130	0.274
-667.047	-72.587	-0.456	-0.222
-666.032	-162.608	0.334	-0.021
-665.018	33.458	0.172	-0.198
-664.003	244.986	0.204	-0.455
-662.989	-22.854	-0.020	-0.016
-661.974	33.290	0.260	0.298
-660.959	-77.049	-0.383	-0.176
-659.945	-91.749	-0.380	-0.142
-658.930	-10.174	-0.244	0.214
-657.916	633.835	0.054	0.181
-656.901	-139.780	-0.254	0.035
-655.886	-15.922	0.174	-0.146
-654.872	131.956	-0.223	0.380
-653.857	96.293	-0.154	-0.234
-652.843	136.847	-0.291	-0.504
-651.828	-49.365	-0.106	-0.067
-650.814	105.643	-0.111	-0.173
-649.799	312.427	0.142	0.355
-648.784	-18.223	0.211	-0.174
-647.770	690.905	0.115	0.401
-646.755	800.000	0.082	-0.335
-645.741	-48.021	-0.323	-0.206
-644.726	800.000	-0.128	0.490
-643.711	99.683	-0.154	0.236
-642.697	145.042	-0.144	0.255
-641.682	48.123	0.113	-0.140
-640.668	-50.228	0.508	-0.317
-639.653	27.267	-0.159	-0.176
-638.638	-149.860	-0.195	0.020
-637.624	-162.816	-0.322	-0.020
-636.609	-200.000	-0.012	-0.550
-635.595	-108.786	-0.620	-0.174
-634.580	800.000	0.058	0.255
-633.565	346.886	-0.132	-0.346
-632.551	-132.481	0.346	-0.058
-631.536	-116.499	0.329	-0.080
-630.522	-69.897	-0.264	-0.133
-629.507	-200.000	0.064	0.409
-628.492	307.984	-0.033	-0.082
-627.478	-57.618	-0.117	-0.068
-626.463	-1.402	0.289	0.269
-625.449	-125.243	-0.391	0.078
-624.434	112.790	-0.045	0.073
-623.419	410.244	0.133	-0.375
-622.405	-7.252	0.276	-0.247
-621.390	132.712	-0.215	0.367
-620.376	-94.416	0.294	-0.105
-619.361	70.999	0.213	0.291
-618.346	-200.000	0.040	0.426
-617.332	-9.218	0.399	-0.352
-616.317	454.027	0.141	-0.415
-615.303	233.415	-0.343	-0.748
-614.288	800.000	-0.067	0.280
-613.273	800.000	0.051	-0.295
-612.259	53.433	0.209	-0.265
-611.244	143.911	-0.070	-0.124
-610.230	-200.000	0.121	-0.729
-609.215	-52.914	-0.530	0.321
-608.201	-151.444	-0.326	0.032
-607.186	-178.065	-0.304	0.009
-606.171	800.000	-0.029	0.155
-605.157	145.309	0.098	-0.174
-604.142	-200.000	0.034	-0.519
-603.128	-89.774	0.226	0.087
-602.113	-52.368	-0.101	0.061
-601.098	-162.720	-0.207	-0.013
-600.084	27.623	0.155	0.172
-599.069	-60.439	0.530	-0.297
-598.055	35.571	-0.246	0.286
-597.040	-160.940	-0.260	-0.018
-596.025	-12.167	0.096	-0.083
-595.011	554.984	0.091	0.292
-593.996	-66.100	-0.114	-0.060
-592.982	-98.740	0.381	-0.127
-591.967	58.949	0.169	0.219
-590.952	-72.403	-0.179	0.087
-589.938	114.845	0.053	0.085
-588.923	-200.000	-0.012	-0.152
-587.909	412.767	-0.066	0.187
-586.894	-65.758	-0.153	0.080
-585.879	-75.156	0.452	-0.212
-584.865	259.359	-0.143	0.327
-583.850	-200.000	-0.022	0.292
-582.836	-137.944	0.258	0.038
-581.821	-140.440	-0.226	0.031
-580.806	94.788	0.241	0.362
-579.792	-65.522	0.373	-0.197
-578.777	-146.424	0.520	0.059
-577.763	-123.545	-0.193	0.040
-576.748	-120.112	0.201	0.045
-575.733	-8.707	-0.253	0.224
-574.719	-29.043	-0.348	-0.263
-573.704	38.660	0.288	-0.340
-572.690	-41.022	-0.126	-0.086
-571.675	-74.580	-0.446	-0.211
-570.661	-72.873	-0.032	-0.016
-569.646	-47.323	0.459	-0.294
-568.631	73.855	-0.204	0.282
-567.617	-0.440	0.216	0.203
-566.602	495.832	0.106	0.323
-565.588	-2.140	-0.291	-0.269
-564.573	-200.000	0.272	-0.000
-563.558	133.034	-0.216	-0.369
-562.544	14.158	-0.459	-0.472
-561.529	71.448	-0.144	-0.197
-560.515	72.474	0.096	-0.133
-559.500	42.243	-0.180	0.216
-558.485	-11.322	-0.113	-0.098
-557.471	-58.007	0.106	0.061
-556.456	-200.000	-0.015	0.130
-555.442	36.503	-0.085	0.098
-554.427	-104.699	0.058	0.018
-553.412	394.105	-0.096	-0.265
-552.398	80.393	0.026	-0.037
-551.383	-47.952	-0.148	0.094
-550.369	655.029	-0.074	0.252
-549.354	-52.018	-0.205	-0.125
-548.339	-17.886	-0.130	0.107
-547.325	-45.312	0.139	-0.091
-546.310	-132.802	-0.528	-0.088
-545.296	292.059	0.118	0.285
-544.281	125.945	-0.051	-0.085
-543.266	255.595	0.146	0.331
-542.252	18.427	-0.079	-0.083
-541.237	-106.226	-0.372	-0.109
-540.223	300.206	-0.233	-0.569
-539.208	43.228	-0.170	-0.205
-538.193	224.894	0.099	0.211
-537.179	-86.419	-0.159	0.064
-536.164	-51.134	0.254	-0.156
-535.150	800.000	-0.050	-0.282
-534.135	-135.976	-0.441	0.068
-533.121	154.381	-0.272	-0.494
-532.106	402.722	0.050	0.139
-531.091	-82.307	-0.110	0.047
-530.077	137.522	-0.117	0.202
-529.062	-8.707	-0.372	-0.328
-528.048	800.000	0.052	0.262
-527.033	-200.000	-0.010	-0.164
-526.018	800.000	-0.029	-0.134
-525.004	-37.893	-0.397	-0.277
-523.989	-19.986	0.178	-0.144
-522.975	-129.080	0.217	-0.040
-521.960	-124.730	-0.289	0.058
-520.945	128.089	0.192	0.323
-519.931	-108.886	-0.287	-0.080
-518.916	-110.452	-0.198	0.054
-517.902	-32.139	0.223	-0.164
-516.887	-200.000	0.059	0.566
-515.872	18.950	-0.353	-0.372
-514.858	-200.000	0.056	-0.497
-513.843	34.463	0.069	0.080
-512.829	-158.908	0.125	-0.009
-511.814	24.134	-0.060	0.065
-510.799	-32.053	0.190	-0.140
-509.785	114.527	-0.306	-0.491
-508.770	75.360	-0.252	-0.350
-507.756	800.000	0.058	-0.241
-506.741	-144.328	0.263	0.032
-505.726	39.679	0.106	0.125
-504.712	63.740	0.149	-0.198
-503.697	-200.000	0.005	-0.113
-502.683	19.525	-0.286	0.302
-501.668	41.486	-0.336	-0.400
-500.653	800.000	0.055	-0.213
-499.639	-21.814	0.264	0.211
-498.624	-28.381	-0.274	0.207
-497.610	-77.068	-0.249	-0.114
-496.595	-44.459	0.135	-0.088
-495.581	-200.000	-0.048	0.330
-494.566	-78.591	0.320	0.143
-493.551	-125.818	0.220	0.043
-492.537	-116.385	-0.537	0.130
-491.522	-85.704	-0.124	-0.050
-490.508	-200.000	0.001	0.196
-489.493	-200.000	0.007	0.237
-488.478	-64.068	-1.027	0.549
-487.464	-168.323	-0.265	-0.013
-486.449	176.872	0.183	0.352
-485.435	270.146	0.040	0.092
-484.420	-1.942	0.097	0.090
-483.405	-59.650	-0.138	-0.077
-482.391	147.639	0.159	0.283
-481.376	766.982	-0.104	0.373
-480.362	-155.265	0.185	-0.016
-479.347	-65.033	0.191	0.101
-478.332	-134.073	0.309	-0.050
-477.318	-200.000	0.282	0.002
-476.303	-119.355	0.376	-0.085
-475.289	92.116	-0.291	0.431
-474.274	-155.217	0.111	-0.009
-473.259	-61.596	-0.155	0.085
-472.245	800.000	-0.104	0.423
-471.230	-12.231	0.262	0.225
-470.216	70.147	0.347	0.471
-469.201	5.302	0.135	0.131
-468.186	-35.138	0.250	0.178
-467.172	-166.660	-0.254	0.014
-466.157	-33.449	-0.263	0.191
-465.143	64.170	-0.338	0.447
-464.128	339.026	0.124	0.318
-463.113	800.000	0.064	0.244
-462.099	800.000	0.031	-0.123
-461.084	-8.743	0.315	-0.277
-460.070	349.720	0.117	0.304
-459.055	-62.021	0.172	-0.094
-458.040	-90.882	0.225	0.084
-457.026	63.599	0.202	-0.266
-456.011	517.422	0.110	-0.339
-454.997	-72.943	0.500	-0.240
-453.982	-141.747	-0.339	-0.044
-452.968	21.614	0.120	0.128
-451.953	-129.223	-0.095	0.017
-450.938	-123.715	-0.197	-0.041
-449.924	-97.546	0.158	-0.054
-448.909	800.000	-0.149	0.558
-447.895	27.788	0.228	0.252
-446.880	-196.563	0.224	0.002
-445.865	-200.000	0.004	-0.299
-444.851	-104.200	0.423	-0.128
-443.836	-107.684	0.342	-0.097
-442.822	-81.667	-0.210	-0.090
-441.807	-191.823	-0.275	0.003
-440.792	-105.633	-0.249	0.073
-439.778	800.000	-0.022	0.126
-438.763	-200.000	-0.010	-0.060
-437.749	-7.149	0.107	-0.095
-436.734	102.952	0.036	-0.055
-435.719	-200.000	0.021	0.579
-434.705	155.315	0.111	-0.202
-433.690	309.314	-0.094	0.231
-432.676	-200.000	0.007	0.168
-431.661	241.820	-0.099	0.219
-430.646	-76.707	-0.393	0.180
-429.632	63.700	-0.243	0.321
-428.617	-200.000	-0.015	-0.128
-427.603	46.139	-0.112	0.136
-426.588	-97.486	0.238	-0.081
-425.573	-76.327	-0.135	-0.062
-424.559	480.931	-0.160	-0.479
-423.544	-200.000	0.008	-0.245
-422.530	-32.576	0.297	0.216
-421.515	-96.227	-0.226	0.078
-420.500	430.412	0.052	-0.147
-419.486	88.004	0.174	-0.254
-418.471	146.388	0.227	-0.401
-417.457	261.717	0.081	-0.184
-416.442	3.667	0.347	-0.332
-415.428	-76.728	-0.019	0.009
-414.413	800.000	-0.064	0.322
-413.398	81.887	0.244	0.346
-412.384	-200.000	0.063	-0.523
-411.369	562.015	0.120	-0.384
-410.355	281.971	-0.150	-0.354
-409.340	-98.484	-0.377	0.126
-408.325	-54.481	-0.008	-0.005
-407.311	-55.284	-0.221	-0.130
-406.296	360.436	-0.006	0.015
-405.282	480.951	-0.041	0.123
-404.267	34.943	-0.164	0.188
-403.252	616.403	-0.022	0.072
-402.238	731.784	-0.052	0.185
-401.223	-200.000	0.034	-0.304
-400.209	-83.786	-0.151	0.063
-399.194	-97.480	-0.085	0.029
-398.179	92.112	-0.187	0.276
-397.165	-132.874	0.340	-0.056
-396.150	-104.067	-0.428	0.130
-395.136	-200.000	-0.011	-0.264
-394.121	241.788	-0.062	0.136
-393.106	-36.799	0.094	-0.066
-392.092	64.347	0.095	0.126
-391.077	170.264	-0.061	0.115
-390.063	800.000	-0.108	0.447
-389.048	-10.404	-0.177	0.154
-388.033	181.596	0.247	0.478
-387.019	-47.187	-0.363	-0.231
-386.004	50.599	-0.209	0.259
-384.990	206.809	-0.158	-0.323
-383.975	800.000	0.027	-0.136
-382.960	-160.108	-0.176	-0.012
-381.946	-76.559	-0.322	-0.147
-380.931	137.143	0.140	-0.241
-379.917	-140.948	-0.055	0.007
-378.902	-146.301	-0.105	-0.012
-377.888	44.880	0.275	0.332
-376.873	328.721	0.220	0.555
-375.858	-0.823	-0.145	0.134
-374.844	-34.416	0.258	0.184
-373.829	-14.023	0.116	0.098
-372.815	800.000	-0.091	0.371
-371.800	800.000	-0.063	0.337
-370.785	-121.554	-0.237	0.051
-369.771	-78.619	-0.102	-0.045
-368.756	-106.315	0.062	-0.018
-367.742	52.891	-0.434	0.544
-366.727	184.844	-0.152	-0.297
-365.712	-200.000	-0.008	-0.487
-364.698	-99.574	0.183	0.060
-363.683	-178.983	0.379	0.011
-362.669	-150.761	-0.238	-0.023
-361.654	-80.952	0.170	0.073
-360.639	-148.810	0.371	0.039
-359.625	364.904	-0.200	0.530
-358.610	102.119	-0.098	0.151
-357.596	225.345	0.134	0.285
-356.581	187.595	-0.165	0.322
-355.566	-200.000	-0.058	-0.395
-354.552	-55.493	0.166	-0.097
-353.537	-151.534	0.152	-0.015
-352.523	-161.758	0.263	0.017
-351.508	215.367	-0.213	-0.443
-350.493	-200.000	-0.005	-0.106
-349.479	-200.000	-0.004	-0.359
-348.464	-200.000	0.003	-0.684
-347.450	-84.113	-0.251	-0.104
-346.435	-200.000	0.053	-0.503
-345.420	-200.000	-0.004	0.295
-344.406	-200.000	-0.001	-0.062
-343.391	-36.625	-0.118	-0.083
-342.377	157.994	0.168	0.304
-341.362	-20.634	0.378	-0.303
-340.348	-88.875	-0.248	0.096
-339.333	50.313	0.254	0.314
-338.318	-182.782	0.092	0.002
-337.304	350.928	0.126	0.327
-336.289	-41.081	-0.092	0.062
-335.275	-105.158	-0.323	-0.096
-334.260	-36.881	-0.243	0.170
-333.245	-163.539	0.476	-0.029
-332.231	11.704	-0.134	-0.134
-331.216	611.641	-0.192	0.631
-330.202	0.302	-0.162	0.151
-329.187	-146.014	-0.280	-0.032
-328.172	-200.000	0.006	-0.131
-327.158	-137.280	0.466	0.068
-326.143	-200.000	-0.079	-0.532
-325.129	-58.064	-0.381	-0.216
-324.114	800.000	0.040	0.172
-323.099	-103.671	0.406	0.123
-322.085	13.087	-0.171	-0.173
-321.070	-118.555	-0.179	0.041
-320.056	-200.000	-0.031	-0.459
-319.041	-97.376	0.291	-0.098
-318.026	-200.000	0.002	0.014
-317.012	-14.142	-0.121	0.102
-315.997	13.142	0.135	-0.137
-314.983	-200.000	0.011	0.162
-313.968	-71.561	-0.177	-0.086
-312.953	58.226	-0.093	-0.119
-311.939	-53.756	-0.032	-0.019
-310.924	-58.844	0.310	-0.174
-309.910	70.273	0.125	-0.168
-308.895	127.895	0.383	-0.637
-307.880	-120.543	-0.445	-0.098
-306.866	-115.918	0.201	0.049
-305.851	-109.747	-0.068	0.018
-304.837	204.220	0.085	0.172
-303.822	371.480	-0.100	-0.266
-302.807	179.391	-0.104	-0.200
-301.793	-85.948	0.302	-0.121
-300.778	-30.330	0.451	0.333
-299.764	800.000	0.028	-0.133
-298.749	-23.967	-0.317	0.247
-297.735	46.592	-0.117	0.141
-296.720	-107.497	-0.156	0.044
-295.705	-60.992	-0.391	-0.215
-294.691	-76.287	-0.109	0.050
-293.676	-102.749	-0.432	0.133
-292.662	-41.113	0.438	0.295
-291.647	167.323	0.033	-0.061
-290.632	-169.784	-0.227	0.010
-289.618	800.000	0.077	0.286
-288.603	-168.606	0.527	-0.026
-287.589	-200.000	-0.064	0.515
-286.574	-34.618	0.146	0.104
-285.559	-173.888	-0.222	0.008
-284.545	-200.000	0.058	-0.380
-283.530	-84.937	-0.033	0.013
-282.516	-145.199	-0.257	0.030
-281.501	188.045	0.149	0.292
-280.486	-35.621	0.141	0.099
-279.472	-141.269	0.193	0.025
-278.457	53.148	-0.136	0.170
-277.443	52.522	0.067	-0.083
-276.428	800.000	0.056	-0.272
-275.413	800.000	0.182	-0.833
-274.399	-112.006	0.363	-0.095
-273.384	754.537	0.105	0.372
-272.370	-94.013	0.238	-0.085
-271.355	-76.098	-0.134	-0.062
-270.340	63.680	0.056	0.073
-269.326	1.706	0.249	-0.234
-268.311	-131.879	-0.424	-0.072
-267.297	-51.484	0.244	0.148
-266.282	-130.425	-0.089	-0.016
-265.267	-35.579	-0.114	0.081
-264.253	-127.782	-0.633	-0.118
-263.238	-200.000	0.023	0.217
-262.224	69.843	0.199	-0.267
-261.209	571.972	-0.149	-0.475
-260.195	-126.724	0.863	0.165
-259.180	-200.000	-0.015	-0.267
-258.165	45.721	0.278	-0.335
-257.151	-100.243	-0.492	0.158
-256.136	-102.873	0.416	-0.128
-255.122	-174.480	0.179	0.007
-254.107	-129.904	0.302	-0.053
-253.092	47.828	-0.127	0.155
-252.078	-58.670	0.135	-0.076
-251.063	236.789	0.021	-0.045
-250.049	-200.000	-0.034	-0.256
-249.034	-83.237	0.445	-0.185
-248.019	800.000	-0.042	0.164
-247.005	-200.000	-0.254	0.001
-245.990	-200.000	-0.024	-0.409
-244.976	579.910	0.189	0.605
-243.961	-169.618	-0.458	-0.021
-242.946	-41.137	-0.060	-0.041
-241.932	-200.000	0.016	-0.220
-240.917	516.416	-0.109	-0.332
-239.903	-189.761	0.563	0.008
-238.888	-77.719	-0.460	0.206
-237.873	52.649	0.279	0.347
-236.859	-88.917	-0.177	0.068
-235.844	-0.274	-0.315	0.291
-234.830	49.822	-0.151	-0.185
-233.815	-190.273	-0.215	-0.003
-232.800	-34.510	0.063	-0.045
-231.786	51.672	-0.351	-0.435
-230.771	-200.000	0.032	-0.209
-229.757	85.294	-0.167	-0.239
-228.742	334.108	0.114	-0.288
-227.727	95.030	-0.248	-0.368
-226.713	161.011	-0.174	-0.317
-225.698	156.099	0.106	0.191
-224.684	306.930	-0.085	0.208
-223.669	-71.749	-0.101	-0.049
-222.655	95.445	-0.240	0.357
-221.640	301.396	0.223	0.538
-220.625	-134.698	0.516	-0.081
-219.611	-54.740	-0.272	-0.160
-218.596	117.909	-0.100	-0.160
-217.582	-75.260	0.239	-0.111
-216.567	-58.535	0.190	0.107
-215.552	-118.609	0.619	-0.141
-214.538	5.097	0.398	0.381
-213.523	72.345	0.372	-0.505
-212.509	-64.039	0.391	0.207
-211.494	-92.014	0.263	-0.096
-210.479	-117.801	-0.432	0.100
-209.465	18.483	0.266	-0.277
-208.450	-74.963	0.295	-0.137
-207.436	-133.134	-0.225	-0.037
-206.421	234.452	-0.211	-0.455
-205.406	307.765	-0.046	0.113
-204.392	-200.000	0.010	-0.172
-203.377	-132.572	0.097	0.016
-202.363	-149.654	0.521	-0.053
-201.348	9.827	-0.205	0.202
-200.333	-118.997	-0.132	-0.030
-199.319	800.000	-0.018	-0.086
-198.304	77.327	-0.093	0.129
-197.290	-90.197	-0.187	-0.070
-196.275	800.000	-0.022	0.109
-195.260	-49.194	-0.384	0.238
-194.246	-92.358	-0.369	0.134
-193.231	-69.905	0.135	0.067
-192.217	114.218	0.235	0.373
-191.202	800.000	-0.030	-0.157
-190.187	-110.574	0.237	0.063
-189.173	800.000	0.068	0.390
-188.158	-192.410	-0.359	0.004
-187.144	17.503	0.475	-0.491
-186.129	420.317	0.056	0.155
-185.114	-200.000	-0.020	-0.172
-184.100	-186.524	-0.500	0.009
-183.085	-56.485	-0.328	-0.188
-182.071	-37.590	0.092	-0.064
-181.056	219.142	-0.160	-0.333
-180.042	-115.552	-0.145	0.035
-179.027	-200.000	-0.214	0.000
-178.012	3.000	0.423	-0.399
-176.998	238.143	0.220	0.476
-175.983	-200.000	0.025	-0.147
-174.969	-56.100	-0.196	0.113
-173.954	-101.039	0.069	0.022
-172.939	416.870	0.109	0.304
-171.925	109.882	0.179	0.279
-170.910	800.000	0.103	0.475
-169.896	-200.000	0.009	0.278
-168.881	-1.612	-0.150	-0.137
-167.866	669.106	-0.187	0.631
-166.852	717.162	0.039	0.136
-165.837	-59.286	0.514	0.286
-164.823	-157.977	-0.208	-0.016
-163.808	76.917	0.055	0.075
-162.793	-171.019	0.060	0.003
-161.779	-193.917	-0.358	0.004
-160.764	397.791	0.065	-0.177
-159.750	154.323	0.173	0.310
-158.735	-41.077	-0.184	0.123
-157.720	-84.110	0.185	-0.076
-156.706	-200.000	0.057	-0.435
-155.691	-87.964	0.292	0.113
-154.677	-107.037	-0.161	-0.046
-153.662	-65.499	0.368	0.191
-152.647	-27.663	0.543	0.408
-151.633	-88.783	0.530	-0.203
-150.618	158.886	0.234	0.422
-149.604	82.562	0.254	-0.358
-148.589	-36.614	-0.128	-0.089
-147.574	24.843	-0.320	0.344
-146.560	-155.659	0.111	-0.009
-145.545	-109.226	0.247	-0.068
-144.531	215.726	0.285	-0.589
-143.516	317.055	0.170	0.418
-142.502	-125.246	0.042	0.008
-141.487	49.624	-0.113	-0.138
-140.472	74.105	-0.065	-0.088
-139.458	9.080	0.244	0.239
-138.443	10.497	-0.252	-0.249
-137.429	97.157	-0.315	0.469
-136.414	205.789	-0.312	0.632
-135.399	-41.249	0.432	-0.288
-134.385	176.229	0.123	0.232
-133.370	61.090	-0.107	-0.138
-132.356	-109.636	0.079	0.022
-131.341	-200.000	-0.018	0.214
-130.326	-3.339	0.326	-0.294
-129.312	788.086	0.042	-0.150
-128.297	40.130	-0.308	-0.359
-127.283	-137.397	-0.596	-0.087
-126.268	-49.321	-0.321	-0.198
-125.253	-52.356	0.048	0.029
-124.239	-79.041	0.420	0.184
-123.224	-23.343	-0.218	0.169
-122.210	61.433	-0.124	0.159
-121.195	-200.000	0.015	0.352
