DTS Sentinel unit serial number:	SN409020Multiplexer serial number:	ORYXHardware model number:	OX4-SRSoftware version number:	ORYX F/W v3.00 Oryx Data Collector v3.7.2.0data status	okinstallation	HaddamTimeLapsedifferential loss correction	single-endedforward channel	channel 3reverse channel	N/Adate	2011/06/22time	09:41:17forward acquisition time	30.00reverse acquisition time	0.00gamma	498.7831k internal	0.1796k external	0.1796temperature offset calibration	1.0074default loss term (dB/km)	0.3790temperature slope calibration	1.3530multiplexer offset coefficient	1.0000multiplexer slope coefficient	1.0000fibre end	0.00T internal ref (°C)	27.94T ext. ref 1 (°C)	23.77T ext. ref 2 (°C)	0.19length (m)	temperature (°C)	Stokes	anti-Stokes-747.200	-182.869	-0.355	0.008
-746.185	16.465	-0.065	-0.066
-745.171	-124.553	0.395	-0.079
-744.156	-200.000	-0.060	0.389
-743.142	800.000	0.014	-0.068
-742.127	-103.804	0.138	0.042
-741.112	-104.293	-0.247	-0.074
-740.098	587.959	0.224	0.719
-739.083	-110.755	-0.745	-0.198
-738.069	800.000	0.014	-0.063
-737.054	-39.600	0.074	-0.050
-736.039	-119.017	-0.014	0.003
-735.025	-21.190	-0.112	0.089
-734.010	-71.508	0.252	0.121
-732.996	-38.793	-0.117	-0.080
-731.981	-157.732	-0.092	-0.007
-730.966	-103.462	-0.257	-0.078
-729.952	-47.526	-0.327	0.205
-728.937	120.639	-0.061	0.098
-727.923	127.749	0.059	0.097
-726.908	20.698	-0.295	-0.309
-725.894	-104.393	-0.197	0.059
-724.879	-200.000	0.013	0.419
-723.864	-200.000	0.000	0.055
-722.850	-107.639	0.406	0.114
-721.835	-97.506	-0.361	0.121
-720.821	-95.876	-0.081	0.028
-719.806	57.744	0.350	-0.443
-718.791	185.133	-0.112	0.215
-717.777	-119.113	0.154	0.035
-716.762	800.000	-0.041	-0.152
-715.748	477.354	0.075	0.220
-714.733	-2.177	0.222	-0.202
-713.718	-46.956	-0.241	-0.152
-712.704	-56.017	-0.231	-0.133
-711.689	-158.409	-0.130	-0.010
-710.675	716.054	0.061	-0.209
-709.660	-25.537	-0.540	-0.412
-708.645	-20.914	0.256	0.203
-707.631	-200.000	0.018	0.277
-706.616	-106.178	-0.403	-0.116
-705.602	800.000	-0.065	-0.258
-704.587	-36.963	0.424	-0.293
-703.572	174.740	-0.352	-0.660
-702.558	29.402	-0.303	-0.333
-701.543	-200.000	0.024	0.172
-700.529	-80.845	0.432	0.185
-699.514	61.617	0.200	0.258
-698.499	-123.384	-0.287	-0.059
-697.485	800.000	0.038	0.144
-696.470	168.105	-0.042	0.077
-695.456	-200.000	-0.028	-0.185
-694.441	-62.756	-0.280	-0.149
-693.426	-110.672	0.068	0.018
-692.412	-200.000	0.044	-0.481
-691.397	800.000	0.091	-0.345
-690.383	422.052	-0.187	-0.523
-689.368	-200.000	0.028	-0.198
-688.354	-200.000	0.069	-0.723
-687.339	-125.827	0.613	-0.118
-686.324	72.376	0.100	-0.135
-685.310	-159.705	0.305	-0.021
-684.295	-200.000	0.045	-0.538
-683.281	185.534	-0.099	-0.191
-682.266	445.876	0.065	0.186
-681.251	139.305	0.127	-0.216
-680.237	-200.000	-0.032	0.223
-679.222	-182.220	-0.426	-0.010
-678.208	482.993	0.059	0.173
-677.193	-109.323	0.313	-0.085
-676.178	-200.000	0.079	0.455
-675.164	66.999	-0.392	0.516
-674.149	-58.570	0.243	0.136
-673.135	-118.530	-0.121	-0.027
-672.120	213.040	-0.224	0.458
-671.105	-59.254	0.567	0.314
-670.091	128.765	0.265	-0.438
-669.076	123.512	0.078	-0.126
-668.062	-34.933	-0.375	-0.264
-667.047	-114.953	0.218	-0.053
-666.032	242.543	-0.190	-0.412
-665.018	-81.661	0.436	0.184
-664.003	36.630	0.193	-0.221
-662.989	175.786	0.286	0.537
-661.974	-38.262	0.156	-0.106
-660.959	-106.527	0.310	0.089
-659.945	-84.540	-0.288	-0.117
-658.930	102.143	-0.189	0.285
-657.916	99.803	-0.185	-0.276
-656.901	182.372	0.135	-0.258
-655.886	-54.066	-0.309	0.181
-654.872	-170.383	0.171	-0.008
-653.857	-118.710	0.426	0.096
-652.843	-93.397	-0.373	0.133
-651.828	800.000	-0.027	0.125
-650.814	-7.293	0.394	-0.344
-649.799	-118.268	0.117	0.027
-648.784	68.307	0.203	0.269
-647.770	126.335	0.168	-0.275
-646.755	-127.104	-0.151	0.028
-645.741	-200.000	-0.057	0.385
-644.726	15.013	0.166	0.167
-643.711	32.752	-0.332	0.371
-642.697	169.205	0.124	0.229
-641.682	-200.000	0.009	0.378
-640.668	-74.870	-0.597	-0.275
-639.653	-12.882	0.211	-0.177
-638.638	-167.725	0.704	0.035
-637.624	574.856	0.137	0.434
-636.609	-18.434	-0.213	-0.171
-635.595	-50.911	-0.105	-0.063
-634.580	29.339	-0.324	0.355
-633.565	-200.000	-0.003	-0.394
-632.551	-13.218	0.175	-0.146
-631.536	28.276	0.346	0.377
-630.522	57.390	-0.197	-0.248
-629.507	-0.151	0.274	0.252
-628.492	-200.000	-0.002	-0.183
-627.478	-55.015	-0.207	-0.120
-626.463	-146.325	-0.225	-0.025
-625.449	-167.394	0.256	0.013
-624.434	-65.444	-0.180	0.093
-623.419	60.314	0.172	0.219
-622.405	800.000	-0.046	-0.233
-621.390	-100.600	0.206	-0.065
-620.376	-76.032	0.442	-0.201
-619.361	-39.625	-0.060	-0.040
-618.346	-200.000	0.010	0.226
-617.332	-70.326	-0.385	-0.187
-616.317	-144.763	-0.190	0.022
-615.303	-131.783	-0.212	0.035
-614.288	168.701	-0.286	-0.526
-613.273	-26.671	-0.324	-0.244
-612.259	-50.546	0.317	-0.192
-611.244	-13.637	-0.084	-0.070
-610.230	-187.554	0.376	-0.006
-609.215	172.718	-0.189	-0.352
-608.201	36.154	0.159	-0.181
-607.186	294.130	0.194	0.459
-606.171	800.000	-0.017	-0.088
-605.157	-21.146	0.242	-0.190
-604.142	-98.791	0.138	-0.045
-603.128	48.085	-0.261	-0.314
-602.113	82.232	-0.240	-0.335
-601.098	-45.074	0.175	0.112
-600.084	-200.000	-0.041	-0.387
-599.069	320.365	0.112	0.275
-598.055	-10.846	-0.075	-0.063
-597.040	15.534	0.103	-0.104
-596.025	-50.033	0.135	-0.082
-595.011	800.000	-0.052	0.210
-593.996	-200.000	-0.070	0.426
-592.982	685.150	0.089	-0.300
-591.967	-57.895	0.462	-0.259
-590.952	33.440	0.201	0.225
-589.938	-129.608	-0.046	0.008
-588.923	-35.966	-0.210	-0.146
-587.909	-1.736	-0.387	0.350
-586.894	191.731	-0.014	-0.028
-585.879	499.557	0.137	-0.408
-584.865	-123.139	0.236	-0.048
-583.850	42.656	0.333	0.391
-582.836	266.089	-0.064	0.145
-581.821	425.626	0.083	0.230
-580.806	-64.588	-0.567	0.295
-579.792	124.301	0.164	-0.265
-578.777	-60.042	0.535	-0.293
-577.763	-200.000	-0.043	0.290
-576.748	-151.566	-0.219	-0.021
-575.733	-69.476	0.106	0.052
-574.719	-35.254	-0.354	0.247
-573.704	-111.840	-0.682	0.176
-572.690	-89.864	0.035	0.013
-571.675	166.004	0.244	-0.445
-570.661	-47.011	0.419	0.262
-569.646	426.190	0.084	0.235
-568.631	-156.646	0.560	0.044
-567.617	800.000	0.037	0.180
-566.602	-94.828	-0.528	0.183
-565.588	-200.000	-0.001	0.110
-564.573	-67.843	-0.041	-0.021
-563.558	-64.670	-0.085	0.044
-562.544	-200.000	-0.006	-0.078
-561.529	35.186	-0.316	0.356
-560.515	244.632	0.122	-0.265
-559.500	-102.874	0.096	-0.029
-558.485	145.915	0.290	-0.502
-557.471	-50.257	-0.520	-0.315
-556.456	-0.725	0.253	-0.230
-555.442	-200.000	-0.055	0.667
-554.427	-109.743	-0.138	0.037
-553.412	-65.027	0.133	-0.069
-552.398	22.068	-0.029	-0.030
-551.383	228.256	-0.138	-0.290
-550.369	71.578	-0.346	-0.463
-549.354	800.000	0.050	-0.227
-548.339	-97.659	0.381	0.126
-547.325	260.740	0.172	-0.384
-546.310	800.000	-0.078	0.297
-545.296	69.965	0.099	0.132
-544.281	-89.262	0.187	-0.070
-543.266	-116.558	0.508	0.119
-542.252	-110.856	-0.347	0.091
-541.237	31.237	-0.110	-0.122
-540.223	239.959	-0.092	0.198
-539.208	-200.000	0.000	-0.095
-538.193	-177.187	-0.400	0.013
-537.179	-119.402	-0.140	0.031
-536.164	-53.648	-0.196	-0.114
-535.150	-133.813	0.284	0.045
-534.135	263.615	-0.228	-0.512
-533.121	-200.000	-0.035	0.368
-532.106	-200.000	0.005	-0.058
-531.091	100.005	-0.194	0.290
-530.077	-200.000	-0.008	0.298
-529.062	-55.150	-0.258	-0.149
-528.048	-119.467	-0.231	0.051
-527.033	509.318	0.214	0.643
-526.018	-122.963	0.201	0.041
-525.004	-114.967	0.161	-0.039
-523.989	800.000	0.123	-0.443
-522.975	13.066	0.111	-0.110
-521.960	-64.871	0.658	0.340
-520.945	146.799	0.133	-0.230
-519.931	126.609	0.091	-0.148
-518.916	-11.320	0.091	0.077
-517.902	800.000	-0.081	-0.368
-516.887	118.063	0.267	-0.424
-515.872	-126.169	-0.133	0.025
-514.858	-129.040	0.364	0.065
-513.843	299.809	0.126	0.299
-512.829	-200.000	-0.023	0.256
-511.814	-77.154	-0.517	0.230
-510.799	-62.563	-0.370	-0.196
-509.785	-145.509	-0.180	0.020
-508.770	-98.131	-0.148	0.049
-507.756	-147.394	0.348	0.037
-506.741	-159.515	0.685	0.048
-505.726	-94.528	-0.334	-0.116
-504.712	120.694	-0.156	0.249
-503.697	-79.820	0.087	0.037
-502.683	239.497	-0.055	-0.118
-501.668	-13.917	0.417	0.345
-500.653	-11.057	-0.325	0.274
-499.639	-192.824	-0.228	-0.003
-498.624	-103.304	-0.035	0.011
-497.610	5.118	0.320	0.303
-496.595	123.503	-0.186	-0.299
-495.581	-154.569	-0.315	-0.027
-494.566	-198.586	0.087	0.001
-493.551	319.984	0.066	-0.161
-492.537	-42.626	0.197	0.128
-491.522	45.103	-0.291	-0.344
-490.508	-61.342	-0.231	-0.124
-489.493	22.281	0.288	-0.302
-488.478	-91.734	0.104	0.038
-487.464	159.967	-0.225	-0.403
-486.449	99.935	-0.307	-0.457
-485.435	-37.942	-0.072	0.049
-484.420	59.422	-0.177	-0.224
-483.405	-27.645	0.053	-0.039
-482.391	111.140	-0.036	0.056
-481.376	-93.811	0.175	-0.062
-480.362	387.411	0.035	0.093
-479.347	-9.634	-0.095	-0.081
-478.332	800.000	0.054	-0.292
-477.318	-200.000	0.017	0.160
-476.303	672.216	0.106	0.353
-475.289	-11.856	0.263	-0.221
-474.274	-77.258	0.091	-0.041
-473.259	-125.524	-0.173	-0.033
-472.245	44.145	-0.313	-0.368
-471.230	115.407	0.181	-0.284
-470.216	-200.000	0.026	0.175
-469.201	-123.453	-0.643	0.130
-468.186	-32.880	-0.376	0.267
-467.172	303.486	0.174	-0.414
-466.157	30.589	0.191	-0.210
-465.143	-200.000	0.009	-0.361
-464.128	-51.098	-0.070	0.042
-463.113	35.145	0.267	-0.300
-462.099	-200.000	-0.017	-0.206
-461.084	-40.109	-0.274	-0.182
-460.070	-28.617	-0.314	-0.231
-459.055	800.000	-0.029	-0.155
-458.040	-34.123	-0.162	-0.114
-457.026	169.076	-0.194	0.355
-456.011	800.000	0.039	0.167
-454.997	-40.325	0.718	-0.477
-453.982	-27.858	-0.288	-0.214
-452.968	0.598	0.198	-0.181
-451.953	-105.006	0.223	0.065
-450.938	165.179	-0.157	0.286
-449.924	24.530	-0.153	-0.162
-448.909	-200.000	-0.047	-0.281
-447.895	169.725	-0.156	-0.286
-446.880	800.000	0.040	0.144
-445.865	800.000	0.139	0.501
-444.851	-46.135	0.230	0.144
-443.836	-80.880	-0.304	0.129
-442.822	-200.000	0.015	0.350
-441.807	800.000	0.056	-0.318
-440.792	-200.000	0.066	-0.538
-439.778	16.632	0.170	0.172
-438.763	-44.925	0.052	-0.033
-437.749	-200.000	0.009	-0.137
-436.734	134.004	0.084	0.140
-435.719	103.074	0.287	-0.431
-434.705	-127.002	-0.405	0.075
-433.690	-74.761	-0.017	-0.008
-432.676	248.574	-0.176	-0.382
-431.661	410.672	-0.121	-0.331
-430.646	-164.776	-0.583	-0.033
-429.632	317.479	-0.216	-0.526
-428.617	-48.121	0.373	-0.230
-427.603	125.575	0.198	0.320
-426.588	-90.914	-0.302	0.111
-425.573	341.845	-0.075	-0.188
-424.559	-78.517	0.247	0.108
-423.544	-69.220	0.310	0.152
-422.530	-76.166	-0.221	0.099
-421.515	-117.469	-0.204	0.047
-420.500	-200.000	-0.017	0.136
-419.486	-162.838	0.195	0.012
-418.471	-44.665	0.225	0.143
-417.457	-200.000	-0.044	-0.318
-416.442	-200.000	-0.052	0.335
-415.428	-99.019	-0.153	0.049
-414.413	-200.000	0.001	0.146
-413.398	-109.562	-0.045	0.012
-412.384	-36.203	-0.317	-0.219
-411.369	270.897	-0.095	0.214
-410.355	-200.000	0.038	0.420
-409.340	58.878	0.282	-0.355
-408.325	48.217	-0.189	-0.226
-407.311	321.102	0.066	-0.162
-406.296	62.864	0.148	0.190
-405.282	65.882	0.126	0.163
-404.267	-134.246	0.257	-0.040
-403.252	800.000	0.050	-0.179
-402.238	185.408	0.081	-0.155
-401.223	-123.778	0.173	-0.035
-400.209	266.253	-0.067	-0.150
-399.194	-67.654	0.360	0.179
-398.179	321.445	0.024	0.059
-397.165	-100.815	0.368	0.115
-396.150	244.226	0.090	0.194
-395.136	-44.056	-0.335	0.215
-394.121	-34.125	-0.358	-0.251
-393.106	-87.801	-0.504	-0.193
-392.092	10.632	0.235	0.228
-391.077	-200.000	-0.001	0.194
-390.063	68.701	0.228	0.299
-389.048	161.620	-0.082	0.146
-388.033	-16.059	0.367	-0.298
-387.019	206.687	0.267	-0.534
-386.004	-200.000	-0.014	-0.192
-384.990	116.539	-0.256	-0.402
-383.975	-159.668	-0.522	-0.036
-382.960	38.870	-0.166	-0.189
-381.946	-99.313	-0.054	-0.017
-380.931	-43.199	-0.477	-0.308
-379.917	74.365	0.095	-0.128
-378.902	-200.000	0.026	-0.349
-377.888	-63.665	0.341	-0.178
-376.873	-200.000	0.018	-0.162
-375.858	-46.524	-0.240	0.150
-374.844	6.241	0.069	-0.065
-373.829	-46.607	-0.207	0.129
-372.815	407.501	0.044	-0.120
-371.800	-105.084	0.579	-0.168
-370.785	-200.000	0.016	-0.191
-369.771	-91.128	0.163	-0.059
-368.756	-200.000	0.013	-0.394
-367.742	800.000	-0.092	-0.462
-366.727	556.875	0.146	-0.452
-365.712	-117.602	-0.111	0.025
-364.698	550.836	-0.180	0.553
-363.683	-112.381	-0.332	0.084
-362.669	56.557	0.313	-0.389
-361.654	42.700	0.014	0.016
-360.639	-200.000	-0.007	0.180
-359.625	318.170	0.096	-0.232
-358.610	81.862	-0.224	0.310
-357.596	-1.963	0.182	-0.163
-356.581	705.249	-0.110	0.374
-355.566	-14.773	-0.244	0.200
-354.552	-100.476	-0.412	0.129
-353.537	-75.944	0.354	0.159
-352.523	-132.482	-0.026	0.004
-351.508	195.346	0.137	-0.267
-350.493	209.146	-0.072	-0.145
-349.479	-30.547	-0.156	-0.112
-348.464	144.823	0.157	0.268
-347.450	-110.278	0.304	-0.080
-346.435	88.475	-0.210	-0.298
-345.420	-200.000	-0.085	0.602
-344.406	618.586	0.119	0.383
-343.391	-46.177	-0.159	-0.100
-342.377	623.204	-0.173	-0.558
-341.362	-116.745	-0.313	-0.073
-340.348	-19.862	-0.242	0.191
-339.333	-31.588	-0.282	0.201
-338.318	72.212	0.121	-0.161
-337.304	-154.316	0.247	0.021
-336.289	64.144	0.077	-0.099
-335.275	-180.326	0.642	-0.017
-334.260	-8.561	0.255	-0.218
-333.245	-76.754	-0.323	0.143
-332.231	-157.589	0.090	-0.007
-331.216	-200.000	0.015	0.311
-330.202	97.892	-0.244	0.358
-329.187	-125.966	0.185	0.035
-328.172	-26.463	0.343	0.255
-327.158	-79.342	0.347	0.149
-326.143	-200.000	-0.034	0.266
-325.129	51.292	-0.218	0.263
-324.114	-66.847	-0.324	-0.163
-323.099	25.068	-0.029	0.030
-322.085	-200.000	0.002	-0.103
-321.070	72.420	-0.089	0.119
-320.056	243.768	-0.071	-0.153
-319.041	-100.046	-0.345	0.109
-318.026	107.375	0.210	-0.319
-317.012	-74.308	-0.124	0.057
-315.997	49.894	-0.205	0.247
-314.983	-95.951	0.208	0.070
-313.968	222.276	0.193	0.396
-312.953	-50.147	-0.173	-0.104
-311.939	30.376	0.190	-0.206
-310.924	-33.116	0.090	0.063
-309.910	-0.524	0.223	0.201
-308.895	-17.450	-0.271	-0.217
-307.880	-200.000	0.069	0.506
-306.866	800.000	0.085	0.349
-305.851	141.180	-0.215	0.364
-304.837	-200.000	0.008	0.321
-303.822	-117.049	-0.161	0.037
-302.807	-23.834	-0.143	0.109
-301.793	-40.708	0.123	0.081
-300.778	494.097	-0.110	0.324
-299.764	-18.412	-0.073	0.058
-298.749	-173.410	-0.447	-0.017
-297.735	58.047	-0.246	-0.307
-296.720	152.205	-0.307	0.534
-295.705	129.692	0.129	0.210
-294.691	401.135	-0.081	0.216
-293.676	-129.194	0.480	0.084
-292.662	-20.335	-0.459	0.359
-291.647	-133.129	0.071	0.011
-290.632	-176.305	0.259	0.008
-289.618	86.157	0.069	0.096
-288.603	40.069	0.054	0.062
-287.589	-45.363	0.263	0.166
-286.574	-93.855	-0.487	0.170
-285.559	-72.757	0.191	0.089
-284.545	653.536	0.039	-0.127
-283.530	159.961	-0.215	0.382
-282.516	320.722	-0.096	-0.232
-281.501	259.934	0.155	0.342
-280.486	-29.435	0.162	-0.118
-279.472	18.933	-0.277	-0.282
-278.457	800.000	0.073	-0.403
-277.443	-57.896	0.267	0.148
-276.428	97.553	0.178	-0.261
-275.413	33.038	-0.518	0.571
-274.399	-156.954	-0.183	0.014
-273.384	161.403	0.168	-0.300
-272.370	-62.639	0.677	0.356
-271.355	-130.244	0.451	-0.077
-270.340	-121.201	0.236	-0.050
-269.326	-18.761	-0.305	0.241
-268.311	105.402	-0.089	-0.134
-267.297	-160.582	0.643	-0.043
-266.282	800.000	-0.050	-0.199
-265.267	800.000	0.090	-0.425
-264.253	-85.233	0.375	-0.148
-263.238	-106.219	-0.343	-0.097
-262.224	0.996	0.167	0.152
-261.209	-56.204	-0.328	-0.185
-260.195	254.939	0.195	0.425
-259.180	-26.033	0.398	0.297
-258.165	-146.008	-0.393	0.044
-257.151	0.996	0.276	0.251
-256.136	-68.811	0.166	-0.081
-255.122	800.000	-0.074	0.288
-254.107	-200.000	0.003	-0.092
-253.092	-65.980	-0.196	0.099
-252.078	528.143	0.062	0.186
-251.063	-98.875	-0.658	0.211
-250.049	-200.000	-0.038	-0.511
-249.034	-2.041	-0.152	0.135
-248.019	-47.407	-0.176	0.108
-247.005	-200.000	-0.055	0.368
-245.990	-57.241	0.282	-0.157
-244.976	-116.515	0.224	-0.052
-243.961	11.615	0.382	0.372
-242.946	65.317	0.209	-0.269
-241.932	289.092	-0.044	-0.101
-240.917	-200.000	-0.041	0.254
-239.903	-164.660	0.031	-0.002
-238.888	-200.000	-0.003	0.359
-237.873	23.865	0.207	0.216
-236.859	496.569	0.123	0.362
-235.844	-200.000	0.054	0.564
-234.830	96.711	0.209	0.304
-233.815	-57.061	0.140	-0.078
-232.800	7.364	0.280	-0.266
-231.786	-155.401	-0.238	0.019
-230.771	800.000	-0.058	-0.311
-229.757	-140.303	-0.375	0.049
-228.742	-30.288	0.193	0.139
-227.727	-141.190	-0.452	-0.058
-226.713	554.309	0.052	-0.160
-225.698	423.283	0.032	-0.088
-224.684	556.774	0.041	0.125
-223.669	-71.588	0.143	0.068
-222.655	118.804	0.128	-0.201
-221.640	-106.861	-0.056	0.016
-220.625	-128.414	0.312	-0.056
-219.611	-200.000	0.002	-0.277
-218.596	-121.509	0.374	0.078
-217.582	-200.000	0.040	0.311
-216.567	800.000	0.099	-0.452
-215.552	-70.913	-0.336	0.160
-214.538	-0.538	0.245	0.220
-213.523	-21.250	-0.286	0.222
-212.509	-54.556	-0.478	0.274
-211.494	121.357	-0.095	-0.150
-210.479	36.044	0.153	-0.171
-209.465	-2.463	0.094	-0.083
-208.450	-32.195	-0.254	0.179
-207.436	24.325	-0.305	0.319
-206.421	-149.958	0.084	0.008
-205.406	67.104	-0.261	0.338
-204.392	-110.191	-0.228	0.060
-203.377	800.000	-0.040	-0.203
-202.363	-57.172	-0.176	-0.098
-201.348	41.433	0.260	-0.298
-200.333	-122.566	-0.122	0.025
-199.319	329.506	-0.249	0.610
-198.304	132.763	0.089	0.145
-197.290	799.434	-0.033	0.117
-196.275	60.689	-0.026	-0.032
-195.260	800.000	-0.043	0.189
-194.246	-200.000	0.033	-0.228
-193.231	-31.635	0.261	0.185
-192.217	145.346	-0.089	0.152
-191.202	800.000	0.062	0.304
-190.187	-158.727	-0.501	0.036
-189.173	140.328	-0.187	-0.313
-188.158	800.000	0.036	-0.136
-187.144	-38.082	-0.365	-0.245
-186.129	3.622	0.305	0.281
-185.114	-60.507	0.135	0.072
-184.100	227.036	0.098	0.203
-183.085	-110.255	-0.094	0.025
-182.071	-75.733	-0.228	-0.102
-181.056	32.694	0.110	-0.120
-180.042	170.049	-0.057	0.103
-179.027	-113.998	0.462	-0.113
-178.012	-200.000	-0.051	0.307
-176.998	-167.990	0.494	0.024
-175.983	800.000	-0.074	0.271
-174.969	-200.000	0.034	-0.702
-173.954	56.589	-0.238	0.294
-172.939	-172.115	-0.333	0.013
-171.925	79.002	-0.268	-0.364
-170.910	-104.845	-0.487	-0.141
-169.896	48.182	-0.140	-0.165
-168.881	-43.385	0.433	-0.276
-167.866	800.000	0.060	-0.312
-166.852	-106.312	0.174	-0.049
-165.837	-12.614	0.228	0.188
-164.823	110.875	0.302	-0.461
-163.808	171.602	0.097	0.178
-162.793	-124.132	0.104	-0.020
-161.779	-158.592	-0.212	0.015
-160.764	219.613	-0.066	-0.134
-159.750	123.569	0.119	-0.190
-158.735	-124.304	0.082	0.016
-157.720	-78.510	0.311	-0.134
-156.706	-188.400	0.426	0.007
-155.691	-200.000	-0.051	-0.291
-154.677	-200.000	-0.058	-0.343
-153.662	-153.104	-0.185	0.016
-152.647	-23.845	-0.212	0.161
-151.633	800.000	-0.059	0.329
-150.618	-110.415	-0.345	0.090
-149.604	312.800	-0.180	-0.429
-148.589	14.170	-0.176	-0.173
-147.574	-130.529	-0.684	-0.116
-146.560	-91.916	0.265	0.095
-145.545	34.322	-0.198	-0.218
-144.531	-84.165	0.163	0.065
-143.516	90.494	-0.025	0.035
-142.502	-32.007	0.520	0.367
-141.487	2.441	0.087	0.080
-140.472	133.650	-0.418	-0.686
-139.458	-63.142	0.119	0.062
-138.443	-174.520	-0.133	-0.005
-137.429	-11.390	0.356	-0.296
-136.414	105.032	0.189	0.283
-135.399	-89.685	0.160	-0.059
-134.385	-128.241	-0.228	0.041
-133.370	89.520	0.160	0.226
-132.356	14.288	0.235	0.231
-131.341	3.289	0.140	0.128
-130.326	-200.000	0.154	0.962
-129.312	14.907	-0.342	0.338
-128.297	-5.764	0.228	0.197
-127.283	93.335	0.273	0.390
-126.268	-92.907	-0.502	-0.176
-125.253	77.428	0.234	0.315
-124.239	-165.556	-0.183	0.010
-123.224	105.988	-0.458	0.686
-122.210	-12.844	0.384	-0.316
-121.195	-200.000	-0.022	0.140
