DTS Sentinel unit serial number:	SN409020Multiplexer serial number:	ORYXHardware model number:	OX4-SRSoftware version number:	ORYX F/W v3.00 Oryx Data Collector v3.7.2.0data status	okinstallation	HaddamTimeLapsedifferential loss correction	single-endedforward channel	channel 3reverse channel	N/Adate	2011/06/22time	03:06:16forward acquisition time	30.00reverse acquisition time	0.00gamma	498.7831k internal	0.1750k external	0.1750temperature offset calibration	1.0074default loss term (dB/km)	0.3790temperature slope calibration	1.3530multiplexer offset coefficient	1.0000multiplexer slope coefficient	1.0000fibre end	0.00T internal ref (°C)	22.25T ext. ref 1 (°C)	17.50T ext. ref 2 (°C)	0.05length (m)	temperature (°C)	Stokes	anti-Stokes-747.200	800.000	0.020	-0.081
-746.185	-98.561	-0.132	-0.044
-745.171	-138.270	-0.394	0.057
-744.156	800.000	0.128	0.537
-743.142	-65.082	0.231	-0.124
-742.127	-200.000	0.027	0.254
-741.112	10.254	-0.311	-0.314
-740.098	-58.782	-0.210	0.120
-739.083	251.204	0.113	0.257
-738.069	-30.535	-0.251	0.188
-737.054	-200.000	-0.001	-0.155
-736.039	-14.476	-0.264	0.225
-735.025	-50.419	-0.411	0.257
-734.010	-83.147	0.480	-0.204
-732.996	-118.958	0.487	0.113
-731.981	-185.895	0.456	-0.009
-730.966	800.000	-0.121	-0.512
-729.952	-125.304	0.099	-0.020
-728.937	20.692	-0.246	0.265
-727.923	800.000	0.048	0.217
-726.908	256.638	-0.038	0.088
-725.894	716.267	0.073	0.258
-724.879	-15.599	-0.217	0.184
-723.864	-22.794	-0.385	0.308
-722.850	-117.757	-0.126	0.030
-721.835	-118.578	-0.172	0.040
-720.821	-92.248	-0.537	-0.200
-719.806	-98.436	-0.421	0.142
-718.791	-102.498	0.348	-0.110
-717.777	-5.690	-0.181	-0.165
-716.762	-200.000	0.016	0.175
-715.748	-103.523	-0.113	-0.035
-714.733	800.000	0.112	-0.470
-713.718	413.896	0.160	-0.454
-712.704	800.000	0.008	-0.044
-711.689	13.162	0.147	-0.151
-710.675	-47.780	0.310	-0.199
-709.660	800.000	0.090	0.365
-708.645	-38.437	0.367	0.257
-707.631	-200.000	-0.011	0.068
-706.616	19.094	-0.147	0.156
-705.602	-4.678	-0.254	0.232
-704.587	105.606	0.039	-0.061
-703.572	-7.222	-0.447	-0.402
-702.558	-74.333	-0.325	-0.155
-701.543	-34.540	0.139	-0.101
-700.529	26.017	-0.314	-0.348
-699.514	-200.000	0.002	-0.071
-698.499	800.000	-0.083	0.482
-697.485	-61.511	-0.099	0.055
-696.470	-200.000	-0.031	-0.232
-695.456	-200.000	-0.086	-0.000
-694.441	167.871	-0.148	-0.280
-693.426	-132.909	-0.247	0.041
-692.412	-145.408	0.691	-0.082
-691.397	-92.599	0.240	0.089
-690.383	33.187	0.188	0.216
-689.368	-200.000	0.006	-0.156
-688.354	800.000	-0.100	-0.422
-687.339	-50.617	0.129	-0.080
-686.324	-49.161	-0.233	0.147
-685.310	-152.498	0.389	-0.036
-684.295	6.694	0.047	-0.046
-683.281	-200.000	0.008	-0.092
-682.266	-200.000	-0.010	0.303
-681.251	84.744	0.153	-0.222
-680.237	258.051	0.089	-0.203
-679.222	50.517	0.211	0.265
-678.208	800.000	0.083	0.362
-677.193	110.468	0.188	0.301
-676.178	-200.000	-0.047	0.299
-675.164	-200.000	0.010	0.279
-674.149	60.562	-0.114	0.150
-673.135	38.931	0.370	0.438
-672.120	-173.832	0.419	-0.016
-671.105	503.896	-0.119	0.366
-670.091	-69.913	-0.411	0.207
-669.076	-42.457	0.352	0.237
-668.062	8.768	-0.337	0.336
-667.047	-152.550	0.555	0.052
-666.032	124.524	0.051	-0.085
-665.018	-82.532	-0.328	0.140
-664.003	-65.641	-0.505	-0.267
-662.989	-20.543	-0.100	-0.081
-661.974	-65.072	0.314	-0.167
-660.959	499.521	0.180	-0.552
-659.945	-10.993	-0.364	-0.318
-658.930	514.533	0.090	-0.281
-657.916	-200.000	-0.008	-0.099
-656.901	29.482	-0.151	-0.170
-655.886	155.953	-0.192	0.351
-654.872	-25.725	0.287	0.223
-653.857	-104.973	-0.237	-0.071
-652.843	53.658	-0.314	0.400
-651.828	225.604	0.209	0.450
-650.814	-200.000	0.011	0.199
-649.799	125.834	0.281	-0.472
-648.784	-38.779	0.384	-0.268
-647.770	4.123	0.328	0.317
-646.755	-130.059	-0.417	-0.075
-645.741	-80.259	0.212	0.093
-644.726	-18.603	-0.157	0.129
-643.711	494.461	0.074	-0.226
-642.697	102.771	-0.155	0.240
-641.682	-87.503	0.113	-0.045
-640.668	-200.000	-0.006	-0.666
-639.653	-13.016	-0.244	0.210
-638.638	-150.847	0.473	-0.047
-637.624	36.201	-0.593	-0.691
-636.609	63.641	-0.107	-0.142
-635.595	-132.759	0.156	-0.026
-634.580	-124.999	0.175	-0.035
-633.565	-145.639	-0.304	-0.036
-632.551	-71.437	-0.325	0.161
-631.536	-137.572	-0.564	-0.083
-630.522	-109.409	0.275	-0.077
-629.507	110.930	0.091	0.146
-628.492	-125.514	-0.723	-0.144
-627.478	62.546	-0.099	-0.131
-626.463	800.000	0.049	0.255
-625.449	800.000	0.035	-0.191
-624.434	-200.000	-0.025	-0.504
-623.419	64.931	0.074	-0.099
-622.405	-81.428	-0.170	0.074
-621.390	6.716	-0.128	0.126
-620.376	-55.504	0.434	0.257
-619.361	180.720	0.055	0.107
-618.346	76.795	0.073	0.102
-617.332	-174.235	-0.197	-0.007
-616.317	-51.249	0.454	-0.280
-615.303	313.816	-0.105	-0.263
-614.288	303.019	-0.127	0.312
-613.273	-200.000	-0.466	0.001
-612.259	800.000	0.027	0.152
-611.244	91.518	-0.163	-0.242
-610.230	-23.610	-0.451	0.357
-609.215	305.656	-0.220	0.542
-608.201	-59.257	-0.314	0.178
-607.186	513.495	-0.105	-0.326
-606.171	378.893	-0.125	-0.340
-605.157	69.806	0.062	0.084
-604.142	113.592	0.229	-0.368
-603.128	23.631	0.303	0.330
-602.113	307.359	0.055	-0.137
-601.098	615.438	0.159	-0.531
-600.084	-42.264	-0.116	-0.078
-599.069	-200.000	-0.029	0.190
-598.055	96.845	-0.270	-0.410
-597.040	142.486	0.254	0.447
-596.025	-15.232	-0.291	-0.246
-595.011	-7.689	-0.293	-0.262
-593.996	-187.496	0.300	-0.005
-592.982	-12.924	0.347	-0.298
-591.967	-200.000	-0.027	-0.237
-590.952	678.928	-0.113	0.389
-589.938	-5.104	0.420	0.381
-588.923	-177.116	-0.497	0.016
-587.909	142.266	0.131	-0.230
-586.894	36.165	0.051	0.059
-585.879	-114.833	0.267	0.067
-584.865	-127.476	0.422	0.080
-583.850	781.811	0.110	-0.399
-582.836	343.474	0.081	0.211
-581.821	-28.532	0.192	0.146
-580.806	780.963	0.170	0.619
-579.792	409.568	0.089	0.249
-578.777	216.615	-0.097	0.205
-577.763	-11.670	0.237	0.205
-576.748	-81.774	-0.148	-0.064
-575.733	-2.628	-0.422	-0.390
-574.719	-62.715	0.160	-0.087
-573.704	-33.277	-0.417	-0.304
-572.690	-14.124	-0.117	-0.100
-571.675	-200.000	-0.049	0.402
-570.661	-145.142	0.289	0.034
-569.646	123.657	0.186	0.309
-568.631	-22.104	-0.147	0.118
-567.617	-159.009	-0.280	-0.021
-566.602	94.698	-0.180	0.271
-565.588	-200.000	0.015	0.151
-564.573	-200.000	-0.089	0.671
-563.558	-24.476	-0.379	0.297
-562.544	66.640	0.155	0.208
-561.529	-200.000	-0.016	0.112
-560.515	-49.030	0.156	-0.098
-559.500	-200.000	-0.027	-0.512
-558.485	-75.177	0.397	-0.186
-557.471	54.495	-0.181	0.230
-556.456	-79.981	-0.430	0.190
-555.442	-113.565	-0.159	0.041
-554.427	37.328	0.143	0.167
-553.412	-17.661	-0.098	0.081
-552.398	-89.315	-0.310	0.120
-551.383	-127.656	-0.101	-0.019
-550.369	-83.004	-0.207	-0.087
-549.354	-200.000	0.065	-0.574
-548.339	281.340	-0.030	-0.070
-547.325	263.512	-0.205	0.471
-546.310	-10.914	-0.092	-0.080
-545.296	800.000	-0.041	-0.240
-544.281	-200.000	-0.025	0.156
-543.266	-200.000	0.054	0.615
-542.252	-37.509	-0.060	0.042
-541.237	52.377	-0.348	0.438
-540.223	800.000	-0.143	0.551
-539.208	17.254	0.296	-0.310
-538.193	-110.319	-0.379	-0.103
-537.179	-43.927	0.049	0.032
-536.164	-200.000	0.062	-0.582
-535.150	204.378	-0.116	0.238
-534.135	-8.177	-0.389	-0.345
-533.121	-132.087	-0.184	0.031
-532.106	60.433	-0.222	0.290
-531.091	-106.838	-0.041	0.012
-530.077	-95.196	-0.205	0.072
-529.062	-200.000	0.023	-0.343
-528.048	27.984	-0.086	-0.096
-527.033	-129.849	-0.336	0.060
-526.018	-200.000	0.069	0.458
-525.004	18.370	0.219	0.231
-523.989	0.979	-0.233	-0.220
-522.975	-200.000	-0.047	-0.524
-521.960	-134.928	0.470	0.074
-520.945	108.046	-0.104	0.164
-519.931	-6.696	0.252	-0.226
-518.916	3.845	-0.138	-0.133
-517.902	-90.658	-0.123	0.046
-516.887	800.000	0.053	-0.255
-515.872	-112.382	0.232	0.061
-514.858	800.000	-0.054	-0.217
-513.843	699.149	-0.022	-0.076
-512.829	-155.176	0.572	-0.049
-511.814	-67.687	-0.720	-0.370
-510.799	-27.600	0.218	-0.167
-509.785	-27.292	-0.420	0.321
-508.770	174.451	-0.124	0.236
-507.756	-99.461	-0.168	0.055
-506.741	362.617	0.053	-0.140
-505.726	-200.000	-0.036	0.529
-504.712	-142.190	0.147	-0.019
-503.697	-104.604	-0.110	0.033
-502.683	775.877	0.080	-0.289
-501.668	800.000	0.082	-0.394
-500.653	377.188	-0.226	-0.609
-499.639	156.331	0.201	-0.366
-498.624	149.159	0.034	0.062
-497.610	-6.292	0.182	0.163
-496.595	-30.851	0.154	-0.114
-495.581	800.000	-0.017	-0.065
-494.566	-200.000	-0.033	0.410
-493.551	79.894	0.289	0.410
-492.537	-200.000	0.039	-0.265
-491.522	800.000	0.010	-0.056
-490.508	30.855	0.215	0.243
-489.493	-42.019	0.370	0.248
-488.478	-73.115	-0.331	0.159
-487.464	-200.000	-0.045	-0.508
-486.449	-139.427	0.159	0.022
-485.435	-200.000	0.017	0.278
-484.420	516.001	0.119	0.368
-483.405	-157.200	0.263	0.021
-482.391	-120.088	-0.347	-0.077
-481.376	-80.381	0.453	-0.198
-480.362	-144.674	-0.211	0.025
-479.347	215.553	-0.113	-0.236
-478.332	-96.286	0.452	0.157
-477.318	-48.464	-0.034	-0.022
-476.303	-200.000	-0.000	0.077
-475.289	-3.705	0.253	-0.231
-474.274	-25.719	-0.295	0.229
-473.259	-191.248	0.273	0.004
-472.245	645.197	0.166	0.561
-471.230	-10.548	-0.518	-0.451
-470.216	-35.016	-0.495	0.354
-469.201	-141.208	0.477	-0.063
-468.186	-134.450	0.196	-0.031
-467.172	105.094	-0.292	0.454
-466.157	800.000	0.139	-0.578
-465.143	-136.659	0.293	-0.044
-464.128	-125.570	0.131	-0.026
-463.113	182.572	0.166	-0.323
-462.099	-75.981	-0.400	0.185
-461.084	-104.913	0.316	-0.095
-460.070	-173.007	0.237	0.009
-459.055	67.753	-0.263	-0.353
-458.040	117.232	-0.054	0.087
-457.026	-84.690	0.250	-0.103
-456.011	31.870	-0.167	-0.189
-454.997	8.632	0.090	-0.089
-453.982	-29.769	-0.365	-0.273
-452.968	-23.062	-0.426	-0.337
-451.953	-121.602	-0.106	-0.023
-450.938	-92.006	0.420	-0.155
-449.924	-94.315	0.201	0.072
-448.909	-57.374	0.304	-0.175
-447.895	207.298	0.238	-0.488
-446.880	-152.727	0.201	0.019
-445.865	800.000	0.105	0.393
-444.851	421.962	-0.071	0.201
-443.836	779.522	-0.080	0.289
-442.822	-75.166	0.633	0.296
-441.807	18.918	0.257	0.271
-440.792	-82.288	-0.393	-0.167
-439.778	-84.136	-0.415	0.172
-438.763	800.000	-0.068	-0.252
-437.749	-183.134	-0.459	0.010
-436.734	-39.876	-0.500	0.342
-435.719	-28.263	-0.052	-0.039
-434.705	800.000	0.027	0.125
-433.690	-15.443	0.309	-0.259
-432.676	282.653	0.089	-0.210
-431.661	37.761	-0.373	-0.435
-430.646	-200.000	0.009	0.271
-429.632	-200.000	-0.008	-0.309
-428.617	58.727	0.152	0.196
-427.603	-200.000	0.095	0.603
-426.588	-114.753	-0.281	-0.070
-425.573	-34.277	0.276	0.199
-424.559	-200.000	-0.002	0.025
-423.544	-200.000	-0.026	-0.153
-422.530	420.845	0.070	0.198
-421.515	12.950	-0.237	0.240
-420.500	-64.377	0.094	0.050
-419.486	-136.607	-0.263	0.039
-418.471	-40.214	-0.266	-0.181
-417.457	-98.617	-0.124	-0.041
-416.442	-127.795	0.159	-0.030
-415.428	156.044	0.303	-0.549
-414.413	-61.227	0.579	-0.319
-413.398	-30.900	-0.129	0.095
-412.384	299.138	0.149	0.362
-411.369	-137.627	-0.112	0.016
-410.355	-43.877	0.245	0.162
-409.340	14.831	-0.211	0.217
-408.325	-200.000	0.024	0.251
-407.311	-52.789	-0.284	-0.171
-406.296	-116.458	0.075	0.018
-405.282	205.246	0.104	-0.212
-404.267	550.291	-0.005	-0.016
-403.252	-200.000	0.031	0.321
-402.238	-200.000	-0.039	0.254
-401.223	-113.892	0.259	0.065
-400.209	-111.490	-0.265	0.070
-399.194	-26.225	0.395	0.303
-398.179	471.132	0.122	-0.361
-397.165	21.029	-0.075	-0.080
-396.150	-77.945	0.226	-0.101
-395.136	-82.767	-0.107	0.045
-394.121	-109.181	0.284	0.079
-393.106	-87.318	0.243	-0.096
-392.092	395.451	-0.067	-0.184
-391.077	-90.726	0.361	-0.136
-390.063	275.746	0.267	0.623
-389.048	-139.526	-0.524	-0.073
-388.033	-63.855	0.510	0.273
-387.019	302.300	0.095	0.231
-386.004	-6.855	-0.207	-0.184
-384.990	-156.553	-0.333	0.027
-383.975	73.265	0.155	0.213
-382.960	-200.000	0.034	0.317
-381.946	1.950	0.230	0.217
-380.931	51.692	-0.039	0.049
-379.917	-57.245	0.301	0.173
-378.902	39.995	0.191	0.225
-377.888	-200.000	-0.015	0.228
-376.873	-29.753	0.269	-0.200
-375.858	-153.430	-0.266	-0.024
-374.844	-200.000	-0.021	0.172
-373.829	800.000	-0.066	0.278
-372.815	15.338	0.093	-0.095
-371.800	-88.983	-0.103	-0.040
-370.785	95.897	-0.099	-0.148
-369.771	-174.655	-0.238	0.009
-368.756	154.680	0.053	-0.095
-367.742	-115.886	-0.124	-0.030
-366.727	96.710	-0.097	-0.145
-365.712	800.000	0.015	-0.087
-364.698	224.401	0.126	-0.267
-363.683	-8.002	-0.082	0.072
-362.669	-177.849	-0.248	0.008
-361.654	5.243	-0.372	-0.359
-360.639	71.922	-0.083	-0.114
-359.625	-2.841	0.420	0.384
-358.610	-119.766	0.388	-0.087
-357.596	-200.000	0.113	-0.735
-356.581	-128.975	0.290	0.053
-355.566	-127.917	-0.393	-0.073
-354.552	-200.000	-0.016	0.136
-353.537	2.807	0.216	-0.205
-352.523	-105.514	0.318	0.094
-351.508	193.543	-0.151	0.299
-350.493	-106.262	-0.482	0.140
-349.479	666.691	0.117	0.400
-348.464	135.957	0.121	-0.207
-347.450	-109.861	0.092	-0.025
-346.435	427.817	0.076	0.217
-345.420	-200.000	-0.019	0.197
-344.406	43.098	-0.024	0.029
-343.391	-200.000	-0.034	-0.366
-342.377	356.977	-0.086	-0.226
-341.362	-165.492	-0.387	-0.022
-340.348	-6.355	0.360	-0.321
-339.333	-25.649	0.341	-0.263
-338.318	742.111	0.164	0.580
-337.304	-141.593	0.430	-0.056
-336.289	-110.349	-0.446	0.120
-335.275	363.323	0.029	-0.077
-334.260	-86.508	0.172	-0.069
-333.245	-31.733	0.248	-0.182
-332.231	-151.442	0.147	-0.014
-331.216	-89.373	-0.417	0.160
-330.202	479.902	-0.055	0.165
-329.187	-44.785	0.189	-0.123
-328.172	-180.393	0.275	-0.007
-327.158	282.845	-0.203	-0.478
-326.143	367.117	0.091	-0.242
-325.129	-66.100	0.312	0.162
-324.114	73.861	0.101	0.139
-323.099	800.000	-0.042	0.183
-322.085	-110.137	-0.377	0.102
-321.070	-143.013	-0.194	-0.024
-320.056	-134.295	-0.133	0.021
-319.041	-200.000	-0.002	-0.015
-318.026	-59.226	0.209	-0.117
-317.012	6.853	0.199	-0.193
-315.997	100.169	-0.048	0.073
-314.983	-166.411	0.181	-0.010
-313.968	-120.081	-0.085	-0.019
-312.953	800.000	-0.135	0.495
-311.939	303.102	-0.208	-0.505
-310.924	14.885	-0.402	-0.410
-309.910	33.094	-0.051	-0.057
-308.895	36.125	-0.147	-0.169
-307.880	800.000	-0.157	0.757
-306.866	-200.000	0.034	0.460
-305.851	-200.000	-0.001	0.020
-304.837	-200.000	0.032	0.449
-303.822	-186.586	0.250	-0.005
-302.807	-110.604	0.360	-0.097
-301.793	80.907	0.115	0.162
-300.778	26.328	-0.210	-0.229
-299.764	-200.000	-0.003	0.193
-298.749	339.526	0.139	0.354
-297.735	-113.925	0.371	-0.093
-296.720	80.648	-0.309	0.435
-295.705	291.813	0.177	-0.423
-294.691	334.371	-0.125	0.317
-293.676	-102.084	-0.402	-0.126
-292.662	-151.238	-0.563	0.054
-291.647	-133.959	-0.321	-0.051
-290.632	-200.000	0.048	0.504
-289.618	766.177	0.135	-0.481
-288.603	322.834	-0.054	0.135
-287.589	-43.775	-0.485	0.318
-286.574	-200.000	-0.068	0.441
-285.559	-37.404	-0.107	0.075
-284.545	-200.000	-0.055	0.397
-283.530	-100.723	-0.242	0.077
-282.516	349.319	0.011	-0.030
-281.501	800.000	0.035	-0.190
-280.486	358.490	0.024	0.063
-279.472	-122.496	0.248	-0.052
-278.457	-47.219	0.151	0.096
-277.443	79.797	0.100	0.141
-276.428	-2.073	0.426	-0.390
-275.413	-66.717	0.465	-0.239
-274.399	125.308	0.166	0.274
-273.384	-65.706	0.524	0.273
-272.370	-78.999	-0.307	-0.136
-271.355	-32.827	0.103	0.075
-270.340	-200.000	0.023	-0.194
-269.326	-149.030	0.330	-0.034
-268.311	-101.605	-0.430	0.135
-267.297	-88.697	0.451	0.174
-266.282	-15.760	0.319	0.265
-265.267	273.414	-0.114	0.263
-264.253	173.292	-0.258	-0.487
-263.238	-113.677	-0.052	0.013
-262.224	413.733	-0.136	-0.379
-261.209	800.000	-0.019	0.103
-260.195	-33.195	-0.265	-0.191
-259.180	248.573	0.116	-0.258
-258.165	340.785	0.104	-0.267
-257.151	-26.162	0.300	-0.230
-256.136	800.000	-0.037	0.135
-255.122	-95.926	0.413	0.143
-254.107	800.000	-0.065	-0.290
-253.092	246.676	0.194	-0.429
-252.078	21.961	0.065	-0.070
-251.063	-127.201	-0.093	-0.018
-250.049	250.216	-0.113	0.250
-249.034	-58.147	-0.105	0.059
-248.019	-200.000	-0.057	0.565
-247.005	-200.000	0.010	0.545
-245.990	-41.959	-0.213	-0.142
-244.976	-200.000	0.037	0.479
-243.961	-200.000	0.037	0.356
-242.946	-57.909	-0.503	-0.286
-241.932	-138.787	0.163	0.023
-240.917	-200.000	-0.067	-0.543
-239.903	57.029	-0.157	0.199
-238.888	79.290	-0.141	0.198
-237.873	-200.000	-0.017	-0.244
-236.859	157.329	-0.291	-0.525
-235.844	-45.580	0.334	-0.215
-234.830	-200.000	-0.011	0.160
-233.815	-52.602	0.245	-0.147
-232.800	83.135	-0.251	0.357
-231.786	-112.513	-0.370	-0.095
-230.771	-28.306	0.404	-0.303
-229.757	-105.694	0.273	-0.080
-228.742	-45.736	-0.196	0.126
-227.727	-70.443	-0.540	-0.265
-226.713	-49.736	0.747	-0.461
-225.698	-125.902	-0.278	0.054
-224.684	16.621	-0.219	0.226
-223.669	-81.484	-0.045	-0.019
-222.655	612.797	0.131	-0.429
-221.640	-44.464	-0.259	0.168
-220.625	47.198	-0.283	0.343
-219.611	800.000	-0.025	-0.128
-218.596	-166.286	-0.175	-0.009
-217.582	-200.000	0.001	0.261
-216.567	-89.590	0.568	0.216
-215.552	73.252	-0.282	0.384
-214.538	-115.445	-0.371	0.090
-213.523	-185.530	-0.290	-0.006
-212.509	239.201	-0.044	0.095
-211.494	-167.175	-0.193	0.010
-210.479	-200.000	0.033	0.379
-209.465	-172.267	-0.184	0.008
-208.450	-41.899	0.193	0.129
-207.436	325.316	0.108	0.269
-206.421	-57.624	0.217	-0.123
-205.406	21.000	0.347	-0.366
-204.392	-48.013	0.452	0.284
-203.377	-92.759	0.088	-0.032
-202.363	-200.000	-0.059	0.366
-201.348	27.096	0.262	-0.286
-200.333	-109.465	0.404	-0.110
-199.319	91.146	0.186	0.272
-198.304	800.000	0.094	0.391
-197.290	154.739	-0.111	0.199
-196.275	591.001	0.077	-0.250
-195.260	34.043	0.127	-0.144
-194.246	800.000	-0.042	-0.235
-193.231	-200.000	0.027	-0.364
-192.217	157.301	0.048	0.086
-191.202	-87.368	-0.507	-0.199
-190.187	60.499	0.114	-0.147
-189.173	-75.121	-0.129	0.060
-188.158	153.101	-0.054	-0.096
-187.144	634.242	0.117	-0.390
-186.129	260.139	0.108	0.243
-185.114	800.000	0.036	-0.170
-184.100	-108.384	-0.301	-0.084
-183.085	-200.000	0.005	-0.325
-182.071	7.850	-0.233	-0.227
-181.056	-200.000	-0.061	0.377
-180.042	-17.922	0.035	-0.029
-179.027	-200.000	0.477	-0.001
-178.012	-47.734	0.128	-0.080
-176.998	-162.769	0.363	-0.023
-175.983	52.991	-0.156	-0.194
-174.969	-200.000	0.009	-0.342
-173.954	63.931	-0.164	-0.215
-172.939	-48.046	0.492	-0.308
-171.925	249.406	0.122	-0.270
-170.910	800.000	0.055	-0.228
-169.896	6.491	0.087	-0.084
-168.881	3.759	0.200	0.190
-167.866	-69.951	-0.479	0.236
-166.852	-82.222	-0.354	-0.149
-165.837	-114.198	-0.238	-0.059
-164.823	71.558	-0.137	-0.185
-163.808	-45.934	-0.150	0.096
-162.793	53.153	0.374	-0.466
-161.779	33.251	0.398	0.449
-160.764	-60.128	0.381	-0.210
-159.750	-200.000	0.134	0.001
-158.735	-42.562	-0.065	0.043
-157.720	800.000	-0.067	-0.363
-156.706	-128.586	0.471	-0.086
-155.691	-152.307	0.058	0.005
-154.677	21.236	-0.486	-0.513
-153.662	3.651	-0.038	0.036
-152.647	-2.223	-0.224	0.204
-151.633	-104.653	-0.372	0.111
-150.618	23.343	0.208	0.222
-149.604	-200.000	-0.007	-0.845
-148.589	136.742	0.084	0.142
-147.574	-20.121	0.437	-0.349
-146.560	21.633	0.343	0.363
-145.545	330.769	0.106	-0.265
-144.531	-122.045	-0.140	0.030
-143.516	800.000	0.159	-0.666
-142.502	-198.819	0.357	-0.002
-141.487	-74.233	0.401	0.187
-140.472	12.563	0.110	0.110
-139.458	4.661	0.207	0.197
-138.443	800.000	-0.161	0.630
-137.429	-100.851	-0.269	-0.085
-136.414	-200.000	0.002	-0.077
-135.399	-200.000	-0.012	0.435
-134.385	-200.000	0.024	0.398
-133.370	24.624	0.116	-0.125
-132.356	-61.175	0.457	0.249
-131.341	800.000	0.093	0.426
-130.326	800.000	-0.034	0.129
-129.312	29.099	0.148	0.162
-128.297	-200.000	0.073	0.457
-127.283	29.066	0.204	0.224
-126.268	-200.000	-0.018	0.499
-125.253	-9.266	0.142	-0.123
-124.239	-183.907	0.716	-0.015
-123.224	-119.552	0.452	0.101
-122.210	168.810	-0.191	-0.354
-121.195	-200.000	-0.071	0.624
