DTS Sentinel unit serial number:	SN409020Multiplexer serial number:	ORYXHardware model number:	OX4-SRSoftware version number:	ORYX F/W v3.00 Oryx Data Collector v3.7.2.0data status	okinstallation	HaddamTimeLapsedifferential loss correction	single-endedforward channel	channel 3reverse channel	N/Adate	2011/06/21time	19:21:17forward acquisition time	30.00reverse acquisition time	0.00gamma	498.7831k internal	0.1797k external	0.1797temperature offset calibration	1.0074default loss term (dB/km)	0.3790temperature slope calibration	1.3530multiplexer offset coefficient	1.0000multiplexer slope coefficient	1.0000fibre end	0.00T internal ref (°C)	34.06T ext. ref 1 (°C)	26.97T ext. ref 2 (°C)	0.24length (m)	temperature (°C)	Stokes	anti-Stokes-747.200	-21.237	-0.153	-0.121
-746.185	-26.058	-0.232	0.176
-745.171	-30.692	-0.180	0.132
-744.156	238.520	0.137	0.295
-743.142	-142.649	-0.566	0.071
-742.127	-34.012	-0.087	0.062
-741.112	5.581	0.063	-0.061
-740.098	-41.051	-0.506	0.337
-739.083	-157.079	-0.328	0.026
-738.069	398.283	-0.270	0.735
-737.054	-53.379	-0.084	0.050
-736.039	-59.870	0.403	-0.222
-735.025	3.770	0.317	-0.299
-734.010	-200.000	-0.015	0.501
-732.996	800.000	-0.049	0.256
-731.981	-200.000	0.000	0.206
-730.966	114.572	0.135	-0.214
-729.952	-35.621	-0.085	-0.060
-728.937	-11.146	0.302	-0.257
-727.923	800.000	-0.111	-0.538
-726.908	5.316	-0.331	-0.316
-725.894	-54.654	-0.075	0.044
-724.879	45.297	0.253	0.303
-723.864	-92.874	-0.346	-0.124
-722.850	-60.655	-0.147	0.080
-721.835	29.895	-0.252	-0.277
-720.821	-129.863	0.176	0.031
-719.806	27.427	0.370	0.402
-718.791	41.694	0.169	0.199
-717.777	-200.000	-0.043	-0.455
-716.762	-29.037	-0.440	-0.326
-715.748	726.942	0.094	-0.326
-714.733	84.093	0.137	0.194
-713.718	800.000	0.052	0.252
-712.704	-200.000	-0.014	0.362
-711.689	-134.701	-0.517	0.080
-710.675	454.203	0.166	-0.478
-709.660	-95.371	-0.556	-0.192
-708.645	185.831	-0.218	0.420
-707.631	-200.000	0.010	-0.107
-706.616	-95.939	0.272	0.093
-705.602	-163.961	-0.554	0.033
-704.587	-46.697	-0.080	0.051
-703.572	168.040	-0.141	-0.261
-702.558	-114.307	-1.070	-0.265
-701.543	-109.598	-0.448	0.121
-700.529	800.000	0.013	0.049
-699.514	-53.075	-0.366	-0.217
-698.499	117.197	0.131	-0.209
-697.485	524.667	0.022	-0.066
-696.470	67.195	-0.353	0.466
-695.456	106.569	-0.114	0.175
-694.441	42.962	-0.155	-0.183
-693.426	179.104	-0.075	-0.142
-692.412	148.966	-0.339	0.594
-691.397	315.669	-0.159	0.389
-690.383	-168.714	-0.294	-0.014
-689.368	800.000	-0.076	-0.281
-688.354	53.266	-0.287	0.356
-687.339	-50.568	0.216	-0.131
-686.324	-200.000	-0.025	-0.391
-685.310	48.823	-0.243	-0.294
-684.295	27.075	0.185	0.201
-683.281	-90.282	-0.112	0.042
-682.266	261.861	-0.100	-0.225
-681.251	128.422	0.354	0.584
-680.237	-35.011	0.279	-0.196
-679.222	-113.467	-0.404	-0.101
-678.208	53.478	-0.210	0.260
-677.193	-200.000	-0.016	-0.161
-676.178	-18.967	-0.490	0.393
-675.164	-42.377	-0.374	-0.246
-674.149	485.441	0.088	0.261
-673.135	-200.000	-0.028	-0.370
-672.120	-126.046	0.256	0.049
-671.105	-127.077	-0.158	0.030
-670.091	-79.329	-0.268	-0.116
-669.076	-200.000	-0.018	-0.245
-668.062	-58.044	0.130	-0.073
-667.047	-155.122	-0.157	0.013
-666.032	-124.307	-0.429	0.086
-665.018	287.603	0.087	-0.205
-664.003	-162.200	0.402	0.026
-662.989	-163.310	0.261	0.016
-661.974	42.194	0.169	0.198
-660.959	800.000	-0.070	0.308
-659.945	166.381	-0.149	0.274
-658.930	-66.217	-0.171	-0.088
-657.916	-200.000	-0.013	-0.456
-656.901	-152.593	-0.422	0.038
-655.886	-200.000	0.021	0.378
-654.872	47.595	-0.175	0.210
-653.857	305.075	0.129	0.311
-652.843	98.348	-0.171	0.255
-651.828	-14.675	-0.219	0.181
-650.814	-67.545	0.354	-0.179
-649.799	-107.095	-0.462	-0.131
-648.784	442.688	0.166	-0.472
-647.770	50.942	0.089	-0.109
-646.755	441.539	-0.087	-0.247
-645.741	-138.456	-0.413	0.058
-644.726	-25.834	-0.208	0.158
-643.711	-85.941	0.200	0.079
-642.697	-65.670	-0.722	0.372
-641.682	-179.450	0.286	0.008
-640.668	800.000	0.098	0.472
-639.653	211.712	-0.320	0.652
-638.638	-24.792	-0.259	0.198
-637.624	53.065	0.067	0.083
-636.609	131.472	-0.042	0.070
-635.595	800.000	-0.020	0.095
-634.580	452.012	-0.223	0.639
-633.565	-200.000	-0.036	-0.261
-632.551	-96.672	0.154	-0.052
-631.536	19.631	0.260	0.270
-630.522	-7.590	0.282	-0.246
-629.507	-142.615	-0.218	0.027
-628.492	-19.532	0.344	0.274
-627.478	55.590	0.290	-0.362
-626.463	132.000	0.066	0.109
-625.449	-150.785	-0.431	-0.042
-624.434	-138.801	-0.503	-0.070
-623.419	56.027	-0.148	-0.185
-622.405	5.433	0.353	-0.336
-621.390	-99.063	0.355	-0.115
-620.376	0.034	0.238	0.218
-619.361	54.857	0.263	-0.328
-618.346	-136.105	0.311	-0.047
-617.332	-57.651	-0.272	-0.153
-616.317	41.996	-0.011	0.013
-615.303	55.750	-0.213	-0.266
-614.288	178.427	0.350	-0.661
-613.273	83.713	0.085	-0.120
-612.259	800.000	0.045	-0.228
-611.244	-35.864	-0.385	-0.268
-610.230	-142.660	-0.163	0.020
-609.215	-200.000	-0.021	0.370
-608.201	-112.764	-0.277	0.070
-607.186	800.000	-0.162	-0.626
-606.171	10.459	-0.071	0.070
-605.157	-37.019	-0.545	-0.375
-604.142	-200.000	-0.005	-0.076
-603.128	-89.326	-0.468	0.177
-602.113	-173.162	0.223	0.009
-601.098	-94.529	0.188	-0.066
-600.084	-8.972	-0.332	-0.286
-599.069	-200.000	-0.013	0.332
-598.055	59.664	0.299	0.380
-597.040	93.404	0.040	0.059
-596.025	293.510	0.046	-0.108
-595.011	-74.692	0.462	-0.213
-593.996	-21.204	-0.109	-0.085
-592.982	-129.262	-0.099	-0.018
-591.967	-60.117	0.260	0.142
-590.952	59.125	-0.248	-0.314
-589.938	-60.589	-0.110	-0.060
-588.923	-47.203	-0.378	0.236
-587.909	105.527	0.456	0.695
-586.894	-200.000	-0.025	-0.443
-585.879	800.000	-0.039	-0.151
-584.865	-78.470	0.077	0.034
-583.850	38.638	0.233	0.267
-582.836	173.093	-0.046	0.085
-581.821	-119.704	-0.158	0.035
-580.806	673.211	0.068	0.228
-579.792	-84.265	-0.246	-0.100
-578.777	224.667	0.110	0.231
-577.763	-101.814	0.223	0.069
-576.748	-127.095	0.529	0.099
-575.733	-200.000	-0.033	0.498
-574.719	-104.419	-0.338	0.100
-573.704	-200.000	0.009	-0.202
-572.690	-200.000	0.051	-0.699
-571.675	-193.324	0.188	0.002
-570.661	91.583	0.205	0.296
-569.646	-90.252	-0.500	-0.186
-568.631	-151.099	0.459	-0.044
-567.617	-30.797	0.216	-0.157
-566.602	-171.387	-0.463	-0.020
-565.588	-89.835	-0.194	0.073
-564.573	-162.406	-0.647	-0.041
-563.558	-42.501	0.291	0.190
-562.544	-57.591	-0.563	0.316
-561.529	-6.891	-0.025	0.022
-560.515	-65.256	-0.363	-0.187
-559.500	-112.521	-0.305	-0.078
-558.485	-200.000	0.199	-0.001
-557.471	-47.407	0.223	-0.139
-556.456	219.079	0.149	-0.308
-555.442	282.542	0.072	0.168
-554.427	718.430	0.063	0.217
-553.412	-75.204	-0.571	-0.261
-552.398	-149.811	-0.177	0.018
-551.383	176.643	-0.192	0.360
-550.369	-44.418	-0.073	0.047
-549.354	374.383	-0.151	-0.398
-548.339	106.660	-0.243	0.371
-547.325	-41.306	-0.394	0.260
-546.310	-151.438	0.572	0.054
-545.296	-22.741	0.306	-0.237
-544.281	-159.919	-0.296	-0.021
-543.266	-15.719	0.195	-0.159
-542.252	800.000	-0.045	0.169
-541.237	169.932	0.152	-0.281
-540.223	-71.158	-0.078	-0.038
-539.208	-138.606	-0.502	0.070
-538.193	-200.000	0.043	0.427
-537.179	-121.512	-0.214	-0.045
-536.164	128.819	0.145	-0.238
-535.150	-200.000	-0.024	0.248
-534.135	-200.000	0.050	-0.347
-533.121	-101.780	-0.057	0.018
-532.106	93.912	0.081	0.118
-531.091	-157.737	0.333	-0.025
-530.077	-4.370	0.269	0.239
-529.062	-200.000	-0.013	-0.396
-528.048	153.767	0.212	0.373
-527.033	267.606	-0.112	0.252
-526.018	-97.542	0.180	-0.060
-525.004	-20.843	0.195	-0.153
-523.989	-73.385	0.357	0.167
-522.975	21.507	0.220	-0.230
-521.960	66.116	0.089	0.116
-520.945	607.217	-0.121	0.389
-519.931	-11.387	-0.221	0.187
-518.916	-2.027	-0.375	0.338
-517.902	-3.254	0.221	0.197
-516.887	88.602	0.284	0.406
-515.872	132.573	0.351	0.582
-514.858	-54.314	0.168	-0.097
-513.843	-148.800	0.847	0.087
-512.829	-25.815	0.270	0.204
-511.814	-200.000	-0.022	-0.272
-510.799	-200.000	-0.021	-0.427
-509.785	-49.098	-0.205	0.126
-508.770	-41.350	-0.203	-0.134
-507.756	-98.890	-0.442	-0.143
-506.741	-165.002	0.385	0.022
-505.726	-26.184	0.158	-0.119
-504.712	-153.733	0.154	0.013
-503.697	-185.514	0.222	-0.004
-502.683	-136.275	-0.280	-0.041
-501.668	-137.006	0.352	0.051
-500.653	-200.000	-0.059	0.343
-499.639	-62.874	0.312	0.165
-498.624	120.870	0.215	-0.343
-497.610	63.037	0.056	-0.072
-496.595	-137.696	-0.238	-0.034
-495.581	-200.000	0.061	-0.393
-494.566	141.478	0.112	-0.191
-493.551	-19.160	0.137	-0.109
-492.537	-61.060	-0.161	0.087
-491.522	37.812	-0.282	0.321
-490.508	12.401	0.060	0.059
-489.493	273.978	-0.199	-0.453
-488.478	-121.241	0.210	-0.045
-487.464	-18.963	-0.115	0.091
-486.449	-35.765	0.221	-0.153
-485.435	-105.149	-0.187	0.054
-484.420	-35.133	-0.235	0.164
-483.405	21.490	0.282	-0.293
-482.391	-22.575	-0.316	-0.244
-481.376	-1.828	0.421	-0.379
-480.362	-57.713	0.147	-0.082
-479.347	-129.285	0.230	0.041
-478.332	220.644	-0.086	0.178
-477.318	-130.432	-0.293	-0.050
-476.303	-172.001	0.486	-0.020
-475.289	-80.705	-0.226	-0.096
-474.274	-130.119	-0.228	-0.039
-473.259	143.849	0.271	-0.465
-472.245	-102.993	-0.268	-0.081
-471.230	-42.046	-0.238	-0.156
-470.216	-140.850	-0.184	-0.024
-469.201	-200.000	-0.001	-0.251
-468.186	-29.160	-0.435	-0.319
-467.172	100.643	-0.214	-0.320
-466.157	800.000	0.015	0.067
-465.143	7.574	0.221	-0.212
-464.128	-200.000	-0.045	0.471
-463.113	-177.902	-0.527	0.016
-462.099	116.813	-0.161	0.253
-461.084	545.430	-0.154	0.473
-460.070	-163.648	-0.364	-0.022
-459.055	63.708	-0.065	0.084
-458.040	-12.922	0.256	-0.213
-457.026	-200.000	0.073	-0.529
-456.011	17.249	0.175	0.178
-454.997	-141.884	-0.228	0.029
-453.982	185.486	-0.086	-0.163
-452.968	-113.931	-0.126	0.031
-451.953	10.502	-0.270	0.264
-450.938	-34.916	-0.520	-0.362
-449.924	94.068	-0.061	0.089
-448.909	800.000	-0.017	-0.096
-447.895	-149.314	-0.586	-0.059
-446.880	45.846	-0.365	-0.432
-445.865	-173.437	0.383	0.015
-444.851	-85.865	-0.378	-0.149
-443.836	-85.651	0.172	-0.068
-442.822	-66.480	-0.339	0.171
-441.807	-200.000	0.020	-0.381
-440.792	-6.641	0.295	0.257
-439.778	142.291	-0.197	-0.335
-438.763	-138.145	0.278	0.039
-437.749	200.315	-0.269	-0.531
-436.734	-131.278	-0.506	-0.085
-435.719	-92.078	-0.240	-0.086
-434.705	-98.837	0.241	0.078
-433.690	36.366	-0.155	0.175
-432.676	-142.235	0.413	0.052
-431.661	-11.458	0.110	0.092
-430.646	-135.585	-0.346	-0.052
-429.632	-100.526	-0.537	0.169
-428.617	104.035	-0.095	-0.142
-427.603	18.316	-0.336	0.343
-426.588	-198.359	-0.281	0.002
-425.573	-200.000	0.010	0.077
-424.559	-131.990	0.519	-0.086
-423.544	-45.794	0.653	0.411
-422.530	-138.627	0.411	0.057
-421.515	9.743	-0.396	0.383
-420.500	-200.000	-0.002	0.511
-419.486	4.776	0.228	0.214
-418.471	-200.000	-0.062	0.546
-417.457	-118.660	0.262	-0.059
-416.442	-58.056	0.478	0.266
-415.428	13.892	-0.304	-0.302
-414.413	800.000	0.040	0.151
-413.398	800.000	-0.043	0.172
-412.384	-200.000	-0.022	-0.528
-411.369	-88.766	0.581	-0.219
-410.355	-200.000	0.030	0.190
-409.340	-151.328	0.034	-0.003
-408.325	-77.508	0.454	0.200
-407.311	126.795	0.099	0.160
-406.296	800.000	0.075	-0.316
-405.282	-90.862	0.278	-0.102
-404.267	448.068	0.046	0.130
-403.252	124.103	0.224	-0.360
-402.238	800.000	0.102	0.371
-401.223	-103.324	0.450	0.135
-400.209	49.301	-0.167	0.201
-399.194	-52.235	0.142	-0.084
-398.179	742.021	-0.063	0.219
-397.165	-93.237	0.116	-0.041
-396.150	32.129	-0.284	0.312
-395.136	800.000	0.029	-0.118
-394.121	-77.059	-0.500	0.222
-393.106	-52.746	-0.537	-0.315
-392.092	-34.384	-0.147	-0.103
-391.077	-0.208	0.266	-0.242
-390.063	-200.000	-0.006	-0.067
-389.048	-10.946	-0.179	-0.151
-388.033	-200.000	-0.011	0.093
-387.019	-200.000	0.043	-0.553
-386.004	-82.946	-0.261	-0.107
-384.990	-88.979	-0.273	-0.103
-383.975	-155.795	-0.174	0.014
-382.960	67.746	0.118	0.154
-381.946	-113.315	-0.246	0.061
-380.931	-68.237	0.304	-0.150
-379.917	-200.000	-0.065	-0.388
-378.902	192.990	0.148	0.286
-377.888	-200.000	-0.026	-0.230
-376.873	111.960	-0.092	-0.143
-375.858	247.724	0.146	0.315
-374.844	288.918	0.085	-0.198
-373.829	569.497	0.054	0.170
-372.815	-200.000	-0.029	0.655
-371.800	-147.206	-0.587	0.063
-370.785	-85.719	-0.374	0.147
-369.771	798.031	-0.063	-0.224
-368.756	-16.152	-0.135	-0.110
-367.742	-38.075	-0.043	-0.029
-366.727	-200.000	0.045	0.346
-365.712	-65.434	-0.339	-0.173
-364.698	-96.319	-0.503	0.169
-363.683	59.074	0.333	0.419
-362.669	-0.612	0.640	0.579
-361.654	-28.430	0.292	0.215
-360.639	85.428	0.123	-0.172
-359.625	-100.857	-0.324	-0.101
-358.610	-24.097	0.342	-0.260
-357.596	623.407	0.078	0.253
-356.581	-200.000	0.006	-0.064
-355.566	-56.443	-0.439	-0.248
-354.552	800.000	0.178	-0.739
-353.537	-107.298	0.323	-0.090
-352.523	-37.276	-0.225	0.153
-351.508	-64.098	0.034	0.018
-350.493	-80.123	0.258	-0.110
-349.479	53.057	0.243	0.297
-348.464	-94.952	-0.215	0.074
-347.450	-200.000	-0.021	0.300
-346.435	82.467	-0.371	0.515
-345.420	275.987	0.014	0.032
-344.406	89.934	0.043	-0.062
-343.391	-61.234	-0.422	-0.226
-342.377	-51.044	0.169	0.101
-341.362	-6.640	0.146	-0.126
-340.348	800.000	-0.141	-0.524
-339.333	-44.005	-0.204	0.130
-338.318	512.033	0.126	0.376
-337.304	0.184	-0.103	-0.093
-336.289	-200.000	0.032	0.338
-335.275	-46.049	0.151	-0.095
-334.260	-151.777	-0.111	-0.010
-333.245	-45.499	0.449	0.283
-332.231	11.947	-0.066	0.065
-331.216	-200.000	0.029	-0.338
-330.202	-94.247	0.123	0.043
-329.187	-100.594	-0.297	0.093
-328.172	-48.857	-0.245	-0.149
-327.158	614.806	-0.101	0.324
-326.143	719.144	0.198	0.674
-325.129	-85.728	0.066	0.026
-324.114	-165.209	-0.325	-0.018
-323.099	-34.885	0.477	-0.331
-322.085	93.129	0.062	0.090
-321.070	-43.662	0.321	0.206
-320.056	114.128	-0.224	0.347
-319.041	307.449	-0.072	0.171
-318.026	-200.000	0.083	0.480
-317.012	126.868	0.312	0.505
-315.997	-66.661	0.353	0.177
-314.983	-200.000	0.015	0.240
-313.968	-34.368	0.109	0.076
-312.953	-167.944	0.616	-0.030
-311.939	-200.000	0.038	-0.234
-310.924	-98.516	0.311	0.101
-309.910	352.370	0.149	0.378
-308.895	-69.435	0.640	0.311
-307.880	135.266	0.166	0.275
-306.866	-69.321	0.339	0.165
-305.851	-183.475	-0.278	-0.006
-304.837	-0.929	0.248	-0.223
-303.822	96.868	-0.150	-0.218
-302.807	-45.619	0.089	-0.056
-301.793	800.000	0.104	0.450
-300.778	395.380	0.048	0.127
-299.764	-107.882	-0.025	0.007
-298.749	-200.000	-0.011	0.321
-297.735	98.551	-0.297	-0.436
-296.720	4.765	-0.312	-0.291
-295.705	-200.000	-0.014	-0.333
-294.691	-108.813	0.193	0.052
-293.676	201.238	-0.030	-0.059
-292.662	303.692	-0.069	0.164
-291.647	153.309	-0.133	0.232
-290.632	-143.870	-0.437	-0.052
-289.618	-142.080	-0.401	0.050
-288.603	-77.939	0.280	-0.122
-287.589	591.828	0.087	-0.276
-286.574	-158.002	0.240	-0.018
-285.559	359.236	0.095	-0.242
-284.545	-47.362	0.456	-0.282
-283.530	800.000	-0.124	0.642
-282.516	-108.125	0.347	-0.095
-281.501	-200.000	0.052	-0.508
-280.486	-64.475	0.328	-0.169
-279.472	651.866	-0.086	-0.282
-278.457	-190.920	-0.553	-0.007
-277.443	-115.315	0.063	0.015
-276.428	-151.188	-0.404	-0.038
-275.413	-200.000	-0.060	-0.373
-274.399	-12.746	-0.276	-0.228
-273.384	534.943	-0.047	0.141
-272.370	-200.000	-0.003	0.245
-271.355	33.865	-0.139	0.153
-270.340	-28.898	0.205	-0.149
-269.326	-104.106	0.439	0.129
-268.311	3.317	-0.184	-0.170
-267.297	251.420	-0.048	-0.104
-266.282	-34.173	-0.467	0.325
-265.267	-92.603	-0.165	-0.058
-264.253	481.109	0.071	-0.206
-263.238	112.692	0.218	-0.336
-262.224	205.262	-0.173	-0.343
-261.209	53.859	-0.376	-0.459
-260.195	800.000	-0.104	-0.452
-259.180	-41.085	0.665	0.435
-258.165	-65.391	0.367	0.187
-257.151	40.252	0.037	-0.043
-256.136	265.493	0.090	0.201
-255.122	285.820	0.027	-0.063
-254.107	-200.000	-0.025	0.281
-253.092	-24.168	0.190	-0.144
-252.078	-4.974	-0.173	-0.151
-251.063	-62.768	0.041	-0.021
-250.049	800.000	-0.126	-0.517
-249.034	-200.000	0.237	0.000
-248.019	-54.635	-0.192	-0.110
-247.005	378.245	0.184	0.481
-245.990	-76.531	0.581	-0.258
-244.976	-200.000	-0.026	0.225
-243.961	800.000	-0.007	0.031
-242.946	-83.054	-0.508	-0.207
-241.932	-200.000	0.001	0.123
-240.917	-200.000	0.029	-0.356
-239.903	102.686	0.034	-0.050
-238.888	185.738	0.107	0.203
-237.873	299.756	0.207	0.487
-236.859	800.000	-0.107	-0.405
-235.844	495.426	-0.066	-0.195
-234.830	59.107	0.106	0.133
-233.815	800.000	0.107	0.455
-232.800	-63.154	0.156	-0.082
-231.786	-148.032	-0.212	0.022
-230.771	-142.267	0.185	-0.023
-229.757	498.093	0.219	-0.644
-228.742	-144.498	0.111	0.013
-227.727	655.099	0.044	-0.145
-226.713	-104.214	-0.604	-0.177
-225.698	61.731	0.272	0.344
-224.684	4.122	0.035	-0.033
-223.669	-129.556	0.386	-0.067
-222.655	-169.665	0.348	-0.016
-221.640	106.721	-0.317	0.479
-220.625	-200.000	0.016	0.201
-219.611	-51.004	0.312	-0.185
-218.596	-200.000	-0.048	-0.365
-217.582	-71.302	-0.064	-0.030
-216.567	-20.897	0.243	0.189
-215.552	8.516	0.254	-0.242
-214.538	-128.970	0.565	0.100
-213.523	275.106	-0.120	-0.272
-212.509	-83.011	-0.170	-0.069
-211.494	172.385	-0.213	0.390
-210.479	-117.414	-0.298	0.068
-209.465	-200.000	0.014	-0.193
-208.450	-132.800	0.359	0.058
-207.436	-70.594	-0.028	-0.013
-206.421	-77.329	-0.302	-0.133
-205.406	248.750	0.274	-0.591
-204.392	-200.000	-0.035	-0.356
-203.377	38.872	0.478	-0.541
-202.363	-200.000	-0.014	0.087
-201.348	83.950	-0.300	-0.416
-200.333	-49.762	0.292	-0.175
-199.319	-27.578	0.348	-0.256
-198.304	-85.216	-0.378	-0.149
-197.290	2.470	-0.104	-0.095
-196.275	-78.827	0.498	0.214
-195.260	-26.514	-0.496	0.368
-194.246	-200.000	-0.089	-0.561
-193.231	800.000	0.034	0.149
-192.217	-200.000	0.001	0.357
-191.202	-23.030	-0.281	0.214
-190.187	-200.000	0.051	0.297
-189.173	-62.550	-0.164	0.086
-188.158	-149.741	0.202	-0.020
-187.144	-191.387	0.068	0.001
-186.129	17.967	0.099	-0.100
-185.114	-174.158	0.276	-0.010
-184.100	78.136	0.162	0.219
-183.085	-12.703	0.044	0.036
-182.071	-37.960	-0.689	0.462
-181.056	-111.012	-0.426	0.110
-180.042	-7.351	0.240	-0.206
-179.027	257.571	0.096	-0.211
-178.012	746.708	-0.072	-0.248
-176.998	800.000	-0.055	-0.230
-175.983	26.350	0.171	0.181
-174.969	-200.000	0.015	0.532
-173.954	103.952	0.089	0.133
-172.939	-102.769	0.293	0.088
-171.925	-200.000	0.028	-0.261
-170.910	541.322	-0.150	0.454
-169.896	-44.575	0.135	-0.085
-168.881	112.299	0.153	0.235
-167.866	-200.000	-0.009	-0.209
-166.852	-10.202	-0.343	0.288
-165.837	366.178	0.076	-0.195
-164.823	-195.567	-0.168	0.002
-163.808	-116.378	0.098	-0.023
-162.793	195.354	0.242	0.466
-161.779	-200.000	-0.008	0.182
-160.764	405.848	-0.153	-0.411
-159.750	-0.461	-0.381	-0.343
-158.735	11.874	0.287	-0.278
-157.720	47.798	-0.452	-0.534
-156.706	-145.705	-0.335	0.037
-155.691	-61.439	0.211	0.112
-154.677	-200.000	-0.040	0.303
-153.662	-23.004	-0.128	-0.097
-152.647	46.694	-0.079	-0.093
-151.633	759.149	0.089	0.308
-150.618	354.024	0.212	0.535
-149.604	27.218	-0.239	0.254
-148.589	-65.665	0.302	-0.152
-147.574	-117.977	-0.290	0.065
-146.560	-110.493	0.357	0.093
-145.545	-200.000	-0.038	0.395
-144.531	-188.446	-0.285	-0.004
-143.516	137.605	-0.154	0.256
-142.502	-71.804	-0.219	-0.103
-141.487	-171.731	-0.357	-0.015
-140.472	-70.077	0.172	-0.082
-139.458	139.849	-0.119	-0.198
-138.443	800.000	0.093	0.473
-137.429	-119.103	-0.127	0.028
-136.414	403.923	0.101	-0.270
-135.399	-141.311	-0.296	0.038
-134.385	800.000	-0.053	-0.192
-133.370	-128.857	-0.194	0.034
-132.356	446.049	-0.198	0.554
-131.341	-125.226	0.501	-0.096
-130.326	336.250	0.232	-0.572
-129.312	60.823	-0.120	0.151
-128.297	-160.794	0.605	0.040
-127.283	-85.923	0.267	0.104
-126.268	-200.000	0.002	-0.437
-125.253	800.000	-0.061	-0.278
-124.239	-181.512	-0.356	0.009
-123.224	36.643	0.056	0.063
-122.210	280.413	-0.095	0.214
