DTS Sentinel unit serial number:	SN409020Multiplexer serial number:	ORYXHardware model number:	OX4-SRSoftware version number:	ORYX F/W v3.00 Oryx Data Collector v3.7.2.0data status	okinstallation	HaddamTimeLapsedifferential loss correction	single-endedforward channel	channel 3reverse channel	N/Adate	2011/06/22time	07:46:17forward acquisition time	30.00reverse acquisition time	0.00gamma	498.7831k internal	0.1762k external	0.1762temperature offset calibration	1.0074default loss term (dB/km)	0.3790temperature slope calibration	1.3530multiplexer offset coefficient	1.0000multiplexer slope coefficient	1.0000fibre end	0.00T internal ref (°C)	24.00T ext. ref 1 (°C)	22.39T ext. ref 2 (°C)	0.16length (m)	temperature (°C)	Stokes	anti-Stokes-747.200	-200.000	-0.016	0.851
-746.185	38.177	-0.124	0.146
-745.171	197.716	0.068	0.138
-744.156	30.964	0.392	0.443
-743.142	-97.723	0.119	-0.040
-742.127	-200.000	0.033	0.431
-741.112	706.591	-0.055	-0.191
-740.098	-37.774	0.232	0.163
-739.083	338.260	-0.110	-0.285
-738.069	800.000	0.075	0.338
-737.054	90.434	-0.171	-0.254
-736.039	-9.715	-0.237	0.209
-735.025	-200.000	-0.004	-0.327
-734.010	-99.492	0.442	-0.146
-732.996	-33.973	0.336	-0.244
-731.981	-93.102	-0.184	0.067
-730.966	63.125	-0.100	0.133
-729.952	359.533	0.080	-0.211
-728.937	291.413	0.240	-0.579
-727.923	800.000	-0.101	0.512
-726.908	-42.155	-0.556	0.374
-725.894	800.000	-0.090	-0.355
-724.879	800.000	-0.078	-0.435
-723.864	-53.804	-0.280	-0.168
-722.850	96.070	-0.341	-0.515
-721.835	-4.008	-0.102	-0.093
-720.821	26.235	-0.108	0.119
-719.806	130.461	-0.228	-0.386
-718.791	1.486	0.121	-0.114
-717.777	-60.422	-0.269	-0.150
-716.762	-72.274	0.089	0.043
-715.748	145.418	-0.081	0.144
-714.733	242.275	0.041	-0.091
-713.718	119.671	-0.062	-0.102
-712.704	-45.275	0.203	-0.132
-711.689	-178.607	0.219	-0.007
-710.675	-43.442	-0.064	-0.042
-709.660	-200.000	-0.048	-0.629
-708.645	49.547	-0.023	0.029
-707.631	-81.720	-0.184	-0.079
-706.616	-200.000	-0.054	-0.377
-705.602	-63.886	-0.129	-0.069
-704.587	800.000	0.051	0.216
-703.572	0.783	0.274	0.259
-702.558	600.688	-0.069	0.229
-701.543	-30.652	-0.264	0.196
-700.529	-61.345	-0.171	0.094
-699.514	-149.518	-0.382	0.039
-698.499	-106.104	-0.313	0.092
-697.485	-38.829	-0.181	0.126
-696.470	800.000	-0.038	-0.193
-695.456	-143.810	-0.371	-0.046
-694.441	-85.738	-0.255	-0.104
-693.426	-82.316	-0.441	0.188
-692.412	5.777	-0.228	0.222
-691.397	710.589	0.161	-0.566
-690.383	-45.872	-0.413	-0.268
-689.368	752.201	0.040	0.145
-688.354	-119.263	-0.269	-0.061
-687.339	40.312	0.355	0.421
-686.324	-123.572	-0.115	-0.024
-685.310	-113.324	0.202	-0.052
-684.295	71.148	-0.183	-0.251
-683.281	-98.034	-0.821	-0.277
-682.266	34.758	0.135	0.156
-681.251	308.417	-0.119	-0.295
-680.237	-87.214	-0.377	0.150
-679.222	-54.300	-0.327	-0.195
-678.208	-83.679	0.103	-0.043
-677.193	-91.022	0.322	-0.121
-676.178	84.502	-0.178	0.257
-675.164	-71.997	-0.261	-0.127
-674.149	-104.797	0.168	-0.051
-673.135	39.139	0.244	-0.287
-672.120	-71.835	-0.466	-0.228
-671.105	355.312	-0.091	-0.240
-670.091	-116.972	-0.256	-0.061
-669.076	197.469	0.191	-0.386
-668.062	8.183	-0.262	-0.259
-667.047	-200.000	-0.069	0.446
-666.032	-117.556	-0.079	0.019
-665.018	47.545	0.197	0.242
-664.003	171.759	0.045	-0.085
-662.989	92.046	0.135	-0.201
-661.974	-132.115	0.231	-0.039
-660.959	-200.000	0.013	-0.163
-659.945	-71.331	-0.080	-0.039
-658.930	224.642	-0.164	-0.351
-657.916	-75.926	-0.371	-0.172
-656.901	601.162	-0.150	-0.494
-655.886	-133.950	0.671	-0.108
-654.872	-32.851	-0.265	0.193
-653.857	-45.336	0.122	-0.079
-652.843	-112.483	-0.442	0.115
-651.828	-47.947	-0.422	-0.268
-650.814	800.000	0.033	-0.180
-649.799	116.689	-0.211	-0.341
-648.784	-135.660	0.406	-0.063
-647.770	100.714	-0.051	-0.079
-646.755	42.654	-0.165	-0.197
-645.741	105.230	0.189	-0.294
-644.726	-41.788	-0.181	-0.122
-643.711	-5.392	-0.067	-0.061
-642.697	501.244	-0.054	-0.164
-641.682	669.095	0.095	0.327
-640.668	-136.997	0.287	0.043
-639.653	-49.074	-0.472	0.296
-638.638	-200.000	-0.051	0.334
-637.624	21.089	-0.180	0.192
-636.609	-77.214	0.216	0.099
-635.595	-23.855	-0.446	0.350
-634.580	-172.931	-0.315	-0.013
-633.565	-150.895	0.251	-0.025
-632.551	-120.752	-0.487	0.107
-631.536	-14.595	-0.089	-0.075
-630.522	-190.004	0.179	-0.003
-629.507	-142.446	-0.300	0.038
-628.492	-79.347	0.333	0.147
-627.478	-200.000	-0.014	-0.084
-626.463	228.554	0.108	0.233
-625.449	-26.079	-0.800	0.617
-624.434	-200.000	-0.034	0.405
-623.419	-78.203	-0.198	0.089
-622.405	168.665	-0.214	0.401
-621.390	6.265	-0.064	-0.063
-620.376	180.871	-0.114	0.220
-619.361	44.909	-0.118	-0.142
-618.346	800.000	-0.117	-0.518
-617.332	64.490	0.072	-0.095
-616.317	129.530	-0.163	0.273
-615.303	-25.672	-0.342	-0.265
-614.288	-39.200	0.095	0.065
-613.273	-104.050	0.345	0.105
-612.259	-200.000	-0.019	0.449
-611.244	-148.890	0.282	0.030
-610.230	-7.779	0.128	0.114
-609.215	800.000	-0.080	-0.301
-608.201	43.692	-0.262	-0.315
-607.186	-131.185	-0.143	0.025
-606.171	-16.402	-0.335	-0.279
-605.157	-113.835	0.172	0.044
-604.142	34.288	0.189	0.217
-603.128	-171.863	-0.318	0.013
-602.113	800.000	-0.080	-0.307
-601.098	-200.000	-0.088	-0.757
-600.084	-126.180	-0.315	0.061
-599.069	93.045	0.138	0.205
-598.055	-41.678	0.213	-0.144
-597.040	-72.163	-0.459	-0.223
-596.025	-77.071	0.256	0.117
-595.011	-97.472	-0.111	-0.038
-593.996	-200.000	-0.005	0.328
-592.982	-8.625	0.338	0.298
-591.967	51.202	0.165	0.205
-590.952	800.000	0.038	0.202
-589.938	-63.934	-0.232	-0.124
-588.923	-8.318	0.226	-0.199
-587.909	-52.634	0.225	0.136
-586.894	-181.391	0.101	0.003
-585.879	800.000	-0.027	0.140
-584.865	-47.418	0.342	-0.217
-583.850	-139.715	0.157	-0.022
-582.836	71.314	0.271	-0.369
-581.821	80.187	-0.165	-0.233
-580.806	102.610	-0.241	-0.371
-579.792	407.052	0.044	0.123
-578.777	247.146	0.224	0.497
-577.763	9.374	0.423	0.420
-576.748	329.503	0.121	0.308
-575.733	-58.352	-0.066	0.037
-574.719	-200.000	0.013	0.154
-573.704	-144.376	0.246	-0.030
-572.690	-200.000	0.024	0.251
-571.675	16.051	0.151	0.156
-570.661	-54.504	-0.150	-0.089
-569.646	-66.589	0.498	-0.258
-568.631	-200.000	-0.017	-0.282
-567.617	-26.088	0.287	-0.221
-566.602	294.778	-0.035	-0.085
-565.588	-37.099	0.464	-0.325
-564.573	-16.784	-0.363	-0.301
-563.558	-115.551	0.431	-0.105
-562.544	-200.000	0.013	-0.201
-561.529	1.191	0.421	-0.396
-560.515	-200.000	0.039	-0.283
-559.500	-118.439	-0.187	0.043
-558.485	-133.590	0.551	-0.090
-557.471	121.901	0.170	-0.279
-556.456	253.129	-0.124	-0.278
-555.442	91.436	0.324	-0.478
-554.427	-79.168	0.465	0.206
-553.412	-33.086	-0.293	0.212
-552.398	-200.000	-0.019	-0.169
-551.383	-81.178	-0.189	0.081
-550.369	408.688	-0.079	0.219
-549.354	94.493	-0.106	-0.157
-548.339	88.887	-0.331	-0.483
-547.325	73.831	0.121	0.167
-546.310	-107.177	0.084	0.024
-545.296	-8.954	-0.140	-0.123
-544.281	-99.650	-0.380	-0.124
-543.266	-48.683	-0.486	-0.305
-542.252	-27.711	0.198	-0.150
-541.237	-157.231	0.178	-0.014
-540.223	-83.918	0.567	0.235
-539.208	-173.863	0.301	-0.011
-538.193	155.455	-0.140	-0.253
-537.179	-200.000	0.040	0.382
-536.164	-38.263	0.348	-0.241
-535.150	-155.967	-0.407	-0.033
-534.135	66.362	-0.477	0.635
-533.121	-165.595	0.248	0.014
-532.106	-200.000	-0.019	0.209
-531.091	-29.751	0.151	-0.113
-530.077	-136.568	0.233	-0.035
-529.062	800.000	-0.068	0.349
-528.048	127.696	0.131	-0.219
-527.033	-35.643	-0.282	0.200
-526.018	-152.947	-0.369	0.034
-525.004	-200.000	-0.019	-0.116
-523.989	-91.188	-0.171	-0.064
-522.975	-13.211	-0.093	0.079
-521.960	-85.813	-0.042	0.017
-520.945	-102.872	-0.340	0.105
-519.931	-5.707	0.252	-0.225
-518.916	-133.703	0.645	-0.104
-517.902	141.628	0.160	-0.279
-516.887	-11.834	-0.576	0.494
-515.872	14.899	0.265	-0.271
-514.858	280.618	-0.077	-0.181
-513.843	-36.369	0.297	-0.209
-512.829	791.518	-0.103	-0.374
-511.814	800.000	0.076	0.319
-510.799	129.972	-0.171	0.288
-509.785	653.968	-0.113	0.380
-508.770	-86.955	0.407	-0.162
-507.756	26.373	-0.122	0.133
-506.741	341.582	-0.105	-0.269
-505.726	28.110	-0.089	-0.098
-504.712	-200.000	0.043	-0.417
-503.697	-109.197	0.550	-0.152
-502.683	-200.000	-0.025	0.325
-501.668	-76.890	-0.317	0.144
-500.653	304.768	0.012	0.029
-499.639	-16.222	0.121	0.100
-498.624	-111.653	0.458	-0.121
-497.610	-200.000	0.018	-0.429
-496.595	54.357	0.179	0.225
-495.581	136.414	-0.307	0.524
-494.566	111.213	-0.192	-0.303
-493.551	129.187	-0.177	-0.296
-492.537	-95.538	-0.302	0.105
-491.522	-164.108	0.336	-0.020
-490.508	61.531	0.175	0.228
-489.493	500.260	0.148	-0.448
-488.478	-82.439	0.206	0.087
-487.464	189.067	-0.304	-0.597
-486.449	203.515	-0.060	0.123
-485.435	-200.000	0.025	-0.157
-484.420	75.215	-0.388	0.536
-483.405	0.572	0.313	0.292
-482.391	-75.885	-0.354	-0.163
-481.376	44.522	0.164	0.197
-480.362	-32.313	0.319	-0.232
-479.347	64.851	0.090	0.118
-478.332	800.000	0.049	-0.228
-477.318	-200.000	-0.060	0.639
-476.303	351.155	-0.037	0.097
-475.289	10.525	0.498	0.495
-474.274	77.006	0.177	-0.246
-473.259	0.674	-0.235	-0.219
-472.245	57.558	-0.209	0.266
-471.230	-101.722	-0.355	0.112
-470.216	187.948	0.164	0.321
-469.201	-200.000	0.036	0.555
-468.186	-116.399	-0.227	0.054
-467.172	52.500	0.265	0.330
-466.157	-108.832	0.302	-0.084
-465.143	126.397	0.148	-0.245
-464.128	157.357	-0.211	0.383
-463.113	-116.137	-0.203	0.049
-462.099	-200.000	-0.030	-0.389
-461.084	-122.386	-0.322	0.068
-460.070	23.518	-0.222	-0.238
-459.055	-22.683	-0.183	-0.144
-458.040	220.954	-0.234	0.491
-457.026	-95.152	0.373	-0.131
-456.011	-16.900	-0.208	-0.171
-454.997	10.870	0.320	-0.319
-453.982	-200.000	-0.056	-0.352
-452.968	-91.977	-0.648	0.238
-451.953	-18.336	-0.164	-0.133
-450.938	-67.298	0.271	-0.139
-449.924	13.241	0.279	0.282
-448.909	-74.388	-0.416	-0.195
-447.895	446.414	-0.105	0.304
-446.880	426.004	-0.044	-0.123
-445.865	800.000	0.128	0.530
-444.851	59.792	-0.378	0.487
-443.836	-34.283	-0.445	-0.318
-442.822	-138.116	0.579	-0.083
-441.807	-191.827	0.307	0.004
-440.792	-46.158	0.072	0.046
-439.778	-111.627	0.334	-0.088
-438.763	800.000	-0.065	-0.237
-437.749	800.000	-0.019	-0.085
-436.734	110.670	0.064	0.100
-435.719	-141.448	-0.145	0.019
-434.705	404.131	-0.017	-0.048
-433.690	-71.713	-0.338	0.164
-432.676	288.701	0.080	0.190
-431.661	22.780	-0.463	0.495
-430.646	171.086	0.053	0.100
-429.632	-142.602	0.545	-0.069
-428.617	57.847	0.131	-0.168
-427.603	-55.043	0.147	-0.086
-426.588	800.000	0.051	-0.245
-425.573	-130.351	0.150	-0.026
-424.559	-95.754	0.330	0.114
-423.544	-42.837	-0.119	0.079
-422.530	99.135	0.224	0.338
-421.515	-58.238	0.258	-0.146
-420.500	-150.873	-0.538	-0.052
-419.486	75.293	-0.336	0.463
-418.471	-126.368	0.245	0.047
-417.457	-106.636	-0.679	0.196
-416.442	-74.618	-0.101	-0.047
-415.428	81.505	0.101	0.143
-414.413	800.000	-0.104	-0.599
-413.398	230.080	-0.312	-0.667
-412.384	-117.752	-0.611	-0.142
-411.369	-200.000	-0.014	-0.651
-410.355	-95.714	-0.249	0.086
-409.340	-156.450	-0.253	0.020
-408.325	-106.131	-0.169	-0.049
-407.311	88.507	-0.214	-0.311
-406.296	-200.000	-0.018	0.212
-405.282	-127.904	-0.328	0.061
-404.267	-159.432	0.433	-0.031
-403.252	445.430	-0.052	-0.149
-402.238	-167.103	0.377	0.020
-401.223	-32.569	0.281	-0.203
-400.209	-54.211	-0.121	-0.072
-399.194	538.302	-0.174	0.541
-398.179	-2.790	0.141	-0.128
-397.165	800.000	0.076	-0.303
-396.150	216.197	0.193	-0.402
-395.136	-66.023	-0.490	0.254
-394.121	-48.739	0.176	0.110
-393.106	402.025	-0.109	0.299
-392.092	533.204	0.108	0.336
-391.077	118.459	0.105	-0.170
-390.063	149.181	-0.209	0.369
-389.048	88.898	-0.436	0.632
-388.033	-50.442	-0.530	0.325
-387.019	-101.150	0.260	-0.082
-386.004	119.017	0.192	-0.309
-384.990	140.696	-0.214	-0.368
-383.975	-200.000	-0.019	-0.144
-382.960	-71.796	0.149	0.072
-381.946	177.106	0.083	-0.158
-380.931	-4.657	0.328	0.294
-379.917	-31.891	0.332	-0.242
-378.902	-81.737	0.688	-0.292
-377.888	-45.390	-0.287	-0.185
-376.873	33.269	-0.323	-0.365
-375.858	-43.925	0.101	-0.066
-374.844	66.406	-0.027	0.035
-373.829	-163.902	-0.293	0.018
-372.815	-4.621	0.049	0.044
-371.800	28.608	-0.116	-0.127
-370.785	-165.911	0.101	-0.006
-369.771	-90.117	0.709	0.267
-368.756	-200.000	-0.027	-0.601
-367.742	-90.131	0.304	0.114
-366.727	800.000	-0.158	-0.619
-365.712	304.472	-0.106	-0.257
-364.698	318.959	-0.069	-0.171
-363.683	200.744	-0.186	-0.373
-362.669	-200.000	-0.001	0.096
-361.654	412.266	0.020	0.055
-360.639	800.000	0.046	-0.175
-359.625	-117.738	-0.061	0.014
-358.610	26.785	-0.310	-0.338
-357.596	8.144	0.368	-0.359
-356.581	-59.622	0.089	0.050
-355.566	156.408	0.230	0.414
-354.552	-47.379	0.325	-0.205
-353.537	-59.439	0.484	-0.270
-352.523	215.279	0.070	-0.145
-351.508	-163.933	0.559	-0.033
-350.493	-37.916	0.214	-0.148
-349.479	-85.582	-0.204	0.082
-348.464	19.423	-0.275	0.288
-347.450	-200.000	0.063	-0.645
-346.435	-200.000	0.043	-0.290
-345.420	-140.588	0.320	0.043
-344.406	325.430	-0.119	0.296
-343.391	-200.000	0.011	-0.071
-342.377	-156.758	-0.465	0.037
-341.362	-200.000	0.089	0.691
-340.348	419.899	0.155	0.432
-339.333	-200.000	0.022	0.191
-338.318	-140.493	-0.143	0.019
-337.304	800.000	-0.074	0.407
-336.289	138.664	0.167	0.285
-335.275	-200.000	0.014	0.168
-334.260	-200.000	-0.016	0.353
-333.245	800.000	0.092	0.429
-332.231	-174.607	-0.017	-0.001
-331.216	30.482	0.298	0.331
-330.202	438.357	0.124	-0.354
-329.187	-40.076	0.211	0.142
-328.172	392.700	-0.107	-0.291
-327.158	-51.127	0.439	0.267
-326.143	250.365	-0.125	0.277
-325.129	-200.000	-0.907	-0.002
-324.114	241.895	-0.125	0.271
-323.099	189.316	0.194	0.378
-322.085	54.104	-0.095	-0.118
-321.070	-88.184	0.368	0.143
-320.056	-127.345	0.386	-0.072
-319.041	-200.000	-0.525	-0.002
-318.026	76.550	-0.079	0.108
-317.012	800.000	-0.060	0.289
-315.997	-162.359	0.514	-0.033
-314.983	-58.406	0.403	-0.227
-313.968	79.014	-0.216	-0.301
-312.953	-89.464	-0.417	0.158
-311.939	363.470	-0.060	0.158
-310.924	-200.000	-0.016	-0.546
-309.910	-200.000	-0.037	0.229
-308.895	-200.000	0.062	0.470
-307.880	-29.575	0.364	-0.269
-306.866	800.000	-0.099	0.417
-305.851	124.847	0.137	-0.224
-304.837	53.701	-0.311	-0.388
-303.822	20.751	0.369	-0.387
-302.807	211.372	0.229	-0.469
-301.793	800.000	0.098	-0.484
-300.778	629.377	0.054	0.180
-299.764	-200.000	0.049	-0.382
-298.749	-86.636	0.433	0.171
-297.735	41.024	0.281	-0.329
-296.720	25.510	-0.085	0.092
-295.705	455.931	-0.103	0.299
-294.691	-200.000	-0.011	0.278
-293.676	410.806	-0.110	0.303
-292.662	800.000	-0.013	0.063
-291.647	800.000	0.021	-0.090
-290.632	-14.283	0.169	-0.141
-289.618	800.000	0.092	0.411
-288.603	149.913	0.068	-0.119
-287.589	132.347	-0.164	-0.275
-286.574	318.763	-0.172	0.425
-285.559	403.497	-0.065	-0.179
-284.545	-200.000	-0.007	-0.228
-283.530	-20.288	-0.291	-0.232
-282.516	28.313	-0.271	0.297
-281.501	-200.000	0.028	0.503
-280.486	-72.762	0.627	0.298
-279.472	-200.000	0.020	-0.119
-278.457	-92.726	-0.558	0.201
-277.443	-1.676	0.398	0.363
-276.428	800.000	-0.029	-0.112
-275.413	-200.000	-0.003	0.367
-274.399	-11.150	0.421	0.359
-273.384	-79.063	0.454	0.199
-272.370	-100.058	-0.441	0.142
-271.355	-168.893	0.139	0.007
-270.340	-142.445	-0.127	0.016
-269.326	-130.171	-0.577	-0.101
-268.311	-61.290	0.072	-0.039
-267.297	-200.000	0.027	0.294
-266.282	-16.811	-0.131	0.107
-265.267	-18.979	0.168	-0.135
-264.253	162.042	0.166	-0.303
-263.238	-200.000	-0.020	0.180
-262.224	-22.701	-0.142	-0.111
-261.209	-96.191	-0.268	0.092
-260.195	198.913	0.161	0.321
-259.180	167.880	0.081	-0.149
-258.165	-118.427	0.482	-0.110
-257.151	201.460	-0.214	-0.428
-256.136	-102.928	-0.523	-0.160
-255.122	390.176	-0.118	0.318
-254.107	-146.404	0.292	-0.033
-253.092	800.000	-0.098	-0.364
-252.078	-71.482	-0.531	-0.256
-251.063	800.000	-0.088	0.402
-250.049	-89.887	-0.362	-0.136
-249.034	-200.000	0.013	0.189
-248.019	-22.804	0.110	-0.086
-247.005	-200.000	-0.020	0.750
-245.990	-151.410	0.112	0.011
-244.976	800.000	-0.027	0.129
-243.961	511.441	-0.203	-0.615
-242.946	-102.299	0.322	-0.099
-241.932	-37.400	-0.344	-0.238
-240.917	-200.000	0.007	0.337
-239.903	-154.444	0.162	-0.014
-238.888	100.778	0.237	0.357
-237.873	-6.671	0.217	0.191
-236.859	-133.934	0.581	-0.092
-235.844	0.014	-0.170	-0.156
-234.830	-57.068	-0.055	0.031
-233.815	-200.000	0.009	0.080
-232.800	18.985	-0.139	0.145
-231.786	-46.772	0.101	-0.064
-230.771	386.337	-0.142	-0.381
-229.757	-137.120	-0.378	0.055
-228.742	-36.675	-0.470	-0.326
-227.727	153.613	-0.137	0.243
-226.713	161.898	-0.110	-0.200
-225.698	265.529	-0.115	-0.261
-224.684	30.821	0.235	0.260
-223.669	-200.000	0.032	-0.275
-222.655	-67.964	-0.387	-0.194
-221.640	-113.528	0.154	0.039
-220.625	-200.000	0.021	0.458
-219.611	-66.271	0.188	-0.096
-218.596	800.000	-0.064	-0.300
-217.582	-200.000	0.043	0.299
-216.567	-60.817	0.279	-0.152
-215.552	-110.280	-0.151	-0.040
-214.538	-200.000	0.057	-0.361
-213.523	241.545	-0.243	0.527
-212.509	-80.805	0.440	-0.188
-211.494	800.000	0.093	0.356
-210.479	-86.401	0.305	-0.121
-209.465	283.180	0.050	-0.118
-208.450	306.359	0.155	-0.375
-207.436	166.794	-0.182	-0.335
-206.421	120.857	-0.341	0.550
-205.406	650.195	0.053	-0.175
-204.392	205.206	0.018	-0.036
-203.377	207.803	-0.076	0.153
-202.363	800.000	0.035	0.137
-201.348	-142.807	0.416	-0.052
-200.333	-200.000	0.031	0.687
-199.319	-104.758	0.335	0.099
-198.304	380.647	-0.237	0.631
-197.290	161.236	0.086	0.156
-196.275	196.775	-0.181	0.357
-195.260	-200.000	0.062	0.692
-194.246	-152.810	0.207	-0.019
-193.231	137.482	-0.224	0.379
-192.217	-79.252	0.016	0.007
-191.202	-39.218	-0.287	-0.194
-190.187	-2.169	-0.357	-0.323
-189.173	-200.000	0.013	-0.132
-188.158	-24.737	0.256	-0.197
-187.144	54.999	-0.319	0.398
-186.129	294.330	-0.075	0.178
-185.114	42.185	0.196	0.230
-184.100	-186.669	-0.200	-0.004
-183.085	75.893	-0.491	-0.671
-182.071	-44.168	-0.267	0.173
-181.056	-104.178	-0.328	0.098
-180.042	-38.288	-0.201	-0.137
-179.027	-47.400	-0.312	0.195
-178.012	289.762	-0.174	-0.408
-176.998	-200.000	0.015	-0.144
-175.983	-28.873	0.244	-0.181
-174.969	-9.435	-0.058	-0.050
-173.954	245.860	-0.133	0.290
-172.939	25.647	0.319	0.343
-171.925	-152.630	-0.103	-0.009
-170.910	-80.364	-0.214	-0.092
-169.896	-77.804	0.454	-0.202
-168.881	-90.554	0.130	0.048
-167.866	-57.055	0.194	0.110
-166.852	167.037	-0.293	-0.538
-165.837	-200.000	-0.316	-0.002
-164.823	-129.518	0.324	-0.057
-163.808	800.000	0.041	-0.155
-162.793	800.000	0.140	-0.599
-161.779	251.097	0.017	-0.038
-160.764	-107.530	-0.437	-0.123
-159.750	731.011	0.176	-0.611
-158.735	800.000	0.017	-0.093
-157.720	-107.302	0.448	-0.126
-156.706	800.000	-0.074	-0.328
-155.691	-50.544	-0.351	-0.213
-154.677	-200.000	0.340	-0.001
-153.662	365.977	-0.211	-0.552
-152.647	696.824	-0.082	0.280
-151.633	33.424	0.154	0.172
-150.618	-130.435	0.611	-0.106
-149.604	87.371	-0.008	0.012
-148.589	-24.763	0.260	-0.199
-147.574	201.368	0.040	0.080
-146.560	124.871	0.422	0.687
-145.545	196.075	0.078	0.154
-144.531	-113.463	0.395	0.099
-143.516	-123.445	-0.541	0.110
-142.502	418.120	0.087	-0.240
-141.487	2.533	0.540	-0.504
-140.472	-10.501	-0.075	-0.064
-139.458	161.619	-0.315	-0.571
-138.443	800.000	0.077	0.298
-137.429	-200.000	-0.059	0.503
-136.414	113.019	-0.106	0.165
-135.399	345.238	-0.128	0.325
-134.385	202.541	-0.266	0.530
-133.370	-62.056	0.191	0.103
-132.356	-56.807	0.711	0.404
-131.341	114.752	0.326	0.513
-130.326	-83.020	0.404	-0.167
-129.312	-161.460	-0.371	0.024
-128.297	322.189	0.010	0.025
-127.283	-200.000	-0.038	-0.313
-126.268	173.682	-0.058	0.108
-125.253	166.331	-0.094	0.172
-124.239	-81.688	0.113	-0.048
-123.224	49.071	0.368	-0.445
-122.210	-147.501	0.551	-0.059
