DTS Sentinel unit serial number:	SN409020Multiplexer serial number:	ORYXHardware model number:	OX4-SRSoftware version number:	ORYX F/W v3.00 Oryx Data Collector v3.7.2.0data status	okinstallation	HaddamTimeLapsedifferential loss correction	single-endedforward channel	channel 3reverse channel	N/Adate	2011/06/21time	16:46:17forward acquisition time	30.00reverse acquisition time	0.00gamma	498.7831k internal	0.1785k external	0.1785temperature offset calibration	1.0074default loss term (dB/km)	0.3790temperature slope calibration	1.3530multiplexer offset coefficient	1.0000multiplexer slope coefficient	1.0000fibre end	0.00T internal ref (°C)	32.50T ext. ref 1 (°C)	27.50T ext. ref 2 (°C)	0.23length (m)	temperature (°C)	Stokes	anti-Stokes-747.200	-32.840	-0.207	0.149
-746.185	150.470	0.291	0.517
-745.171	147.923	0.219	-0.385
-744.156	249.446	0.234	0.519
-743.142	36.058	-0.209	0.239
-742.127	-200.000	0.030	0.291
-741.112	50.231	-0.303	-0.373
-740.098	-73.551	-0.428	-0.203
-739.083	-147.602	-0.028	0.003
-738.069	60.789	0.267	0.345
-737.054	-36.528	-0.372	-0.260
-736.039	800.000	0.105	-0.490
-735.025	57.814	0.276	-0.352
-734.010	800.000	0.014	0.054
-732.996	185.792	-0.047	0.091
-731.981	-80.588	-0.178	-0.077
-730.966	-78.092	0.460	-0.205
-729.952	374.090	0.038	0.102
-728.937	25.155	-0.387	-0.418
-727.923	63.026	-0.283	-0.370
-726.908	286.119	0.029	0.068
-725.894	-16.115	-0.167	0.138
-724.879	72.808	0.093	-0.126
-723.864	-200.000	-0.101	-0.718
-722.850	8.658	-0.167	-0.164
-721.835	37.827	-0.274	0.317
-720.821	73.172	-0.071	0.096
-719.806	68.044	-0.115	0.153
-718.791	99.360	0.068	0.103
-717.777	20.446	-0.074	0.078
-716.762	420.299	-0.178	0.500
-715.748	0.828	-0.171	-0.160
-714.733	-81.506	-0.503	0.215
-713.718	-152.535	-0.366	-0.034
-712.704	-47.739	0.183	0.115
-711.689	-51.392	0.273	-0.166
-710.675	3.328	-0.205	-0.194
-709.660	-44.279	0.135	-0.088
-708.645	800.000	0.077	0.320
-707.631	-169.426	-0.406	-0.019
-706.616	-74.297	-0.562	-0.263
-705.602	-31.194	-0.168	0.123
-704.587	-71.201	-0.167	-0.081
-703.572	155.221	-0.225	-0.403
-702.558	533.188	0.117	-0.362
-701.543	-119.122	-0.220	-0.050
-700.529	-83.731	-0.288	-0.119
-699.514	800.000	0.011	0.054
-698.499	697.745	-0.096	-0.331
-697.485	-91.805	-0.396	0.145
-696.470	-38.514	0.447	-0.307
-695.456	419.518	0.008	0.023
-694.441	-51.702	0.280	-0.169
-693.426	354.722	0.039	0.101
-692.412	800.000	0.090	0.421
-691.397	-95.020	0.142	-0.050
-690.383	-111.431	-0.290	-0.076
-689.368	-123.756	-0.315	-0.064
-688.354	-200.000	0.002	0.067
-687.339	519.514	-0.047	0.144
-686.324	234.244	-0.150	0.322
-685.310	85.007	-0.354	0.505
-684.295	-162.954	-0.290	-0.018
-683.281	26.783	0.191	0.208
-682.266	378.464	-0.068	0.182
-681.251	-123.018	-0.449	-0.093
-680.237	-44.547	-0.420	-0.273
-679.222	-102.744	-0.194	0.060
-678.208	34.482	0.314	-0.357
-677.193	135.072	0.192	0.326
-676.178	78.723	0.143	0.200
-675.164	-200.000	-0.025	0.279
-674.149	-200.000	-0.023	-0.160
-673.135	114.224	-0.266	-0.422
-672.120	48.417	-0.232	0.283
-671.105	11.556	-0.267	0.266
-670.091	-133.504	0.090	-0.015
-669.076	-143.143	-0.297	-0.037
-668.062	800.000	-0.079	-0.429
-667.047	23.772	-0.158	0.169
-666.032	11.322	0.174	0.173
-665.018	307.262	0.175	-0.426
-664.003	-74.337	-0.327	-0.153
-662.989	58.140	0.184	-0.235
-661.974	696.838	0.149	-0.512
-660.959	-76.991	0.234	-0.106
-659.945	-89.464	-0.129	-0.049
-658.930	29.466	-0.266	0.294
-657.916	-61.445	0.434	0.236
-656.901	-70.254	0.322	0.158
-655.886	-88.133	-0.261	0.101
-654.872	337.194	0.128	0.324
-653.857	-121.886	-0.513	-0.109
-652.843	85.385	-0.124	0.177
-651.828	-15.975	0.226	-0.186
-650.814	-124.241	-0.454	-0.092
-649.799	-123.941	0.060	0.012
-648.784	80.901	0.218	0.305
-647.770	7.354	-0.290	0.282
-646.755	800.000	0.085	0.437
-645.741	33.002	-0.113	0.127
-644.726	-74.975	0.336	-0.156
-643.711	636.250	-0.119	-0.393
-642.697	800.000	0.074	0.281
-641.682	-102.496	-0.186	0.057
-640.668	-200.000	-0.014	-0.187
-639.653	-200.000	-0.040	-0.431
-638.638	-63.929	-0.031	0.017
-637.624	-59.551	0.397	0.220
-636.609	60.570	0.368	0.473
-635.595	-88.900	-0.743	0.284
-634.580	-129.296	-0.800	0.143
-633.565	14.699	0.121	-0.122
-632.551	-50.140	0.186	-0.114
-631.536	316.931	0.149	-0.366
-630.522	283.969	-0.102	0.239
-629.507	-48.098	-0.289	0.181
-628.492	20.979	0.212	-0.222
-627.478	132.148	0.189	0.317
-626.463	-104.025	0.165	-0.050
-625.449	387.092	-0.191	-0.515
-624.434	-120.672	0.161	-0.035
-623.419	55.124	0.270	0.339
-622.405	-93.708	0.461	0.164
-621.390	-149.045	0.680	-0.070
-620.376	23.018	0.497	-0.529
-619.361	-167.737	-0.194	-0.010
-618.346	-41.858	-0.216	0.144
-617.332	-73.551	-0.098	-0.046
-616.317	-97.623	-0.302	-0.101
-615.303	570.227	-0.052	0.166
-614.288	70.607	0.212	0.285
-613.273	403.881	0.123	0.337
-612.259	-147.023	0.133	-0.015
-611.244	-89.424	0.125	0.048
-610.230	-116.978	-0.385	-0.090
-609.215	800.000	-0.069	-0.342
-608.201	115.717	0.107	-0.170
-607.186	-82.255	-0.394	-0.165
-606.171	26.488	0.113	-0.122
-605.157	-200.000	0.052	-0.405
-604.142	800.000	-0.114	-0.427
-603.128	100.025	0.063	0.095
-602.113	-200.000	0.058	-0.404
-601.098	56.454	0.149	0.188
-600.084	-16.427	0.383	-0.315
-599.069	800.000	-0.054	0.291
-598.055	574.173	-0.149	0.475
-597.040	-1.714	0.305	-0.278
-596.025	410.472	0.173	-0.478
-595.011	-150.492	0.081	-0.008
-593.996	-43.953	-0.279	0.182
-592.982	93.866	-0.016	-0.024
-591.967	-11.804	0.288	0.244
-590.952	-4.856	0.178	-0.159
-589.938	-59.025	-0.652	0.364
-588.923	634.772	-0.152	-0.502
-587.909	-17.482	0.068	0.055
-586.894	-48.705	0.108	-0.067
-585.879	631.461	-0.125	0.412
-584.865	-200.000	-0.008	0.152
-583.850	179.459	0.070	-0.132
-582.836	723.621	-0.174	0.604
-581.821	36.109	0.319	-0.364
-580.806	-61.369	0.617	0.335
-579.792	800.000	0.065	0.306
-578.777	-121.428	-0.394	-0.084
-577.763	-200.000	-0.003	0.360
-576.748	-155.826	-0.130	-0.011
-575.733	-200.000	-0.093	0.544
-574.719	800.000	-0.030	-0.129
-573.704	-34.615	-0.656	-0.464
-572.690	572.042	0.075	0.236
-571.675	68.113	-0.097	0.128
-570.661	-21.165	-0.189	0.149
-569.646	-118.235	-0.432	0.099
-568.631	26.454	0.140	-0.152
-567.617	-135.875	-0.121	0.018
-566.602	-44.167	-0.256	-0.166
-565.588	-34.912	-0.277	0.195
-564.573	-30.263	-0.443	-0.325
-563.558	105.800	-0.221	-0.339
-562.544	211.055	0.178	0.364
-561.529	577.066	-0.141	-0.448
-560.515	-200.000	-0.026	-0.269
-559.500	-13.314	0.483	0.405
-558.485	-200.000	-0.053	0.000
-557.471	14.598	-0.123	0.124
-556.456	-200.000	0.044	0.400
-555.442	657.771	0.151	0.505
-554.427	800.000	-0.025	0.128
-553.412	245.927	0.176	-0.384
-552.398	-135.154	-0.210	-0.032
-551.383	-93.328	-0.227	-0.081
-550.369	-200.000	-0.066	-0.518
-549.354	-80.345	0.188	-0.081
-548.339	451.088	-0.041	0.118
-547.325	136.780	-0.173	0.292
-546.310	-200.000	-0.048	0.541
-545.296	463.042	-0.032	-0.092
-544.281	-30.842	-0.124	0.090
-543.266	-137.640	0.211	0.030
-542.252	-111.252	-0.135	-0.035
-541.237	-109.672	0.256	0.069
-540.223	-125.306	-0.605	-0.118
-539.208	-75.994	-0.295	-0.134
-538.193	-84.163	-0.166	0.068
-537.179	198.009	-0.137	-0.271
-536.164	-42.722	-0.220	0.144
-535.150	800.000	0.066	-0.252
-534.135	26.714	0.412	-0.446
-533.121	2.153	-0.436	-0.407
-532.106	-8.812	-0.419	-0.363
-531.091	77.276	-0.113	0.156
-530.077	-60.064	0.523	0.287
-529.062	-24.102	-0.095	0.073
-528.048	114.375	0.147	-0.232
-527.033	64.857	-0.028	-0.037
-526.018	-200.000	-0.020	0.148
-525.004	-140.691	0.596	0.079
-523.989	31.130	0.116	0.128
-522.975	316.715	-0.093	0.229
-521.960	-44.370	0.234	0.151
-520.945	411.283	-0.118	0.324
-519.931	-200.000	0.030	0.207
-518.916	39.390	-0.160	0.185
-517.902	3.839	0.401	-0.378
-516.887	-90.249	-0.690	0.258
-515.872	-111.473	-0.547	0.143
-514.858	-200.000	-0.055	0.479
-513.843	-200.000	-0.010	0.119
-512.829	800.000	-0.061	-0.317
-511.814	-26.665	-0.760	-0.573
-510.799	-92.899	-0.326	-0.117
-509.785	800.000	0.079	0.310
-508.770	555.657	-0.127	-0.397
-507.756	800.000	-0.051	-0.277
-506.741	-6.639	0.282	-0.247
-505.726	-80.263	0.327	0.140
-504.712	800.000	0.071	-0.279
-503.697	43.449	-0.149	0.175
-502.683	95.117	0.138	-0.204
-501.668	-47.186	-0.403	-0.253
-500.653	-60.812	0.085	-0.046
-499.639	104.093	-0.150	0.228
-498.624	-132.742	-0.852	0.139
-497.610	800.000	-0.096	0.370
-496.595	-4.994	-0.183	0.162
-495.581	-49.209	-0.403	0.248
-494.566	-200.000	0.008	0.080
-493.551	-80.065	-0.368	-0.159
-492.537	97.030	0.071	-0.105
-491.522	167.303	0.157	-0.288
-490.508	80.507	0.265	-0.368
-489.493	112.575	0.095	-0.149
-488.478	-200.000	-0.001	-0.050
-487.464	-55.029	-0.280	-0.162
-486.449	-200.000	-0.004	0.220
-485.435	-200.000	-0.006	0.047
-484.420	-122.710	0.394	-0.081
-483.405	241.137	-0.069	-0.149
-482.391	-200.000	0.004	-0.137
-481.376	214.606	0.061	-0.126
-480.362	-69.227	-0.532	-0.263
-479.347	69.242	-0.120	-0.160
-478.332	-65.028	-0.199	-0.103
-477.318	-70.244	-0.240	-0.117
-476.303	62.849	-0.360	-0.465
-475.289	-200.000	0.016	-0.125
-474.274	70.156	-0.049	-0.065
-473.259	90.482	0.350	0.506
-472.245	263.175	-0.044	-0.100
-471.230	119.366	0.190	-0.304
-470.216	-159.412	-0.126	0.009
-469.201	464.345	-0.020	-0.057
-468.186	-136.079	-0.697	0.104
-467.172	-200.000	0.015	0.234
-466.157	800.000	-0.042	-0.201
-465.143	-63.650	-0.302	0.159
-464.128	-82.751	-0.441	-0.183
-463.113	-118.430	-0.459	0.104
-462.099	800.000	-0.007	-0.028
-461.084	-109.414	0.136	0.037
-460.070	-200.000	0.003	-0.189
-459.055	-56.806	0.093	-0.053
-458.040	604.877	0.172	-0.555
-457.026	-86.447	-0.649	0.256
-456.011	-18.055	-0.264	0.213
-454.997	27.981	0.209	-0.227
-453.982	28.401	-0.142	-0.155
-452.968	-145.295	0.403	-0.046
-451.953	158.890	0.136	0.245
-450.938	-153.513	0.282	-0.025
-449.924	-54.315	0.444	0.259
-448.909	-200.000	0.019	0.216
-447.895	800.000	0.069	0.382
-446.880	533.240	0.104	0.319
-445.865	-200.000	-0.210	0.001
-444.851	9.638	-0.196	0.191
-443.836	-200.000	0.012	0.414
-442.822	-31.142	0.220	0.160
-441.807	-31.576	-0.304	-0.219
-440.792	88.981	-0.167	0.240
-439.778	-87.752	0.356	0.138
-438.763	306.384	0.099	-0.238
-437.749	-81.953	0.140	0.059
-436.734	-41.940	-0.080	-0.053
-435.719	-113.537	0.719	0.180
-434.705	8.374	-0.046	0.045
-433.690	20.438	0.546	0.568
-432.676	-36.775	-0.175	-0.121
-431.661	92.641	0.117	0.170
-430.646	-200.000	-0.023	0.389
-429.632	256.785	0.252	0.560
-428.617	800.000	-0.116	-0.415
-427.603	800.000	-0.053	-0.249
-426.588	-68.616	0.334	-0.166
-425.573	370.210	-0.144	0.378
-424.559	2.987	-0.123	0.115
-423.544	-2.540	-0.258	-0.233
-422.530	-103.437	-0.638	0.192
-421.515	365.932	-0.018	0.046
-420.500	-200.000	0.003	-0.275
-419.486	49.446	0.238	0.289
-418.471	22.720	0.298	0.314
-417.457	-31.060	-0.452	0.327
-416.442	-90.134	-0.365	-0.136
-415.428	158.451	-0.270	-0.483
-414.413	-200.000	-0.024	-0.591
-413.398	315.986	0.039	0.094
-412.384	800.000	-0.050	0.257
-411.369	-81.210	-0.171	0.072
-410.355	-200.000	-0.124	-0.754
-409.340	-1.820	0.027	0.025
-408.325	-11.225	-0.053	-0.045
-407.311	237.516	0.208	0.445
-406.296	-74.587	0.166	0.076
-405.282	75.901	0.182	0.248
-404.267	-43.932	-0.042	0.027
-403.252	316.080	-0.222	0.540
-402.238	-13.211	-0.121	-0.101
-401.223	-158.238	-0.466	0.034
-400.209	-200.000	0.023	-0.627
-399.194	498.661	-0.115	-0.343
-398.179	-131.518	0.369	0.062
-397.165	-176.847	-0.053	0.002
-396.150	656.893	-0.039	0.128
-395.136	604.810	-0.098	-0.315
-394.121	47.660	0.216	-0.259
-393.106	-25.176	0.123	-0.094
-392.092	141.476	0.135	0.231
-391.077	67.289	0.167	0.219
-390.063	-142.749	0.375	0.047
-389.048	-5.749	0.500	-0.439
-388.033	769.420	0.091	0.320
-387.019	-83.959	-0.622	0.253
-386.004	-132.386	-0.385	-0.063
-384.990	-167.194	0.573	0.029
-383.975	345.069	-0.087	-0.221
-382.960	204.033	0.080	-0.159
-381.946	-151.929	0.459	0.043
-380.931	587.647	-0.073	0.231
-379.917	89.610	-0.245	-0.352
-378.902	277.887	0.146	0.334
-377.888	69.723	0.134	0.177
-376.873	154.681	-0.066	-0.116
-375.858	289.985	-0.116	-0.272
-374.844	-110.126	0.451	0.120
-373.829	-200.000	0.004	0.235
-372.815	691.414	0.048	-0.161
-371.800	60.923	0.078	0.099
-370.785	81.505	0.058	0.080
-369.771	277.777	0.074	0.170
-368.756	-137.395	-0.201	-0.029
-367.742	-33.138	-0.359	-0.255
-366.727	-83.817	0.369	-0.150
-365.712	-192.702	0.136	-0.002
-364.698	-95.905	0.254	0.087
-363.683	156.753	0.118	0.209
-362.669	-129.605	0.325	0.057
-361.654	-200.000	-0.034	0.375
-360.639	541.167	-0.015	0.047
-359.625	800.000	0.162	0.806
-358.610	-122.806	0.175	0.036
-357.596	37.891	-0.238	-0.272
-356.581	70.034	-0.215	-0.285
-355.566	-122.828	-0.097	-0.020
-354.552	-172.625	0.318	-0.013
-353.537	-141.652	-0.131	-0.017
-352.523	-79.081	0.177	-0.077
-351.508	800.000	-0.049	0.194
-350.493	425.299	-0.204	0.567
-349.479	-45.009	0.084	-0.053
-348.464	29.320	-0.184	0.200
-347.450	-70.769	0.220	-0.106
-346.435	-200.000	0.004	-0.255
-345.420	521.248	-0.156	0.471
-344.406	-200.000	0.059	-0.566
-343.391	-200.000	-0.395	-0.001
-342.377	-200.000	-0.004	-0.119
-341.362	-200.000	0.029	-0.391
-340.348	166.300	-0.071	-0.130
-339.333	177.921	0.270	-0.507
-338.318	-200.000	-0.039	-0.256
-337.304	-200.000	0.020	0.144
-336.289	82.028	0.044	-0.061
-335.275	-53.782	-0.341	0.199
-334.260	473.408	-0.135	0.391
-333.245	354.952	-0.023	-0.059
-332.231	191.944	-0.141	0.274
-331.216	-200.000	0.011	-0.286
-330.202	800.000	0.014	0.061
-329.187	420.575	0.115	-0.317
-328.172	721.769	0.069	-0.237
-327.158	800.000	-0.048	0.173
-326.143	5.525	-0.257	-0.243
-325.129	-112.290	-0.101	0.026
-324.114	99.230	0.182	0.270
-323.099	196.263	0.250	0.490
-322.085	198.823	-0.054	0.107
-321.070	636.800	-0.047	0.153
-320.056	-28.640	0.178	0.131
-319.041	800.000	0.032	-0.152
-318.026	-124.786	0.235	-0.046
-317.012	-8.952	0.255	0.219
-315.997	-200.000	0.021	0.135
-314.983	30.915	-0.215	0.236
-313.968	88.515	-0.193	0.275
-312.953	-200.000	0.046	0.337
-311.939	87.731	-0.190	-0.270
-310.924	-30.865	0.145	-0.105
-309.910	-200.000	-0.024	0.159
-308.895	-59.306	0.239	0.131
-307.880	-162.481	-0.249	0.016
-306.866	-30.540	-0.378	0.274
-305.851	800.000	-0.071	0.310
-304.837	27.327	0.162	0.174
-303.822	800.000	-0.031	-0.126
-302.807	533.805	-0.116	-0.354
-301.793	11.302	-0.328	0.322
-300.778	800.000	0.032	-0.171
-299.764	156.120	-0.033	-0.059
-298.749	-65.690	0.202	0.103
-297.735	-200.000	-0.196	0.001
-296.720	-200.000	-0.003	-0.105
-295.705	12.758	0.056	0.055
-294.691	-73.280	0.370	-0.173
-293.676	800.000	-0.104	-0.514
-292.662	104.126	-0.131	-0.197
-291.647	-200.000	0.023	-0.509
-290.632	73.186	0.109	0.146
-289.618	-164.979	0.230	-0.013
-288.603	-153.698	0.204	0.018
-287.589	800.000	0.041	0.197
-286.574	-159.294	0.152	-0.011
-285.559	22.313	-0.233	0.243
-284.545	299.483	-0.140	0.330
-283.530	-142.292	0.272	-0.034
-282.516	-26.150	0.088	0.066
-281.501	-26.304	0.218	0.163
-280.486	27.928	-0.152	0.164
-279.472	57.086	0.299	0.373
-278.457	-9.293	-0.196	0.168
-277.443	157.375	-0.089	0.158
-276.428	-114.556	0.518	0.126
-275.413	-28.373	0.179	-0.132
-274.399	240.842	0.146	0.314
-273.384	176.153	0.108	-0.201
-272.370	-111.124	0.264	-0.069
-271.355	91.878	0.214	-0.308
-270.340	-65.630	0.519	0.265
-269.326	45.575	0.167	-0.197
-268.311	21.020	0.053	0.055
-267.297	-180.717	0.094	-0.002
-266.282	107.294	0.125	0.190
-265.267	203.618	-0.080	-0.158
-264.253	27.041	0.418	0.448
-263.238	-147.926	-0.301	-0.032
-262.224	25.211	-0.109	0.115
-261.209	634.295	-0.048	0.158
-260.195	-73.916	0.343	-0.159
-259.180	-4.561	-0.450	0.397
-258.165	800.000	-0.036	0.167
-257.151	9.662	0.139	-0.135
-256.136	133.193	0.197	-0.327
-255.122	-93.145	-0.243	0.086
-254.107	-200.000	0.002	0.208
-253.092	-132.405	-0.030	0.005
-252.078	-140.768	-0.117	0.015
-251.063	-159.614	0.178	-0.012
-250.049	19.440	0.183	0.188
-249.034	-80.094	0.572	-0.244
-248.019	-134.077	0.345	0.054
-247.005	198.634	0.086	-0.169
-245.990	64.572	-0.241	-0.311
-244.976	-68.323	-0.294	0.146
-243.961	-200.000	0.024	0.354
-242.946	-81.191	-0.072	0.030
-241.932	-4.871	-0.370	-0.326
-240.917	10.402	0.230	-0.224
-239.903	800.000	-0.005	0.023
-238.888	12.840	0.680	-0.671
-237.873	-44.891	-0.366	-0.233
-236.859	72.805	0.149	0.199
-235.844	-200.000	0.062	0.376
-234.830	-56.444	-0.151	-0.085
-233.815	-200.000	-0.022	-0.337
-232.800	627.757	0.164	0.532
-231.786	-109.963	-0.144	0.038
-230.771	-200.000	-0.040	-0.437
-229.757	-163.880	0.130	-0.008
-228.742	-35.396	-0.177	0.122
-227.727	800.000	0.124	-0.588
-226.713	-200.000	0.025	-0.370
-225.698	-54.494	-0.189	-0.109
-224.684	245.031	-0.261	-0.563
-223.669	-87.257	-0.351	0.135
-222.655	-133.887	0.160	0.025
-221.640	-45.974	-0.251	-0.157
-220.625	-90.139	0.504	-0.186
-219.611	759.883	-0.093	-0.323
-218.596	-200.000	-0.035	0.269
-217.582	126.564	-0.213	-0.344
-216.567	436.812	-0.072	-0.201
-215.552	264.474	0.094	0.210
-214.538	98.675	-0.083	-0.122
-213.523	-115.890	0.335	0.079
-212.509	-200.000	-0.018	0.158
-211.494	118.570	0.357	-0.564
-210.479	214.772	-0.034	-0.068
-209.465	-200.000	0.028	0.235
-208.450	-78.691	0.427	0.185
-207.436	800.000	-0.061	-0.235
-206.421	-56.096	0.505	-0.286
-205.406	-200.000	0.014	0.126
-204.392	-74.962	0.238	0.108
-203.377	800.000	-0.031	0.152
-202.363	-111.155	0.234	-0.061
-201.348	-78.381	0.408	-0.177
-200.333	144.607	-0.105	0.180
-199.319	66.282	0.232	-0.301
-198.304	800.000	0.051	0.263
-197.290	-109.663	-0.078	-0.021
-196.275	-166.509	-0.369	-0.019
-195.260	-200.000	-0.017	0.117
-194.246	96.373	-0.135	-0.198
-193.231	467.197	0.127	-0.366
-192.217	-108.501	-0.272	-0.074
-191.202	5.863	-0.287	-0.271
-190.187	219.512	0.136	-0.278
-189.173	-200.000	0.024	0.170
-188.158	-4.041	0.474	-0.418
-187.144	-85.811	0.287	0.113
-186.129	376.809	-0.096	0.252
-185.114	-200.000	0.009	0.140
-184.100	-124.092	-0.272	0.054
-183.085	-200.000	-0.015	0.120
-182.071	-40.256	-0.151	0.100
-181.056	-59.540	-0.150	-0.082
-180.042	55.804	-0.172	0.213
-179.027	-65.358	0.065	0.033
-178.012	525.206	-0.197	0.593
-176.998	10.290	0.166	-0.161
-175.983	186.440	-0.120	-0.229
-174.969	-72.018	0.380	-0.179
-173.954	25.404	0.200	0.212
-172.939	-89.213	-0.125	-0.047
-171.925	-49.506	0.276	0.167
-170.910	-120.370	0.437	0.094
-169.896	-96.634	-0.283	-0.094
-168.881	800.000	-0.077	0.393
-167.866	48.543	-0.163	0.195
-166.852	-41.023	0.151	0.099
-165.837	-85.125	0.569	-0.226
-164.823	181.284	0.085	-0.159
-163.808	-200.000	0.037	-0.576
-162.793	-51.401	-0.307	-0.182
-161.779	-65.374	0.195	0.099
-160.764	-34.400	-0.048	0.033
-159.750	72.108	-0.318	0.422
-158.735	-200.000	-0.041	-0.346
-157.720	80.416	-0.380	-0.522
-156.706	115.943	0.274	0.428
-155.691	102.029	0.044	0.066
-154.677	800.000	0.093	-0.426
-153.662	-200.000	0.064	-0.562
-152.647	-31.082	0.123	-0.088
-151.633	608.851	0.063	-0.201
-150.618	-22.508	0.245	-0.188
-149.604	-146.741	0.264	-0.029
-148.589	800.000	0.161	0.614
-147.574	800.000	-0.102	0.398
-146.560	-140.620	-0.162	-0.021
-145.545	-200.000	0.025	-0.177
-144.531	-17.178	0.718	0.575
-143.516	113.264	0.126	0.195
-142.502	156.961	0.235	0.415
-141.487	6.432	0.199	0.188
-140.472	800.000	0.060	-0.259
-139.458	-91.368	-0.333	0.120
-138.443	800.000	0.031	0.145
-137.429	-200.000	-0.016	0.289
-136.414	174.647	-0.108	0.199
-135.399	120.759	0.076	-0.121
-134.385	193.145	-0.062	-0.120
-133.370	6.606	-0.195	0.184
-132.356	-27.015	-0.179	-0.133
-131.341	-84.197	-0.281	-0.113
-130.326	6.138	-0.207	-0.195
-129.312	-100.992	0.373	0.116
-128.297	-18.909	0.431	0.341
-127.283	-200.000	-0.009	-0.243
-126.268	417.194	0.074	0.201
-125.253	-100.911	0.293	-0.091
-124.239	-200.000	-0.028	0.228
-123.224	800.000	-0.125	0.458
-122.210	800.000	0.025	0.123
-121.195	-163.021	0.197	0.012
-120.180	-124.003	0.176	0.035
