DTS Sentinel unit serial number:	SN409020Multiplexer serial number:	ORYXHardware model number:	OX4-SRSoftware version number:	ORYX F/W v3.00 Oryx Data Collector v3.7.2.0data status	okinstallation	HaddamTimeLapsedifferential loss correction	single-endedforward channel	channel 3reverse channel	N/Adate	2011/06/22time	02:01:17forward acquisition time	30.00reverse acquisition time	0.00gamma	498.7831k internal	0.1751k external	0.1751temperature offset calibration	1.0074default loss term (dB/km)	0.3790temperature slope calibration	1.3530multiplexer offset coefficient	1.0000multiplexer slope coefficient	1.0000fibre end	0.00T internal ref (°C)	22.44T ext. ref 1 (°C)	17.69T ext. ref 2 (°C)	0.01length (m)	temperature (°C)	Stokes	anti-Stokes-747.200	-200.000	-0.011	0.080
-746.185	-200.000	-0.027	0.360
-745.171	800.000	-0.058	-0.283
-744.156	45.228	-0.073	0.089
-743.142	22.725	0.499	0.543
-742.127	-191.434	-0.033	0.000
-741.112	-13.829	-0.182	-0.156
-740.098	-39.346	0.379	0.263
-739.083	27.390	-0.293	0.327
-738.069	-200.000	-0.014	0.730
-737.054	-49.898	0.340	0.214
-736.039	-200.000	0.013	-0.138
-735.025	-114.384	-0.086	-0.022
-734.010	800.000	0.021	0.082
-732.996	-87.400	0.161	-0.065
-731.981	800.000	0.086	0.355
-730.966	-6.485	0.367	0.332
-729.952	-200.000	0.290	-0.000
-728.937	187.254	0.186	0.370
-727.923	23.053	0.033	-0.036
-726.908	317.958	0.190	-0.479
-725.894	203.701	0.247	-0.509
-724.879	16.351	0.124	-0.130
-723.864	800.000	0.066	0.302
-722.850	-18.420	0.153	0.127
-721.835	591.012	-0.126	-0.414
-720.821	-116.196	-0.774	0.189
-719.806	107.924	-0.095	0.150
-718.791	-200.000	-0.045	0.602
-717.777	34.739	-0.218	-0.253
-716.762	-143.054	-0.544	0.069
-715.748	61.163	0.163	0.215
-714.733	16.188	-0.137	0.143
-713.718	-23.346	0.193	-0.154
-712.704	800.000	-0.180	0.730
-711.689	269.796	-0.232	0.542
-710.675	-45.779	0.122	0.080
-709.660	55.038	0.317	0.407
-708.645	-87.545	0.403	-0.161
-707.631	-53.299	0.419	0.254
-706.616	-55.530	0.357	0.212
-705.602	-84.285	-0.153	-0.064
-704.587	-200.000	0.030	-0.193
-703.572	49.017	0.223	-0.278
-702.558	-121.873	-0.109	-0.024
-701.543	-48.729	-0.050	0.032
-700.529	-131.203	0.539	0.094
-699.514	-65.971	0.162	-0.086
-698.499	-59.829	-0.091	-0.052
-697.485	-85.638	-0.467	0.191
-696.470	800.000	-0.042	-0.172
-695.456	-102.473	-0.379	-0.119
-694.441	800.000	0.101	0.465
-693.426	-41.068	-0.193	-0.132
-692.412	-129.599	-0.246	0.045
-691.397	-33.344	-0.189	-0.138
-690.383	-170.478	0.500	0.023
-689.368	-152.998	-0.560	-0.052
-688.354	-127.866	-0.366	-0.069
-687.339	-108.937	0.258	0.073
-686.324	80.660	-0.052	0.074
-685.310	-27.099	0.071	-0.054
-684.295	254.715	-0.319	-0.726
-683.281	-106.321	-0.190	0.056
-682.266	-172.342	0.674	0.028
-681.251	-69.515	0.312	-0.158
-680.237	-200.000	-0.047	0.598
-679.222	-138.353	0.210	0.030
-678.208	-108.509	-0.516	0.146
-677.193	309.519	0.226	-0.561
-676.178	-94.561	-0.188	-0.068
-675.164	42.798	0.287	-0.347
-674.149	286.129	0.086	-0.206
-673.135	45.233	-0.206	-0.252
-672.120	73.589	0.203	0.282
-671.105	60.601	0.326	-0.429
-670.091	2.865	0.173	-0.166
-669.076	709.937	0.067	-0.236
-668.062	74.976	0.042	-0.058
-667.047	-200.000	0.002	0.353
-666.032	-56.876	0.140	0.082
-665.018	-200.000	0.057	-0.424
-664.003	-98.931	-0.429	-0.143
-662.989	-178.698	-0.468	0.014
-661.974	-68.929	0.127	-0.065
-660.959	28.320	-0.299	0.335
-659.945	-66.591	0.056	-0.029
-658.930	-197.528	0.338	-0.003
-657.916	556.100	-0.016	0.052
-656.901	60.453	-0.343	-0.449
-655.886	69.469	-0.121	0.165
-654.872	177.280	-0.138	0.266
-653.857	260.150	-0.017	0.039
-652.843	-33.843	0.404	0.294
-651.828	800.000	-0.058	-0.229
-650.814	314.319	0.140	-0.350
-649.799	-121.085	-0.215	-0.047
-648.784	494.064	-0.014	0.042
-647.770	-183.753	-0.307	0.007
-646.755	-100.051	0.170	-0.056
-645.741	349.103	-0.203	0.532
-644.726	168.236	0.236	0.446
-643.711	-52.869	0.183	-0.111
-642.697	-200.000	-0.016	0.231
-641.682	-137.891	0.174	-0.026
-640.668	-200.000	-0.007	0.413
-639.653	60.604	-0.318	-0.418
-638.638	392.006	0.103	-0.286
-637.624	-102.451	-0.249	0.078
-636.609	-132.604	-0.506	0.085
-635.595	665.832	0.133	-0.456
-634.580	-164.906	-0.454	0.026
-633.565	-41.589	-0.045	0.030
-632.551	176.114	-0.084	0.162
-631.536	4.515	-0.196	-0.191
-630.522	-99.812	0.056	0.018
-629.507	-69.951	-0.378	0.190
-628.492	-80.697	-0.118	-0.051
-627.478	105.362	-0.252	0.395
-626.463	211.327	0.062	-0.129
-625.449	-132.384	0.417	-0.070
-624.434	14.171	-0.214	-0.220
-623.419	-135.324	-0.618	0.097
-622.405	390.493	-0.060	0.165
-621.390	64.795	0.216	-0.288
-620.376	-200.000	-0.009	-0.127
-619.361	-37.238	0.305	0.215
-618.346	-120.047	-0.475	0.107
-617.332	115.131	0.110	-0.177
-616.317	-164.013	0.527	0.032
-615.303	285.729	-0.144	0.345
-614.288	-107.226	0.347	-0.100
-613.273	-34.664	-0.037	0.026
-612.259	49.267	0.204	-0.254
-611.244	-200.000	0.090	-0.678
-610.230	-26.371	0.243	-0.188
-609.215	56.214	-0.229	0.294
-608.201	-7.192	-0.043	-0.038
-607.186	176.529	-0.104	0.201
-606.171	-200.000	-0.011	0.073
-605.157	15.422	-0.404	0.418
-604.142	-44.641	-0.193	0.127
-603.128	229.987	0.110	-0.237
-602.113	-200.000	0.047	-0.376
-601.098	-96.234	-0.360	-0.125
-600.084	-21.441	-0.069	0.056
-599.069	-117.801	-0.253	0.059
-598.055	104.492	0.096	-0.150
-597.040	-108.704	0.423	-0.119
-596.025	-146.332	-0.146	0.017
-595.011	-75.501	-0.378	-0.177
-593.996	-135.162	0.340	-0.053
-592.982	-146.720	0.344	0.039
-591.967	249.567	-0.038	0.085
-590.952	-110.128	0.714	-0.195
-589.938	800.000	0.109	-0.437
-588.923	-200.000	-0.004	-0.163
-587.909	-103.495	0.185	0.057
-586.894	800.000	-0.102	0.523
-585.879	-47.814	-0.390	0.249
-584.865	14.317	-0.169	-0.174
-583.850	797.190	0.056	-0.206
-582.836	-100.213	-0.048	-0.016
-581.821	115.115	0.136	-0.219
-580.806	-200.000	0.003	-0.169
-579.792	-106.101	-0.246	0.073
-578.777	156.234	-0.109	-0.198
-577.763	10.896	0.378	0.381
-576.748	-135.022	0.277	0.044
-575.733	-74.647	-0.238	-0.113
-574.719	-200.000	-0.016	0.374
-573.704	-134.175	0.265	0.043
-572.690	205.652	0.397	0.817
-571.675	-34.415	0.506	0.365
-570.661	-118.192	0.087	-0.020
-569.646	800.000	0.123	0.587
-568.631	800.000	-0.061	-0.298
-567.617	-49.486	-0.328	-0.205
-566.602	620.088	-0.109	0.364
-565.588	-139.286	-0.077	-0.011
-564.573	57.837	-0.410	-0.530
-563.558	384.434	0.064	-0.174
-562.544	-32.190	0.225	0.165
-561.529	-106.918	0.463	0.134
-560.515	7.415	0.465	0.459
-559.500	-49.918	0.276	-0.172
-558.485	192.387	-0.129	0.257
-557.471	-200.000	0.002	0.138
-556.456	165.003	0.040	0.074
-555.442	-200.000	0.004	0.122
-554.427	-176.381	-0.138	0.005
-553.412	-182.010	0.051	0.001
-552.398	-161.227	-0.290	0.020
-551.383	-200.000	-0.035	-0.450
-550.369	18.526	-0.474	-0.500
-549.354	13.314	0.133	0.136
-548.339	-200.000	-0.016	0.199
-547.325	-138.012	-0.362	0.053
-546.310	78.460	0.343	-0.484
-545.296	-85.521	-0.446	0.182
-544.281	139.501	-0.140	-0.243
-543.266	-200.000	0.008	-0.047
-542.252	-49.401	0.414	0.260
-541.237	-82.922	0.258	-0.109
-540.223	107.591	-0.193	-0.304
-539.208	-139.746	0.267	-0.037
-538.193	-200.000	-0.038	-0.565
-537.179	71.295	0.138	0.189
-536.164	-110.288	-0.361	0.098
-535.150	-104.971	0.184	0.055
-534.135	57.298	-0.138	0.178
-533.121	-35.613	0.220	-0.157
-532.106	26.587	-0.239	0.264
-531.091	-82.107	0.525	0.224
-530.077	34.999	-0.273	-0.315
-529.062	25.614	0.386	-0.423
-528.048	464.935	0.146	0.434
-527.033	-8.231	-0.413	-0.366
-526.018	-9.071	0.040	-0.035
-525.004	96.344	-0.099	0.149
-523.989	800.000	0.059	-0.306
-522.975	-200.000	0.099	-0.596
-521.960	279.554	0.094	-0.221
-520.945	-42.129	-0.237	0.159
-519.931	-154.478	-0.454	-0.040
-518.916	-63.169	-0.233	0.126
-517.902	-84.587	-0.521	-0.215
-516.887	-200.000	0.009	0.113
-515.872	234.619	0.057	0.125
-514.858	50.662	0.244	0.304
-513.843	72.062	-0.180	0.247
-512.829	121.080	0.199	-0.326
-511.814	409.526	-0.274	0.768
-510.799	-68.854	-0.175	0.089
-509.785	-200.000	-0.010	-0.204
-508.770	350.860	0.062	-0.163
-507.756	-162.523	0.316	-0.020
-506.741	-172.483	0.187	0.008
-505.726	-82.934	-0.151	-0.064
-504.712	-124.668	0.237	-0.048
-503.697	-109.687	-0.336	0.092
-502.683	-97.573	-0.222	0.076
-501.668	-37.666	0.155	0.108
-500.653	-58.870	-0.118	0.067
-499.639	102.748	0.192	-0.296
-498.624	-14.530	0.241	-0.204
-497.610	-159.324	0.403	-0.029
-496.595	-162.715	-0.406	0.026
-495.581	-81.190	-0.262	-0.113
-494.566	399.893	-0.131	0.362
-493.551	81.778	-0.420	0.598
-492.537	-163.011	0.369	0.023
-491.522	404.271	-0.051	0.142
-490.508	145.139	0.107	-0.189
-489.493	191.329	0.095	0.188
-488.478	724.677	0.082	-0.290
-487.464	-48.279	0.165	-0.104
-486.449	-46.721	0.048	-0.031
-485.435	291.511	-0.075	0.180
-484.420	800.000	-0.094	0.349
-483.405	800.000	-0.092	0.439
-482.391	-132.987	0.277	-0.046
-481.376	161.542	-0.099	0.184
-480.362	34.059	0.037	-0.043
-479.347	-200.000	0.035	0.227
-478.332	-98.312	0.333	-0.112
-477.318	-79.569	0.332	0.147
-476.303	-200.000	0.010	-0.097
-475.289	-37.005	0.520	-0.366
-474.274	-151.771	-0.371	0.035
-473.259	-3.836	-0.440	-0.401
-472.245	388.721	0.148	-0.405
-471.230	728.306	-0.148	-0.523
-470.216	-102.889	-0.104	-0.032
-469.201	201.190	-0.130	0.264
-468.186	-191.183	-0.454	-0.006
-467.172	-141.215	-0.358	-0.047
-466.157	-78.245	-0.401	0.180
-465.143	-167.203	0.443	-0.023
-464.128	14.226	-0.020	0.020
-463.113	-167.778	0.504	0.026
-462.099	48.614	0.234	0.289
-461.084	-129.192	-0.268	0.049
-460.070	-77.965	-0.538	-0.243
-459.055	2.311	0.267	0.254
-458.040	83.789	0.238	-0.342
-457.026	-46.773	-0.465	-0.298
-456.011	-121.369	-0.286	0.062
-454.997	-98.192	-0.367	0.123
-453.982	42.034	0.199	-0.238
-452.968	94.793	0.053	-0.080
-451.953	-41.734	-0.412	-0.277
-450.938	26.363	-0.184	0.202
-449.924	-50.065	-0.146	-0.091
-448.909	-15.840	0.205	0.171
-447.895	-200.000	-0.546	-0.000
-446.880	-200.000	0.097	-0.699
-445.865	-126.314	-0.148	0.029
-444.851	251.755	-0.098	-0.220
-443.836	243.091	-0.197	-0.435
-442.822	-38.701	-0.151	-0.104
-441.807	-166.773	-0.261	-0.014
-440.792	-38.482	-0.137	0.095
-439.778	13.151	-0.255	0.259
-438.763	-47.556	0.279	0.177
-437.749	165.918	0.082	-0.152
-436.734	800.000	-0.054	0.225
-435.719	-97.734	0.224	-0.076
-434.705	-72.143	0.475	-0.231
-433.690	-22.334	0.256	0.203
-432.676	-200.000	-0.041	0.329
-431.661	-115.049	0.426	-0.105
-430.646	-152.320	-0.191	0.018
-429.632	-85.452	-0.503	-0.205
-428.617	-33.705	0.425	0.307
-427.603	-200.000	0.057	0.571
-426.588	-79.014	0.056	0.025
-425.573	800.000	-0.077	0.404
-424.559	85.815	-0.269	-0.389
-423.544	-72.999	-0.325	-0.156
-422.530	-198.001	-0.285	0.002
-421.515	-84.984	0.179	-0.073
-420.500	800.000	0.104	0.380
-419.486	189.529	0.341	0.672
-418.471	-43.505	-0.514	-0.340
-417.457	-200.000	-0.057	-0.439
-416.442	-27.935	-0.255	0.194
-415.428	-73.795	0.265	0.126
-414.413	292.845	-0.069	0.165
-413.398	-136.190	-0.123	-0.019
-412.384	800.000	-0.059	0.278
-411.369	-150.678	0.208	0.021
-410.355	64.879	0.183	0.242
-409.340	505.232	-0.072	-0.220
-408.325	-200.000	-0.009	-0.162
-407.311	800.000	-0.193	0.737
-406.296	32.275	-0.112	0.126
-405.282	-26.910	-0.350	-0.268
-404.267	-122.119	0.137	0.029
-403.252	-107.551	-0.345	-0.098
-402.238	120.207	-0.171	-0.279
-401.223	800.000	-0.163	0.633
-400.209	73.067	-0.322	-0.441
-399.194	-200.000	0.009	0.213
-398.179	-145.818	-0.287	-0.033
-397.165	-200.000	0.026	0.490
-396.150	-200.000	0.046	-0.442
-395.136	-200.000	-0.003	-0.138
-394.121	800.000	0.049	-0.195
-393.106	-72.202	0.461	0.223
-392.092	47.292	-0.153	-0.186
-391.077	-67.522	-0.618	-0.317
-390.063	138.860	0.054	-0.092
-389.048	56.864	-0.139	-0.177
-388.033	145.280	-0.310	-0.545
-387.019	-200.000	-0.010	-0.211
-386.004	-133.451	0.223	0.036
-384.990	-200.000	-0.017	-0.179
-383.975	236.898	-0.182	-0.397
-382.960	-171.455	0.447	-0.019
-381.946	-20.490	0.333	0.268
-380.931	29.052	0.011	-0.012
-379.917	-200.000	-0.036	0.239
-378.902	-200.000	0.041	0.400
-377.888	-200.000	0.026	0.167
-376.873	-149.049	0.110	0.011
-375.858	136.525	-0.039	-0.067
-374.844	-13.080	0.150	0.128
-373.829	41.874	0.240	-0.285
-372.815	800.000	0.120	0.571
-371.800	-44.469	-0.282	0.184
-370.785	208.228	-0.187	-0.383
-369.771	16.313	0.362	0.374
-368.756	368.090	0.114	0.302
-367.742	-71.753	0.141	0.069
-366.727	214.985	0.124	-0.258
-365.712	-163.100	0.113	-0.007
-364.698	267.853	-0.097	-0.224
-363.683	-47.279	0.549	-0.349
-362.669	269.718	-0.030	-0.069
-361.654	645.368	-0.140	-0.472
-360.639	-108.791	0.185	-0.051
-359.625	-85.193	-0.268	0.109
-358.610	-200.000	-0.023	0.274
-357.596	-74.234	-0.089	-0.042
-356.581	-90.098	-0.319	0.121
-355.566	583.127	-0.157	0.506
-354.552	-22.873	-0.343	0.270
-353.537	613.459	-0.149	-0.490
-352.523	25.402	0.091	0.099
-351.508	-200.000	-0.000	-0.503
-350.493	-144.048	-0.167	-0.020
-349.479	-27.092	-0.236	-0.179
-348.464	-140.647	0.389	0.052
-347.450	-200.000	0.021	0.370
-346.435	-99.481	0.048	0.016
-345.420	-56.403	0.472	0.273
-344.406	-200.000	-0.011	-0.078
-343.391	-116.839	-0.196	0.047
-342.377	-200.000	0.011	0.240
-341.362	-62.117	-0.513	0.279
-340.348	96.852	0.156	-0.234
-339.333	-110.809	0.410	-0.110
-338.318	-200.000	0.052	0.353
-337.304	-27.726	0.303	-0.229
-336.289	10.480	-0.122	-0.121
-335.275	-20.082	0.182	0.146
-334.260	292.961	0.061	0.145
-333.245	-18.311	0.089	-0.072
-332.231	800.000	0.155	-0.655
-331.216	477.501	0.097	-0.289
-330.202	-167.778	-0.228	-0.012
-329.187	-131.430	-0.573	0.098
-328.172	-69.941	0.327	0.162
-327.158	-119.981	0.366	0.082
-326.143	583.368	-0.114	-0.369
-325.129	800.000	0.085	-0.363
-324.114	-76.304	0.450	0.206
-323.099	-115.758	-0.300	-0.073
-322.085	101.418	0.235	-0.359
-321.070	-122.440	0.426	0.090
-320.056	1.273	0.095	-0.089
-319.041	-148.366	-0.093	0.010
-318.026	-56.553	0.420	0.242
-317.012	800.000	0.089	0.343
-315.997	133.014	0.282	0.477
-314.983	-200.000	0.034	0.569
-313.968	-98.791	-0.234	-0.077
-312.953	-95.942	-0.199	-0.069
-311.939	-106.967	0.305	0.088
-310.924	-111.315	-0.423	-0.112
-309.910	24.437	0.157	0.170
-308.895	800.000	0.068	0.371
-307.880	800.000	0.060	0.332
-306.866	-99.575	-0.072	0.024
-305.851	173.871	-0.096	0.182
-304.837	95.904	0.098	-0.146
-303.822	383.356	0.122	-0.330
-302.807	575.263	-0.128	0.409
-301.793	54.172	0.270	-0.340
-300.778	84.759	-0.106	-0.151
-299.764	-120.978	-0.236	-0.051
-298.749	-50.760	0.273	0.167
-297.735	306.734	0.108	-0.264
-296.720	-200.000	-0.004	-0.240
-295.705	461.355	0.175	-0.512
-294.691	-200.000	0.026	-0.353
-293.676	386.149	-0.110	0.298
-292.662	37.023	0.346	0.400
-291.647	144.316	-0.246	0.430
-290.632	800.000	0.071	0.263
-289.618	-91.801	0.117	-0.043
-288.603	-193.541	0.227	0.002
-287.589	-61.309	-0.386	0.211
-286.574	-147.250	-0.055	-0.006
-285.559	-68.817	0.217	-0.109
-284.545	-58.600	-0.482	-0.272
-283.530	564.976	-0.067	0.214
-282.516	-75.559	0.279	0.129
-281.501	179.557	-0.145	-0.278
-280.486	-59.158	0.430	-0.241
-279.472	-80.207	-0.556	0.242
-278.457	28.812	0.103	-0.114
-277.443	10.683	-0.123	0.122
-276.428	-69.335	0.090	-0.045
-275.413	80.353	-0.188	-0.264
-274.399	-117.902	0.193	-0.045
-273.384	706.456	0.016	-0.056
-272.370	-4.493	-0.367	-0.330
-271.355	167.768	0.115	-0.214
-270.340	33.999	-0.211	0.240
-269.326	123.513	0.208	0.342
-268.311	223.325	-0.087	-0.183
-267.297	-84.022	0.172	0.071
-266.282	-97.646	-0.509	-0.171
-265.267	-82.811	-0.138	-0.058
-264.253	-6.968	0.382	0.338
-263.238	227.966	-0.242	0.515
-262.224	609.919	-0.138	0.451
-261.209	-87.295	-0.283	0.111
-260.195	-200.000	-0.055	0.358
-259.180	-74.635	-0.181	0.084
-258.165	-84.653	0.625	0.255
-257.151	-17.916	0.276	0.226
-256.136	-109.134	0.343	-0.095
-255.122	121.495	0.027	0.045
-254.107	62.471	0.104	-0.136
-253.092	-119.429	0.119	0.027
-252.078	-200.000	0.060	0.542
-251.063	105.437	-0.201	0.310
-250.049	522.871	-0.138	-0.425
-249.034	125.131	0.231	-0.380
-248.019	-50.952	-0.178	-0.109
-247.005	-200.000	-0.003	-0.122
-245.990	300.253	-0.111	0.267
-244.976	125.377	0.432	-0.712
-243.961	521.019	-0.039	-0.119
-242.946	-43.223	-0.137	-0.090
-241.932	31.859	0.381	-0.427
-240.917	-155.994	-0.262	-0.021
-239.903	26.226	0.103	0.112
-238.888	133.200	0.128	-0.216
-237.873	-49.996	0.449	0.277
-236.859	800.000	-0.110	-0.405
-235.844	439.546	-0.117	0.335
-234.830	130.484	-0.196	0.328
-233.815	559.470	-0.153	0.485
-232.800	-129.413	-0.536	-0.096
-231.786	-116.005	-0.246	0.059
-230.771	-7.107	-0.359	0.317
-229.757	-81.094	-0.460	0.197
-228.742	-124.049	0.125	0.025
-227.727	-86.537	-0.376	-0.150
-226.713	-13.089	-0.293	-0.248
-225.698	-42.734	-0.160	-0.105
-224.684	91.729	0.163	0.238
-223.669	65.292	0.192	0.254
-222.655	-98.748	0.360	0.119
-221.640	-18.958	0.262	-0.212
-220.625	-200.000	-0.080	-0.484
-219.611	-173.015	0.316	-0.012
-218.596	-44.368	0.227	0.148
-217.582	724.655	0.252	-0.880
-216.567	44.537	0.125	-0.150
-215.552	-83.426	0.147	0.061
-214.538	73.548	0.262	0.357
-213.523	307.318	-0.157	-0.383
-212.509	-57.005	0.129	-0.074
-211.494	800.000	0.050	0.216
-210.479	32.717	-0.090	0.102
-209.465	-128.345	0.435	-0.080
-208.450	86.833	0.065	-0.094
-207.436	-75.415	0.197	-0.091
-206.421	-128.584	-0.140	-0.026
-205.406	-106.454	-0.198	0.057
-204.392	-119.711	-0.247	0.055
-203.377	-87.431	-0.067	-0.026
-202.363	-76.219	0.242	-0.110
-201.348	-200.000	-0.002	0.479
-200.333	-52.317	-0.281	0.169
-199.319	-55.636	0.183	-0.106
-198.304	-37.433	-0.353	0.244
-197.290	800.000	-0.107	-0.405
-196.275	74.107	-0.082	-0.112
-195.260	-108.802	0.593	0.164
-194.246	343.455	0.111	-0.284
-193.231	-22.912	-0.168	-0.132
-192.217	-104.551	-0.249	-0.074
-191.202	402.295	0.098	0.268
-190.187	800.000	0.049	0.247
-189.173	-46.515	-0.105	0.067
-188.158	14.234	-0.190	-0.192
-187.144	-61.188	-0.106	0.058
-186.129	357.843	0.135	-0.352
-185.114	770.103	-0.036	-0.130
-184.100	115.566	0.250	-0.398
-183.085	-97.559	0.393	-0.132
-182.071	-45.238	-0.050	0.032
-181.056	239.882	0.046	0.100
-180.042	-72.800	0.392	-0.187
-179.027	167.416	0.176	-0.326
-178.012	79.417	-0.150	-0.209
-176.998	0.687	0.355	0.330
-175.983	81.246	0.127	-0.179
-174.969	-165.287	0.380	0.021
-173.954	28.181	-0.236	-0.259
-172.939	-70.167	0.367	-0.180
-171.925	461.265	0.209	0.610
-170.910	-74.762	-0.434	0.202
-169.896	170.209	-0.248	0.461
-168.881	-157.217	0.360	-0.028
-167.866	-77.012	0.331	-0.149
-166.852	-200.000	0.047	-0.291
-165.837	-200.000	0.009	-0.165
-164.823	82.121	0.105	-0.148
-163.808	800.000	0.078	0.422
-162.793	-110.758	-0.199	-0.053
-161.779	-200.000	-0.026	-0.240
-160.764	-99.303	0.618	-0.201
-159.750	39.420	-0.118	-0.137
-158.735	-177.762	0.455	-0.014
-157.720	-200.000	-0.031	-0.695
-156.706	-106.148	-0.462	-0.134
-155.691	88.036	-0.205	0.295
-154.677	35.492	-0.107	-0.122
-153.662	-200.000	0.043	0.436
-152.647	-37.622	0.438	0.302
-151.633	-46.088	-0.245	-0.156
-150.618	27.483	-0.218	0.238
-149.604	-200.000	0.006	0.572
-148.589	-200.000	-0.041	0.339
-147.574	-27.312	-0.135	-0.102
-146.560	101.874	0.128	0.194
-145.545	800.000	0.143	-0.606
-144.531	75.285	-0.091	0.125
-143.516	-200.000	-0.087	0.597
-142.502	-21.084	-0.305	-0.242
-141.487	-107.189	0.448	-0.127
-140.472	-95.023	0.167	-0.058
-139.458	242.772	0.035	-0.077
-138.443	395.204	-0.061	-0.167
-137.429	-79.820	0.369	0.161
-136.414	201.068	-0.186	-0.373
-135.399	-136.041	0.251	0.038
-134.385	-61.211	-0.181	0.098
-133.370	172.266	0.121	0.226
-132.356	800.000	-0.057	0.204
-131.341	-14.561	-0.148	-0.123
-130.326	-119.055	-0.185	-0.042
-129.312	-107.258	0.153	-0.043
-128.297	320.543	-0.043	0.106
-127.283	-23.693	0.462	0.358
-126.268	133.674	-0.123	0.206
-125.253	800.000	0.084	-0.475
-124.239	800.000	-0.056	0.221
-123.224	-77.747	-0.105	0.047
-122.210	-108.676	0.337	0.093
