DTS Sentinel unit serial number:	SN409020Multiplexer serial number:	ORYXHardware model number:	OX4-SRSoftware version number:	ORYX F/W v3.00 Oryx Data Collector v3.7.2.0data status	okinstallation	HaddamTimeLapsedifferential loss correction	single-endedforward channel	channel 3reverse channel	N/Adate	2011/06/22time	05:11:17forward acquisition time	30.00reverse acquisition time	0.00gamma	498.7831k internal	0.1752k external	0.1752temperature offset calibration	1.0074default loss term (dB/km)	0.3790temperature slope calibration	1.3530multiplexer offset coefficient	1.0000multiplexer slope coefficient	1.0000fibre end	0.00T internal ref (°C)	22.66T ext. ref 1 (°C)	17.64T ext. ref 2 (°C)	0.15length (m)	temperature (°C)	Stokes	anti-Stokes-747.200	-5.143	0.253	-0.230
-746.185	129.580	0.146	0.248
-745.171	172.829	0.181	-0.346
-744.156	109.017	0.111	-0.177
-743.142	-200.000	-0.024	-0.447
-742.127	12.968	-0.224	0.230
-741.112	-200.000	-0.070	-0.507
-740.098	123.820	0.105	0.175
-739.083	132.764	0.110	0.188
-738.069	-55.257	0.136	0.081
-737.054	-136.570	0.130	-0.020
-736.039	40.640	-0.326	-0.390
-735.025	-99.316	-0.129	-0.043
-734.010	-8.448	0.465	-0.415
-732.996	-102.504	0.102	-0.032
-731.981	-146.743	0.721	0.082
-730.966	-184.144	-0.520	-0.011
-729.952	-60.730	-0.098	-0.055
-728.937	-200.000	-0.022	0.330
-727.923	264.240	0.055	-0.128
-726.908	-200.000	0.031	0.291
-725.894	-148.628	-0.381	-0.041
-724.879	167.544	0.124	-0.234
-723.864	153.195	-0.027	-0.050
-722.850	-143.389	-0.194	0.024
-721.835	-200.000	0.483	0.001
-720.821	-139.955	0.354	0.049
-719.806	-200.000	0.015	-0.320
-718.791	-109.343	-0.094	0.026
-717.777	479.839	-0.145	0.438
-716.762	-143.396	-0.554	-0.070
-715.748	-125.185	0.116	0.023
-714.733	800.000	-0.156	0.604
-713.718	-65.702	-0.386	0.204
-712.704	201.669	-0.113	-0.232
-711.689	-115.602	-0.385	-0.095
-710.675	-88.802	-0.405	-0.158
-709.660	800.000	-0.025	-0.108
-708.645	-89.554	0.476	0.184
-707.631	800.000	0.124	0.693
-706.616	171.849	0.140	-0.267
-705.602	-59.031	-0.480	0.274
-704.587	-200.000	0.008	0.301
-703.572	800.000	-0.038	0.221
-702.558	-40.681	0.252	-0.173
-701.543	-200.000	-0.011	0.225
-700.529	-36.063	0.273	0.195
-699.514	-34.615	-0.367	0.265
-698.499	-49.880	0.658	-0.413
-697.485	61.534	0.141	0.186
-696.470	800.000	-0.080	-0.386
-695.456	-200.000	-0.012	-0.261
-694.441	584.909	0.091	-0.298
-693.426	-28.764	-0.254	-0.193
-692.412	-3.952	-0.209	-0.192
-691.397	141.344	-0.136	-0.239
-690.383	-200.000	-0.053	0.356
-689.368	241.269	0.136	0.301
-688.354	-127.098	0.513	-0.099
-687.339	52.561	0.189	0.240
-686.324	-85.928	-0.349	-0.142
-685.310	-124.350	-0.137	0.028
-684.295	-47.158	0.105	0.067
-683.281	-110.762	-0.253	0.069
-682.266	800.000	0.072	-0.296
-681.251	159.841	-0.176	0.326
-680.237	-70.970	-0.083	-0.041
-679.222	97.426	-0.328	-0.499
-678.208	-19.901	0.265	0.217
-677.193	-200.000	-0.027	-0.227
-676.178	-117.429	0.424	-0.101
-675.164	-65.016	-0.137	0.073
-674.149	-200.000	-0.073	0.893
-673.135	-63.715	-0.226	-0.122
-672.120	-89.530	-0.361	-0.140
-671.105	-136.635	0.141	-0.021
-670.091	-71.451	0.236	-0.117
-669.076	-88.189	0.183	-0.072
-668.062	-84.476	0.142	-0.059
-667.047	-54.900	-0.624	0.372
-666.032	178.413	0.153	-0.296
-665.018	-200.000	-0.067	0.564
-664.003	-200.000	-0.486	-0.000
-662.989	-146.309	-0.147	-0.017
-661.974	-62.846	-0.446	0.244
-660.959	800.000	-0.020	-0.090
-659.945	-195.138	0.518	0.005
-658.930	76.469	-0.088	-0.123
-657.916	-92.379	-0.262	0.097
-656.901	-200.000	-0.011	0.066
-655.886	24.775	0.209	-0.229
-654.872	198.730	-0.124	-0.252
-653.857	105.849	-0.046	-0.072
-652.843	-84.326	0.149	0.062
-651.828	-82.670	0.188	0.080
-650.814	-198.830	-0.224	0.002
-649.799	267.057	0.218	0.506
-648.784	0.888	-0.196	0.186
-647.770	-130.260	0.260	0.046
-646.755	-32.048	-0.497	-0.367
-645.741	182.070	0.332	-0.648
-644.726	314.239	-0.237	-0.593
-643.711	-31.524	-0.276	-0.205
-642.697	-87.866	0.701	-0.277
-641.682	-81.031	-0.180	-0.078
-640.668	-73.300	-0.372	0.179
-639.653	5.753	0.258	0.252
-638.638	232.988	-0.079	0.173
-637.624	-64.420	0.352	-0.188
-636.609	114.223	0.318	0.514
-635.595	-78.947	0.183	0.082
-634.580	800.000	0.047	0.205
-633.565	43.281	-0.197	-0.238
-632.551	800.000	0.059	-0.339
-631.536	-140.984	0.539	-0.072
-630.522	284.119	0.085	0.202
-629.507	113.001	-0.238	0.382
-628.492	-115.316	-0.380	-0.094
-627.478	-26.166	-0.269	-0.208
-626.463	-119.969	-0.431	0.097
-625.449	-3.205	0.278	-0.256
-624.434	-114.757	0.291	-0.073
-623.419	-114.520	-0.266	-0.067
-622.405	61.979	0.236	-0.312
-621.390	-139.129	0.504	-0.071
-620.376	-46.561	0.080	0.052
-619.361	442.380	-0.089	-0.259
-618.346	98.397	-0.181	0.276
-617.332	-93.159	0.217	0.079
-616.317	-126.912	-0.156	0.030
-615.303	258.124	-0.122	-0.278
-614.288	62.647	0.314	0.415
-613.273	-115.092	0.305	-0.076
-612.259	-154.169	0.483	0.043
-611.244	-200.000	0.005	0.103
-610.230	-162.177	0.272	0.018
-609.215	-60.891	0.453	-0.252
-608.201	-122.746	0.295	0.063
-607.186	365.323	0.045	-0.121
-606.171	-200.000	-0.075	-0.739
-605.157	142.943	0.191	0.335
-604.142	-8.704	0.523	0.463
-603.128	89.809	0.269	0.397
-602.113	-162.572	-0.045	0.003
-601.098	-69.263	-0.374	-0.189
-600.084	205.431	-0.144	0.295
-599.069	126.055	-0.093	-0.155
-598.055	-152.195	-0.127	0.012
-597.040	-200.000	-0.017	0.192
-596.025	-17.329	0.258	-0.215
-595.011	119.610	-0.306	-0.501
-593.996	7.966	-0.249	0.246
-592.982	800.000	-0.040	-0.183
-591.967	517.149	-0.106	-0.329
-590.952	-50.182	0.015	0.009
-589.938	264.477	0.229	-0.528
-588.923	349.668	-0.119	-0.313
-587.909	-135.852	0.301	0.046
-586.894	111.587	0.081	-0.129
-585.879	118.398	0.257	0.419
-584.865	445.235	-0.068	0.197
-583.850	25.614	0.397	0.436
-582.836	565.237	0.184	0.590
-581.821	-200.000	-0.023	-0.272
-580.806	116.637	-0.161	0.261
-579.792	-127.966	0.402	-0.075
-578.777	452.039	0.098	-0.287
-577.763	-200.000	-0.003	0.227
-576.748	-1.025	-0.063	-0.058
-575.733	94.266	-0.123	-0.184
-574.719	-47.004	0.342	-0.220
-573.704	-26.111	0.281	-0.217
-572.690	-200.000	0.006	0.277
-571.675	35.959	-0.167	0.194
-570.661	-105.736	0.096	0.028
-569.646	-200.000	0.054	-0.373
-568.631	-96.842	0.116	0.040
-567.617	125.942	0.155	-0.259
-566.602	77.339	-0.322	-0.452
-565.588	800.000	-0.048	-0.253
-564.573	67.808	-0.390	-0.526
-563.558	-200.000	-0.010	0.318
-562.544	-200.000	-0.011	0.066
-561.529	-25.507	-0.250	0.194
-560.515	-35.959	0.036	0.025
-559.500	-38.551	-0.263	-0.183
-558.485	-126.081	-0.111	0.022
-557.471	800.000	0.110	-0.549
-556.456	-70.337	0.110	0.055
-555.442	-109.996	0.164	0.045
-554.427	-77.236	0.155	-0.071
-553.412	-84.224	0.084	-0.035
-552.398	-56.444	-0.133	-0.077
-551.383	120.015	-0.141	0.231
-550.369	-115.865	0.146	-0.036
-549.354	76.168	0.206	0.287
-548.339	-45.360	0.271	-0.177
-547.325	-87.930	-0.492	-0.194
-546.310	-200.000	-0.071	-0.541
-545.296	324.947	0.085	0.216
-544.281	-200.000	0.001	-0.364
-543.266	13.350	-0.275	0.281
-542.252	800.000	-0.050	-0.286
-541.237	189.123	0.089	0.176
-540.223	-154.927	0.472	-0.040
-539.208	246.848	0.276	-0.617
-538.193	-81.524	-0.231	-0.100
-537.179	65.587	0.129	-0.173
-536.164	-200.000	0.048	-0.469
-535.150	800.000	-0.077	-0.288
-534.135	62.747	0.121	-0.159
-533.121	-51.515	-0.325	-0.200
-532.106	-54.265	-0.178	-0.106
-531.091	69.276	-0.142	0.192
-530.077	202.145	-0.144	0.294
-529.062	-68.674	0.438	-0.222
-528.048	99.847	0.180	-0.276
-527.033	681.699	-0.056	-0.194
-526.018	800.000	0.068	-0.284
-525.004	-200.000	0.059	-0.362
-523.989	-125.966	-0.141	-0.028
-522.975	-81.742	0.147	0.063
-521.960	-126.925	-0.349	-0.067
-520.945	205.019	0.127	-0.260
-519.931	-200.000	0.010	0.168
-518.916	-88.230	0.171	0.067
-517.902	-200.000	0.069	-0.426
-516.887	-92.914	-0.505	-0.185
-515.872	-110.379	-0.451	-0.123
-514.858	239.317	0.166	0.364
-513.843	-0.998	0.363	0.338
-512.829	-73.856	-0.083	0.040
-511.814	60.467	-0.264	0.345
-510.799	-200.000	-0.009	0.295
-509.785	-79.397	-0.060	-0.027
-508.770	75.586	-0.053	-0.074
-507.756	-200.000	-0.033	-0.568
-506.741	-15.549	0.339	-0.284
-505.726	-95.538	-0.141	0.049
-504.712	800.000	-0.028	-0.138
-503.697	-0.073	-0.276	-0.258
-502.683	-200.000	0.052	-1.070
-501.668	-142.874	-0.438	-0.055
-500.653	-8.614	-0.195	0.172
-499.639	-200.000	0.019	0.389
-498.624	-67.793	0.263	-0.135
-497.610	-200.000	0.004	0.146
-496.595	-122.799	-0.418	-0.088
-495.581	-164.769	-0.587	0.034
-494.566	7.633	-0.179	0.176
-493.551	-132.155	-0.113	0.019
-492.537	-172.168	0.794	0.033
-491.522	-182.261	0.266	0.006
-490.508	-42.948	0.097	0.065
-489.493	-153.811	-0.292	0.026
-488.478	177.977	-0.109	-0.209
-487.464	12.746	0.188	-0.191
-486.449	-93.168	0.315	0.115
-485.435	-130.529	-0.153	0.027
-484.420	-43.336	-0.318	0.211
-483.405	48.676	-0.082	-0.101
-482.391	239.497	-0.092	0.203
-481.376	-114.775	0.268	-0.067
-480.362	-138.241	0.497	0.072
-479.347	145.067	0.334	0.588
-478.332	333.611	0.085	0.216
-477.318	565.892	-0.081	-0.259
-476.303	-144.319	-0.198	0.024
-475.289	-200.000	-0.008	-0.131
-474.274	800.000	0.088	-0.369
-473.259	-200.000	-0.010	-0.140
-472.245	800.000	-0.072	0.297
-471.230	-200.000	0.059	0.398
-470.216	-181.365	0.212	0.005
-469.201	-76.085	0.259	0.120
-468.186	93.271	-0.204	0.304
-467.172	-200.000	0.014	-0.150
-466.157	10.199	-0.400	0.400
-465.143	-89.028	0.571	-0.221
-464.128	800.000	-0.009	-0.041
-463.113	-200.000	0.001	0.280
-462.099	-117.266	-0.123	0.029
-461.084	-200.000	0.042	0.420
-460.070	-200.000	-0.069	0.441
-459.055	50.969	-0.178	0.222
-458.040	800.000	0.033	-0.129
-457.026	214.801	-0.252	-0.526
-456.011	-200.000	0.027	-0.325
-454.997	109.064	0.057	0.090
-453.982	800.000	-0.096	-0.381
-452.968	-107.558	-0.573	-0.163
-451.953	-125.801	0.294	-0.058
-450.938	-21.807	0.556	-0.443
-449.924	40.107	-0.309	0.364
-448.909	-200.000	0.027	0.427
-447.895	-63.292	0.488	0.263
-446.880	-125.013	-0.159	-0.032
-445.865	-13.270	-0.176	-0.150
-444.851	-45.430	0.224	-0.145
-443.836	25.581	-0.212	-0.232
-442.822	-150.945	-0.672	0.066
-441.807	-115.324	-0.421	-0.103
-440.792	-19.483	0.170	-0.138
-439.778	130.628	-0.148	-0.249
-438.763	-200.000	-0.028	-0.582
-437.749	38.310	0.220	0.258
-436.734	221.468	-0.103	0.218
-435.719	-66.417	-0.361	0.187
-434.705	-96.647	-0.123	-0.042
-433.690	-200.000	0.033	0.234
-432.676	-200.000	0.065	0.575
-431.661	17.991	-0.462	-0.483
-430.646	-126.228	0.433	-0.084
-429.632	-200.000	0.001	0.198
-428.617	33.110	0.081	-0.092
-427.603	-95.311	-0.227	-0.080
-426.588	-23.152	0.560	-0.441
-425.573	-102.036	0.067	-0.021
-424.559	-200.000	0.057	0.372
-423.544	-200.000	0.048	-0.449
-422.530	-131.322	-0.297	0.051
-421.515	-60.664	-0.135	0.075
-420.500	-162.895	-0.209	0.013
-419.486	-169.135	-0.276	-0.013
-418.471	110.647	0.133	0.211
-417.457	376.057	-0.116	0.313
-416.442	137.408	-0.174	0.300
-415.428	-200.000	0.007	0.069
-414.413	-102.896	0.161	0.050
-413.398	185.719	0.172	-0.337
-412.384	800.000	0.045	-0.190
-411.369	-86.041	0.365	-0.147
-410.355	-49.629	0.251	-0.156
-409.340	-110.555	0.237	0.064
-408.325	13.418	-0.332	-0.338
-407.311	-100.778	-0.302	0.097
-406.296	-157.142	-0.654	-0.051
-405.282	-101.944	-0.533	-0.168
-404.267	-76.807	-0.145	-0.066
-403.252	-33.836	-0.170	0.122
-402.238	-106.388	-0.351	0.102
-401.223	-56.662	-0.607	-0.351
-400.209	43.943	-0.329	-0.395
-399.194	134.237	-0.194	0.330
-398.179	-52.287	-0.074	-0.045
-397.165	-32.381	-0.217	0.158
-396.150	220.018	-0.189	0.397
-395.136	-148.280	-0.324	0.035
-394.121	800.000	0.062	0.301
-393.106	428.702	-0.058	-0.166
-392.092	-98.132	-0.303	0.102
-391.077	-62.687	0.080	0.043
-390.063	-97.878	-0.389	0.131
-389.048	-30.733	-0.472	0.349
-388.033	-0.556	0.170	-0.158
-387.019	33.301	-0.077	0.088
-386.004	-62.526	0.307	0.166
-384.990	-190.322	0.290	0.004
-383.975	-36.197	0.188	-0.133
-382.960	177.691	0.148	-0.284
-381.946	78.606	0.412	0.578
-380.931	-85.227	-0.239	0.097
-379.917	539.109	0.104	-0.327
-378.902	-200.000	0.025	0.235
-377.888	208.144	0.109	0.223
-376.873	30.174	-0.398	0.445
-375.858	-40.286	0.452	-0.307
-374.844	-200.000	-0.008	0.212
-373.829	-68.560	-0.296	-0.150
-372.815	36.443	-0.265	-0.306
-371.800	-200.000	-0.015	-0.399
-370.785	-76.229	0.328	-0.151
-369.771	-70.237	0.423	0.209
-368.756	-20.891	-0.445	-0.356
-367.742	-108.007	-0.310	0.088
-366.727	-127.685	0.700	-0.131
-365.712	652.958	0.099	-0.332
-364.698	-60.038	-0.275	-0.153
-363.683	-87.878	0.143	0.056
-362.669	-124.377	0.332	-0.067
-361.654	87.440	0.200	-0.289
-360.639	-127.605	0.491	-0.092
-359.625	-14.536	-0.341	-0.286
-358.610	48.189	-0.237	-0.290
-357.596	-33.186	-0.087	0.063
-356.581	140.738	0.041	-0.071
-355.566	-200.000	-0.014	-0.109
-354.552	143.186	-0.111	-0.194
-353.537	-200.000	-0.079	0.488
-352.523	-30.668	-0.239	0.177
-351.508	-200.000	-0.057	-0.340
-350.493	800.000	-0.066	0.268
-349.479	-111.469	0.274	0.072
-348.464	231.351	-0.040	-0.086
-347.450	-200.000	0.006	0.291
-346.435	344.012	0.210	0.541
-345.420	512.378	-0.152	0.465
-344.406	-29.462	-0.042	0.031
-343.391	-85.897	-0.214	0.086
-342.377	800.000	0.111	-0.424
-341.362	-145.577	-0.387	0.045
-340.348	-76.981	-0.377	-0.171
-339.333	800.000	-0.151	0.610
-338.318	-119.143	-0.585	0.133
-337.304	800.000	-0.041	0.213
-336.289	174.353	-0.237	0.449
-335.275	41.840	-0.337	-0.399
-334.260	-4.438	-0.167	0.151
-333.245	314.586	-0.035	0.085
-332.231	42.889	-0.372	-0.443
-331.216	136.381	-0.233	0.398
-330.202	-200.000	-0.038	0.514
-329.187	114.974	0.224	0.358
-328.172	9.398	-0.100	-0.099
-327.158	-74.429	-0.218	-0.102
-326.143	-11.057	0.055	-0.047
-325.129	-200.000	0.010	-0.255
-324.114	-108.973	0.160	-0.044
-323.099	115.986	-0.087	0.139
-322.085	698.493	-0.135	0.468
-321.070	-83.287	0.488	-0.204
-320.056	6.719	-0.076	-0.074
-319.041	223.159	-0.119	-0.252
-318.026	45.686	0.206	0.248
-317.012	-53.505	0.135	0.081
-315.997	-86.675	-0.156	0.062
-314.983	-71.560	0.080	-0.039
-313.968	117.300	0.221	-0.356
-312.953	-165.896	0.259	0.014
-311.939	56.168	-0.027	-0.035
-310.924	-103.931	0.321	0.097
-309.910	-103.895	0.317	-0.096
-308.895	-98.229	-0.338	0.113
-307.880	-134.436	-0.238	0.038
-306.866	-109.047	0.192	-0.053
-305.851	79.510	-0.170	-0.239
-304.837	-168.148	-0.534	0.027
-303.822	-71.423	-0.160	-0.078
-302.807	-98.849	0.254	-0.084
-301.793	-200.000	0.027	0.273
-300.778	800.000	-0.015	-0.064
-299.764	-79.277	-0.026	0.012
-298.749	-48.371	-0.628	0.393
-297.735	165.671	0.045	-0.083
-296.720	-200.000	0.047	0.542
-295.705	492.828	0.105	0.316
-294.691	-200.000	0.012	0.116
-293.676	291.119	0.037	0.088
-292.662	800.000	0.078	0.368
-291.647	800.000	0.119	0.442
-290.632	-88.828	-0.334	0.129
-289.618	22.104	-0.128	0.136
-288.603	20.891	0.412	0.435
-287.589	-0.498	-0.121	0.112
-286.574	-200.000	0.052	0.438
-285.559	-61.418	-0.350	-0.191
-284.545	-200.000	0.017	-0.313
-283.530	-200.000	-0.045	0.297
-282.516	-200.000	-0.071	0.585
-281.501	-53.118	0.181	0.108
-280.486	-158.368	-0.374	0.028
-279.472	-21.572	0.474	0.376
-278.457	-63.150	0.216	-0.116
-277.443	54.673	0.209	0.262
-276.428	-200.000	0.021	-0.261
-275.413	-104.340	-0.274	-0.082
-274.399	800.000	0.062	-0.284
-273.384	184.812	0.187	-0.363
-272.370	129.129	-0.226	0.377
-271.355	-120.203	0.025	0.006
-270.340	188.075	0.131	-0.256
-269.326	20.312	-0.222	0.234
-268.311	-18.149	-0.148	-0.121
-267.297	-165.403	0.239	0.013
-266.282	-96.345	-0.445	-0.153
-265.267	-103.431	0.126	-0.038
-264.253	-70.006	0.359	-0.177
-263.238	-184.853	-0.274	0.006
-262.224	-143.082	0.327	-0.041
-261.209	206.760	0.065	-0.132
-260.195	9.882	0.269	-0.266
-259.180	62.743	0.295	0.384
-258.165	25.850	0.212	0.230
-257.151	3.031	0.015	0.014
-256.136	114.905	-0.136	-0.216
-255.122	-96.791	-0.254	0.086
-254.107	-200.000	-0.042	0.386
-253.092	-167.891	0.133	0.007
-252.078	214.251	0.166	0.344
-251.063	-31.322	0.186	-0.136
-250.049	-200.000	0.083	-0.486
-249.034	-73.439	0.228	0.108
-248.019	245.377	-0.219	0.481
-247.005	800.000	0.062	0.242
-245.990	-142.055	0.144	0.018
-244.976	-42.405	-0.177	0.117
-243.961	53.501	0.217	0.272
-242.946	-158.408	0.019	0.001
-241.932	-84.073	-0.267	0.110
-240.917	-200.000	0.032	-0.375
-239.903	-145.364	-0.422	0.049
-238.888	-32.765	0.342	0.247
-237.873	-14.053	-0.337	0.283
-236.859	-156.008	-0.325	0.026
-235.844	-2.894	0.238	-0.216
-234.830	-200.000	-0.019	-0.396
-233.815	800.000	-0.181	0.797
-232.800	34.479	0.333	0.378
-231.786	-123.280	-0.204	0.042
-230.771	-118.867	-0.630	-0.143
-229.757	50.215	-0.141	-0.173
-228.742	109.964	-0.338	-0.528
-227.727	-200.000	-0.057	-0.332
-226.713	-115.196	-0.104	0.025
-225.698	468.518	-0.085	-0.249
-224.684	-200.000	0.047	0.286
-223.669	712.417	-0.075	-0.261
-222.655	800.000	-0.071	0.288
-221.640	-30.802	0.115	0.085
-220.625	69.055	-0.360	0.481
-219.611	800.000	-0.099	0.383
-218.596	55.088	-0.310	-0.390
-217.582	-158.794	0.397	0.029
-216.567	51.862	-0.013	-0.016
-215.552	-200.000	0.009	0.313
-214.538	-55.512	0.623	-0.362
-213.523	-96.510	-0.078	0.027
-212.509	-200.000	-0.050	0.366
-211.494	-141.306	0.250	-0.033
-210.479	15.193	0.353	-0.360
-209.465	-3.302	-0.341	-0.309
-208.450	-87.262	0.632	-0.248
-207.436	800.000	0.031	0.131
-206.421	88.675	-0.032	-0.046
-205.406	-72.031	0.160	0.077
-204.392	342.181	0.186	0.475
-203.377	68.501	-0.484	0.645
-202.363	221.821	0.061	0.127
-201.348	102.694	0.232	-0.353
-200.333	-14.957	-0.133	-0.111
-199.319	-24.016	-0.061	0.047
-198.304	800.000	0.091	0.410
-197.290	239.200	-0.094	0.204
-196.275	42.759	-0.122	-0.145
-195.260	-131.579	0.543	-0.092
-194.246	22.488	0.415	0.441
-193.231	-71.093	0.138	0.067
-192.217	102.751	-0.335	-0.510
-191.202	210.687	-0.111	-0.226
-190.187	-21.080	-0.331	-0.263
-189.173	84.575	0.142	0.202
-188.158	214.267	0.179	-0.370
-187.144	164.477	0.088	-0.161
-186.129	-200.000	-0.054	0.380
-185.114	-81.922	-0.500	0.212
-184.100	-99.284	0.255	-0.083
-183.085	-24.658	0.406	-0.313
-182.071	720.621	0.115	-0.400
-181.056	-200.000	0.083	-0.809
-180.042	-200.000	-0.047	0.405
-179.027	788.285	0.169	0.608
-178.012	142.987	-0.159	-0.276
-176.998	-8.990	0.185	0.161
-175.983	-75.847	0.362	0.166
-174.969	-32.475	0.334	0.241
-173.954	-59.473	0.327	-0.182
-172.939	-128.765	-0.293	-0.053
-171.925	-24.189	0.143	0.111
-170.910	800.000	0.016	-0.093
-169.896	-109.750	0.683	0.185
-168.881	-2.745	-0.189	-0.172
-167.866	-110.241	0.261	-0.070
-166.852	800.000	0.123	0.519
-165.837	-156.528	-0.234	-0.019
-164.823	-200.000	-0.024	0.253
-163.808	42.450	0.089	-0.105
-162.793	-150.531	-0.049	-0.005
-161.779	159.629	0.254	-0.461
-160.764	149.810	-0.083	-0.146
-159.750	800.000	-0.036	0.147
-158.735	-36.240	0.272	0.190
-157.720	-43.032	-0.135	0.089
-156.706	-116.209	0.049	0.012
-155.691	-58.574	0.186	0.104
-154.677	-131.163	0.079	-0.014
-153.662	70.816	-0.098	-0.131
-152.647	-23.483	0.354	-0.275
-151.633	-59.372	0.158	0.088
-150.618	-200.000	-0.078	0.683
-149.604	-76.567	0.182	-0.082
-148.589	800.000	-0.055	-0.311
-147.574	-19.609	-0.159	0.127
-146.560	-116.838	-0.496	0.117
-145.545	-100.763	0.251	0.080
-144.531	111.846	0.186	-0.292
-143.516	12.961	0.171	-0.172
-142.502	149.549	-0.316	-0.557
-141.487	-30.043	-0.523	0.385
-140.472	19.939	0.360	0.376
-139.458	108.061	-0.225	0.349
-138.443	339.975	0.201	0.511
-137.429	800.000	-0.079	-0.448
-136.414	800.000	0.074	-0.275
-135.399	-200.000	-0.018	-0.184
-134.385	156.589	0.194	-0.348
-133.370	-200.000	0.033	-0.472
-132.356	-44.560	0.334	-0.216
-131.341	-200.000	0.004	0.292
-130.326	98.354	-0.069	-0.104
-129.312	-200.000	0.006	0.341
-128.297	447.786	-0.072	0.207
-127.283	-3.883	0.150	-0.134
-126.268	-33.098	-0.382	-0.274
-125.253	382.437	0.046	-0.124
-124.239	119.225	0.280	-0.449
-123.224	-116.776	-0.313	-0.074
-122.210	260.406	0.182	0.409
