DTS Sentinel unit serial number:	SN409020Multiplexer serial number:	ORYXHardware model number:	OX4-SRSoftware version number:	ORYX F/W v3.00 Oryx Data Collector v3.7.2.0data status	okinstallation	HaddamTimeLapsedifferential loss correction	single-endedforward channel	channel 3reverse channel	N/Adate	2011/06/22time	00:41:16forward acquisition time	30.00reverse acquisition time	0.00gamma	498.7831k internal	0.1752k external	0.1752temperature offset calibration	1.0074default loss term (dB/km)	0.3790temperature slope calibration	1.3530multiplexer offset coefficient	1.0000multiplexer slope coefficient	1.0000fibre end	0.00T internal ref (°C)	22.56T ext. ref 1 (°C)	18.00T ext. ref 2 (°C)	0.06length (m)	temperature (°C)	Stokes	anti-Stokes-747.200	-24.999	-0.052	0.041
-746.185	53.477	0.158	0.201
-745.171	-15.451	-0.240	0.203
-744.156	32.682	-0.330	0.380
-743.142	7.153	0.134	0.133
-742.127	-41.379	0.553	0.377
-741.112	461.585	-0.067	-0.199
-740.098	-88.847	-0.335	0.131
-739.083	800.000	-0.197	0.817
-738.069	-192.543	0.084	0.001
-737.054	-110.616	0.199	0.054
-736.039	-86.019	-0.416	-0.170
-735.025	-200.000	0.024	-0.289
-734.010	153.831	0.207	-0.377
-732.996	167.838	0.076	-0.144
-731.981	800.000	0.069	0.402
-730.966	-200.000	0.029	-0.251
-729.952	-43.125	0.279	0.187
-728.937	-172.628	0.326	0.013
-727.923	-121.007	-0.026	-0.006
-726.908	80.523	-0.330	-0.472
-725.894	800.000	0.017	-0.068
-724.879	-135.234	-0.360	0.057
-723.864	-93.876	0.173	-0.063
-722.850	800.000	-0.032	0.152
-721.835	5.467	-0.635	-0.621
-720.821	-122.018	0.224	-0.048
-719.806	-200.000	0.021	-0.495
-718.791	-42.549	0.363	-0.244
-717.777	-156.336	-0.203	0.017
-716.762	-156.560	-0.567	-0.046
-715.748	58.999	0.408	0.533
-714.733	-26.465	0.235	-0.182
-713.718	3.002	-0.376	0.362
-712.704	-112.536	-0.273	-0.072
-711.689	-119.539	-0.198	0.045
-710.675	-69.638	-0.225	0.114
-709.660	146.829	-0.067	-0.120
-708.645	-44.451	0.100	0.066
-707.631	-122.799	-0.294	-0.062
-706.616	-43.849	0.143	0.095
-705.602	-155.607	-0.084	0.007
-704.587	-116.718	-0.282	-0.068
-703.572	77.638	0.154	-0.217
-702.558	45.912	-0.401	0.492
-701.543	-112.603	-0.094	0.025
-700.529	-200.000	-0.003	0.388
-699.514	-62.742	-0.384	0.210
-698.499	-29.627	0.388	-0.293
-697.485	326.596	-0.124	0.317
-696.470	221.176	-0.137	0.292
-695.456	-68.673	0.306	-0.156
-694.441	53.201	0.153	-0.194
-693.426	-82.351	0.229	0.098
-692.412	64.358	0.057	0.076
-691.397	-64.669	0.338	0.181
-690.383	-200.000	-0.041	0.304
-689.368	-200.000	0.096	-0.567
-688.354	143.463	-0.104	0.183
-687.339	48.515	-0.311	0.386
-686.324	-200.000	0.015	0.114
-685.310	-200.000	-0.043	0.301
-684.295	342.660	-0.091	0.238
-683.281	-51.812	0.220	-0.135
-682.266	-200.000	0.028	-0.464
-681.251	-19.398	0.200	-0.164
-680.237	106.608	0.344	-0.541
-679.222	-50.866	0.361	-0.224
-678.208	20.390	-0.415	-0.445
-677.193	277.891	0.032	-0.075
-676.178	-96.626	-0.023	0.008
-675.164	35.636	-0.341	-0.397
-674.149	-200.000	-0.040	-0.311
-673.135	-60.177	0.208	-0.117
-672.120	358.349	0.100	-0.266
-671.105	-87.211	0.270	-0.108
-670.091	-98.654	0.460	-0.154
-669.076	-200.000	-0.003	0.072
-668.062	211.847	-0.116	-0.244
-667.047	479.786	-0.245	-0.738
-666.032	-62.852	0.362	0.198
-665.018	28.723	0.208	0.233
-664.003	-35.842	0.269	-0.192
-662.989	15.609	0.201	-0.209
-661.974	-89.800	0.087	-0.034
-660.959	110.518	-0.056	0.089
-659.945	-33.740	0.335	0.244
-658.930	326.750	0.130	0.331
-657.916	51.497	-0.437	-0.549
-656.901	266.080	-0.219	-0.507
-655.886	34.493	0.410	-0.474
-654.872	73.975	0.198	-0.275
-653.857	473.712	-0.100	-0.299
-652.843	-200.000	-0.035	0.278
-651.828	79.202	0.107	0.152
-650.814	-180.727	-0.567	0.015
-649.799	-156.295	-0.452	-0.037
-648.784	421.498	0.053	0.151
-647.770	800.000	-0.030	-0.131
-646.755	-22.869	-0.441	0.351
-645.741	457.234	-0.050	0.149
-644.726	188.449	-0.099	-0.197
-643.711	-63.091	-0.204	-0.111
-642.697	7.038	-0.109	0.108
-641.682	-67.624	0.336	0.174
-640.668	-6.468	0.219	-0.197
-639.653	-121.072	0.291	0.064
-638.638	111.867	-0.115	0.185
-637.624	-200.000	-0.062	0.715
-636.609	-200.000	-0.008	-0.083
-635.595	111.018	-0.034	0.054
-634.580	-99.436	0.285	-0.094
-633.565	800.000	-0.028	-0.160
-632.551	-158.748	-0.208	0.016
-631.536	-89.395	0.095	0.037
-630.522	-139.344	0.203	-0.028
-629.507	148.782	0.209	0.374
-628.492	-109.296	-0.387	0.108
-627.478	-133.129	0.280	-0.046
-626.463	70.510	0.004	-0.005
-625.449	-158.872	-0.379	0.028
-624.434	-85.585	0.344	-0.141
-623.419	-200.000	0.029	-0.349
-622.405	-103.072	0.117	-0.037
-621.390	-20.956	0.299	0.241
-620.376	255.336	-0.220	0.499
-619.361	164.739	-0.016	0.030
-618.346	-156.523	-0.222	0.018
-617.332	-51.992	0.102	-0.062
-616.317	55.214	0.262	-0.335
-615.303	54.003	0.040	-0.051
-614.288	-105.414	0.360	0.108
-613.273	-184.457	-0.275	0.006
-612.259	800.000	0.093	-0.428
-611.244	-65.360	0.220	-0.116
-610.230	296.744	-0.047	-0.113
-609.215	-106.590	0.226	-0.066
-608.201	-24.849	0.321	0.251
-607.186	-57.010	-0.238	-0.138
-606.171	-126.605	0.117	-0.023
-605.157	169.391	0.086	0.163
-604.142	-145.034	-0.129	-0.015
-603.128	-200.000	-0.020	0.229
-602.113	377.547	0.174	-0.472
-601.098	-121.796	-0.141	-0.030
-600.084	-21.323	0.249	-0.200
-599.069	-182.714	0.317	0.007
-598.055	185.881	0.255	-0.502
-597.040	41.933	0.242	0.290
-596.025	79.290	0.053	-0.075
-595.011	-66.478	-0.633	-0.330
-593.996	-43.645	0.221	-0.147
-592.982	-34.500	-0.377	-0.272
-591.967	361.004	-0.185	0.492
-590.952	-141.133	0.750	0.100
-589.938	-46.049	0.175	0.114
-588.923	361.503	-0.040	-0.106
-587.909	-200.000	-0.006	0.086
-586.894	31.961	-0.181	0.206
-585.879	-200.000	0.176	-0.001
-584.865	63.610	-0.037	-0.049
-583.850	9.468	0.260	-0.260
-582.836	-146.038	-0.499	-0.057
-581.821	58.831	-0.120	-0.156
-580.806	800.000	-0.086	-0.359
-579.792	800.000	0.174	-0.713
-578.777	-118.728	-0.141	0.032
-577.763	388.828	-0.056	-0.154
-576.748	-200.000	-0.005	-0.087
-575.733	172.455	0.076	0.144
-574.719	-1.834	-0.100	-0.093
-573.704	-50.117	0.362	-0.226
-572.690	-17.627	0.277	-0.229
-571.675	-50.727	-0.077	0.048
-570.661	-200.000	-0.009	-0.298
-569.646	133.603	0.136	-0.232
-568.631	217.739	0.072	0.151
-567.617	214.490	-0.111	0.234
-566.602	39.854	0.245	-0.290
-565.588	9.665	-0.462	-0.462
-564.573	-54.728	0.159	-0.095
-563.558	-58.139	0.120	-0.069
-562.544	-117.161	-0.420	-0.100
-561.529	75.734	0.049	-0.069
-560.515	758.138	0.071	-0.255
-559.500	-108.846	0.459	-0.128
-558.485	215.717	0.080	0.169
-557.471	318.283	0.041	-0.102
-556.456	104.373	0.241	-0.375
-555.442	117.179	0.218	0.354
-554.427	261.327	-0.048	0.111
-553.412	-158.214	-0.250	0.019
-552.398	-41.666	-0.101	0.068
-551.383	-119.965	0.666	0.149
-550.369	-22.857	-0.241	0.191
-549.354	-200.000	0.020	0.218
-548.339	800.000	0.038	-0.184
-547.325	-200.000	0.008	0.201
-546.310	56.942	0.098	-0.126
-545.296	106.146	0.090	0.141
-544.281	-146.695	0.138	0.016
-543.266	-75.910	0.551	-0.256
-542.252	-134.532	-0.710	0.113
-541.237	-200.000	0.030	-0.309
-540.223	96.693	-0.139	-0.210
-539.208	-104.122	-0.183	0.056
-538.193	-107.804	0.150	0.043
-537.179	-6.021	0.107	-0.097
-536.164	6.503	-0.151	-0.147
-535.150	11.400	-0.258	0.260
-534.135	717.394	0.204	0.718
-533.121	2.069	-0.214	0.203
-532.106	102.033	-0.238	0.366
-531.091	-51.911	0.549	-0.335
-530.077	-128.379	0.511	0.095
-529.062	800.000	-0.017	0.065
-528.048	191.945	-0.196	0.390
-527.033	151.996	-0.280	-0.504
-526.018	162.501	0.072	-0.133
-525.004	23.100	0.321	-0.346
-523.989	-148.459	-0.190	-0.020
-522.975	-67.009	-0.482	0.249
-521.960	55.976	-0.130	-0.166
-520.945	633.703	0.173	0.581
-519.931	-14.471	0.245	-0.207
-518.916	-200.000	0.081	0.595
-517.902	152.066	-0.154	-0.277
-516.887	-200.000	-0.018	0.142
-515.872	-87.156	-0.200	-0.080
-514.858	552.831	0.093	-0.294
-513.843	154.072	-0.267	-0.483
-512.829	-200.000	-0.018	-0.113
-511.814	-200.000	-0.069	0.472
-510.799	37.610	-0.131	-0.153
-509.785	-69.153	0.240	-0.121
-508.770	-21.432	-0.322	0.258
-507.756	-68.909	-0.300	-0.152
-506.741	47.750	-0.029	0.036
-505.726	299.350	-0.083	0.202
-504.712	143.301	-0.045	0.078
-503.697	32.663	-0.113	-0.129
-502.683	176.244	0.113	-0.217
-501.668	77.824	-0.234	0.328
-500.653	-108.970	-0.253	-0.070
-499.639	79.546	0.133	-0.187
-498.624	-200.000	0.009	0.397
-497.610	-1.393	-0.258	-0.240
-496.595	-136.384	0.214	-0.032
-495.581	96.746	-0.127	0.191
-494.566	-72.192	0.291	-0.141
-493.551	-75.938	0.296	0.137
-492.537	312.777	-0.162	0.403
-491.522	230.206	0.154	0.332
-490.508	-128.585	0.184	-0.034
-489.493	800.000	0.066	0.310
-488.478	-77.083	-0.087	-0.040
-487.464	-39.153	0.204	-0.140
-486.449	-200.000	-0.083	0.690
-485.435	-113.314	-0.477	0.122
-484.420	-36.734	-0.231	-0.163
-483.405	-47.784	-0.344	-0.219
-482.391	171.598	0.074	0.140
-481.376	-189.164	-0.310	-0.005
-480.362	48.346	0.165	0.203
-479.347	-63.832	0.486	0.260
-478.332	-200.000	-0.124	0.770
-477.318	-136.211	0.193	-0.029
-476.303	60.698	-0.047	0.061
-475.289	28.474	0.205	-0.228
-474.274	186.521	0.071	0.140
-473.259	-3.060	-0.046	0.043
-472.245	-64.856	-0.381	-0.202
-471.230	-200.000	-0.027	-0.308
-470.216	52.709	0.046	0.058
-469.201	-85.367	0.429	-0.175
-468.186	136.038	-0.281	-0.482
-467.172	17.559	0.251	0.262
-466.157	666.661	0.055	0.186
-465.143	-200.000	-0.017	-0.230
-464.128	-20.447	0.203	0.163
-463.113	40.722	0.306	0.362
-462.099	-93.087	-0.553	0.201
-461.084	90.482	0.050	-0.074
-460.070	800.000	0.097	0.406
-459.055	800.000	-0.111	0.410
-458.040	42.703	0.063	0.075
-457.026	-34.806	0.353	-0.253
-456.011	86.574	0.102	0.148
-454.997	74.429	-0.208	0.288
-453.982	283.419	-0.114	0.271
-452.968	43.804	0.349	-0.420
-451.953	-126.275	0.495	-0.096
-450.938	-200.000	-0.033	-0.207
-449.924	800.000	-0.096	0.435
-448.909	72.309	0.410	0.561
-447.895	-155.772	-0.155	0.013
-446.880	-23.663	0.369	0.290
-445.865	-59.544	0.522	0.293
-444.851	-200.000	-0.009	-0.070
-443.836	162.150	0.240	0.443
-442.822	75.166	-0.091	0.126
-441.807	-26.350	-0.274	0.210
-440.792	97.240	-0.212	0.320
-439.778	-93.664	0.273	-0.098
-438.763	-200.000	0.011	0.508
-437.749	-89.468	-0.236	0.091
-436.734	-26.768	-0.200	-0.153
-435.719	-59.077	-0.307	-0.173
-434.705	-200.000	-0.015	-0.512
-433.690	-143.354	0.706	-0.088
-432.676	800.000	0.109	0.437
-431.661	39.524	-0.506	0.595
-430.646	-200.000	0.011	0.653
-429.632	120.184	-0.169	-0.276
-428.617	-4.557	0.120	-0.109
-427.603	-146.262	-0.411	0.047
-426.588	66.357	0.328	0.438
-425.573	-200.000	-0.589	0.001
-424.559	-52.516	-0.048	0.029
-423.544	-200.000	-0.006	0.184
-422.530	73.872	-0.266	0.366
-421.515	-95.435	-0.272	0.095
-420.500	-76.496	-0.116	-0.053
-419.486	-109.867	-0.575	-0.157
-418.471	-127.561	-0.144	-0.027
-417.457	-200.000	-0.000	-0.023
-416.442	800.000	0.054	0.210
-415.428	-148.996	0.131	0.014
-414.413	-64.514	0.801	-0.425
-413.398	-110.779	-0.478	0.128
-412.384	-76.086	0.309	-0.142
-411.369	-121.531	0.576	0.124
-410.355	130.006	-0.090	-0.151
-409.340	-74.733	-0.228	-0.107
-408.325	-138.946	-0.264	0.037
-407.311	432.419	-0.137	0.393
-406.296	320.052	0.141	-0.351
-405.282	-20.108	-0.125	-0.101
-404.267	116.363	-0.115	-0.186
-403.252	-98.071	-0.321	0.108
-402.238	-109.208	0.287	-0.079
-401.223	23.111	-0.123	-0.132
-400.209	280.533	-0.139	-0.328
-399.194	-200.000	-0.083	-0.564
-398.179	-200.000	-0.012	-0.173
-397.165	800.000	-0.066	-0.294
-396.150	104.876	0.232	-0.358
-395.136	800.000	0.058	0.286
-394.121	624.712	-0.110	-0.365
-393.106	187.235	-0.151	-0.296
-392.092	-160.914	0.266	-0.018
-391.077	-100.324	0.099	-0.032
-390.063	181.986	0.139	0.268
-389.048	-200.000	0.004	-0.063
-388.033	-45.708	-0.455	0.294
-387.019	-200.000	0.065	0.583
-386.004	-118.684	-0.018	0.004
-384.990	-69.824	-0.522	-0.260
-383.975	473.456	-0.142	-0.421
-382.960	-179.206	0.294	0.008
-381.946	-125.067	0.387	-0.077
-380.931	258.330	0.085	0.193
-379.917	50.124	-0.080	-0.099
-378.902	-200.000	-0.004	0.049
-377.888	800.000	-0.093	-0.430
-376.873	-86.200	-0.418	-0.168
-375.858	-0.651	0.305	-0.283
-374.844	25.473	0.276	-0.301
-373.829	-80.571	0.178	-0.077
-372.815	-19.976	-0.040	0.032
-371.800	-19.370	-0.044	-0.036
-370.785	86.844	-0.458	0.662
-369.771	51.484	-0.056	-0.070
-368.756	55.644	-0.100	0.126
-367.742	-200.000	-0.030	0.264
-366.727	-8.177	0.035	-0.031
-365.712	-8.453	0.119	0.105
-364.698	-200.000	0.010	-0.110
-363.683	-21.233	-0.240	-0.192
-362.669	-91.034	-0.516	0.193
-361.654	544.941	0.178	0.559
-360.639	247.009	0.244	0.542
-359.625	-111.201	-0.195	-0.052
-358.610	718.663	0.035	0.123
-357.596	-38.672	0.278	-0.191
-356.581	338.423	-0.136	-0.347
-355.566	161.351	0.151	0.277
-354.552	-168.050	-0.499	0.025
-353.537	-200.000	0.057	0.356
-352.523	78.109	0.155	0.216
-351.508	-126.290	0.217	0.042
-350.493	-155.697	-0.314	-0.026
-349.479	42.900	-0.152	-0.181
-348.464	-64.613	-0.393	-0.208
-347.450	399.625	0.026	0.070
-346.435	24.633	0.218	0.236
-345.420	-170.595	-0.746	0.033
-344.406	-113.285	-0.352	-0.090
-343.391	-200.000	-0.010	-0.379
-342.377	32.763	-0.112	-0.126
-341.362	-61.349	0.454	-0.249
-340.348	800.000	-0.154	-0.574
-339.333	-140.937	0.420	-0.056
-338.318	677.123	-0.115	-0.392
-337.304	128.472	-0.187	-0.311
-336.289	-118.815	-0.494	-0.113
-335.275	-200.000	0.049	-0.286
-334.260	-137.500	0.317	-0.046
-333.245	395.578	0.244	0.668
-332.231	-142.282	-0.424	-0.054
-331.216	-46.935	0.212	0.135
-330.202	-129.951	0.017	0.003
-329.187	-13.354	0.317	-0.268
-328.172	95.161	0.079	-0.117
-327.158	-117.822	-0.235	-0.055
-326.143	3.455	0.356	-0.339
-325.129	800.000	-0.180	-0.717
-324.114	223.708	0.143	-0.303
-323.099	-41.345	0.134	0.090
-322.085	-42.516	0.040	-0.026
-321.070	-33.528	-0.078	0.056
-320.056	173.730	0.132	-0.250
-319.041	-141.572	-0.081	-0.011
-318.026	-93.923	0.351	0.125
-317.012	51.526	-0.292	0.363
-315.997	800.000	0.097	0.388
-314.983	360.544	0.053	-0.140
-313.968	-131.563	0.559	0.095
-312.953	-4.463	0.236	0.213
-311.939	-21.909	0.179	-0.142
-310.924	195.631	0.168	0.335
-309.910	-160.953	0.245	-0.017
-308.895	97.932	-0.347	0.521
-307.880	-150.101	-0.094	-0.009
-306.866	-20.163	-0.241	-0.194
-305.851	145.356	-0.079	-0.139
-304.837	-27.695	0.203	-0.154
-303.822	800.000	-0.016	-0.083
-302.807	-33.376	-0.041	-0.029
-301.793	165.977	0.282	-0.522
-300.778	128.464	-0.235	-0.391
-299.764	108.450	0.259	-0.404
-298.749	-46.071	-0.184	0.118
-297.735	70.387	0.392	0.530
-296.720	-163.076	0.095	-0.006
-295.705	-167.475	0.715	0.037
-294.691	10.287	0.178	-0.176
-293.676	-31.057	-0.163	-0.120
-292.662	-129.770	-0.192	0.034
-291.647	-5.812	0.260	0.232
-290.632	292.656	-0.134	0.320
-289.618	-57.491	-0.202	-0.115
-288.603	800.000	-0.089	-0.367
-287.589	-117.467	0.036	-0.008
-286.574	-39.683	0.185	-0.126
-285.559	-200.000	-0.027	0.233
-284.545	-93.158	0.457	-0.165
-283.530	-140.152	-0.150	0.020
-282.516	-87.564	-0.263	-0.103
-281.501	388.751	0.123	-0.334
-280.486	27.436	0.075	0.082
-279.472	-64.269	0.203	0.108
-278.457	-149.420	-0.368	-0.038
-277.443	-15.347	0.474	0.394
-276.428	402.655	0.041	-0.114
-275.413	-200.000	-0.287	0.001
-274.399	167.477	0.046	-0.085
-273.384	-105.941	-0.527	0.154
-272.370	83.518	0.159	0.227
-271.355	-84.893	-0.074	0.030
-270.340	-200.000	-0.094	0.634
-269.326	40.507	-0.402	-0.473
-268.311	-32.508	-0.552	0.400
-267.297	-192.449	0.440	-0.005
-266.282	-142.749	-0.209	-0.026
-265.267	25.780	-0.108	0.118
-264.253	800.000	0.101	-0.479
-263.238	186.816	-0.320	-0.623
-262.224	295.874	0.130	0.311
-261.209	800.000	-0.021	0.112
-260.195	800.000	-0.143	0.675
-259.180	160.939	0.133	0.243
-258.165	-47.972	-0.155	0.098
-257.151	-28.115	-0.191	-0.144
-256.136	-118.360	-0.178	-0.041
-255.122	17.823	0.114	-0.118
-254.107	-177.897	0.440	-0.013
-253.092	217.492	-0.021	-0.043
-252.078	603.774	0.097	-0.315
-251.063	-95.527	-0.552	0.192
-250.049	800.000	-0.176	0.721
-249.034	-32.921	-0.196	0.142
-248.019	-31.488	-0.115	0.084
-247.005	-147.979	0.608	-0.065
-245.990	453.703	-0.138	-0.399
-244.976	-57.645	-0.308	-0.175
-243.961	54.586	0.063	-0.079
-242.946	-114.978	0.375	0.092
-241.932	-4.778	0.233	-0.209
-240.917	-63.357	-0.351	0.188
-239.903	10.993	-0.479	-0.476
-238.888	-90.529	-0.490	-0.184
-237.873	-125.149	-0.441	0.087
-236.859	9.411	-0.095	-0.094
-235.844	-124.041	0.174	-0.035
-234.830	127.053	-0.088	-0.146
-233.815	-33.838	0.621	0.445
-232.800	345.816	0.080	-0.205
-231.786	152.787	0.126	0.225
-230.771	-200.000	0.001	-0.355
-229.757	170.271	0.113	-0.210
-228.742	-27.113	-0.302	0.229
-227.727	-64.039	-0.231	-0.123
-226.713	-86.086	0.256	-0.102
-225.698	-1.226	-0.137	0.126
-224.684	-110.850	-0.527	-0.140
-223.669	-200.000	-0.004	-0.160
-222.655	11.173	0.167	0.166
-221.640	7.391	0.240	-0.233
-220.625	310.999	-0.213	-0.522
-219.611	-68.401	0.413	-0.208
-218.596	389.837	-0.180	0.487
-217.582	50.266	-0.321	0.395
-216.567	800.000	-0.106	-0.492
-215.552	531.180	0.121	0.375
-214.538	-148.542	-0.251	-0.026
-213.523	-130.226	-0.295	-0.052
-212.509	-103.346	0.449	-0.137
-211.494	-200.000	0.039	-0.370
-210.479	270.028	0.132	0.302
-209.465	-16.390	0.296	-0.244
-208.450	-165.047	-0.200	0.011
-207.436	-200.000	0.030	-0.222
-206.421	397.732	0.126	0.344
-205.406	46.890	-0.202	0.244
-204.392	-90.975	0.365	-0.136
-203.377	-112.972	0.393	-0.100
-202.363	173.910	0.293	-0.552
-201.348	-105.626	-0.046	0.014
-200.333	113.266	0.164	0.259
-199.319	-200.000	-0.002	-0.130
-198.304	-163.778	-0.131	-0.008
-197.290	-82.320	-0.505	0.212
-196.275	800.000	0.053	-0.300
-195.260	101.174	0.205	-0.311
-194.246	-83.007	-0.102	0.043
-193.231	311.337	0.078	0.190
-192.217	-121.073	0.533	-0.115
-191.202	-200.000	0.034	-0.464
-190.187	-153.175	0.383	0.034
-189.173	6.289	0.272	0.262
-188.158	-158.808	0.169	0.012
-187.144	214.186	0.166	0.343
-186.129	131.710	0.113	0.189
-185.114	-200.000	-0.015	0.128
-184.100	199.093	-0.028	-0.056
-183.085	-200.000	-0.020	-0.396
-182.071	-64.860	-0.276	-0.144
-181.056	-50.797	0.023	0.014
-180.042	18.249	0.233	-0.241
-179.027	194.043	0.145	0.285
-178.012	155.179	0.328	-0.588
-176.998	93.756	0.238	0.351
-175.983	55.529	-0.172	0.216
-174.969	-109.626	-0.219	-0.059
-173.954	103.563	-0.172	0.262
-172.939	-8.897	-0.307	0.267
-171.925	-15.996	0.112	-0.093
-170.910	-36.840	-0.325	-0.226
-169.896	-26.574	0.395	-0.300
-168.881	463.013	-0.096	0.281
-167.866	106.186	-0.116	0.179
-166.852	-55.250	-0.387	-0.225
-165.837	-78.464	-0.314	-0.139
-164.823	214.202	0.159	-0.328
-163.808	-40.061	-0.256	0.173
-162.793	-59.149	-0.172	0.096
-161.779	-53.543	0.240	0.142
-160.764	180.537	-0.195	-0.372
-159.750	23.409	-0.198	0.211
-158.735	-144.194	-0.385	0.046
-157.720	6.551	0.185	-0.179
-156.706	-72.930	-0.301	0.143
-155.691	491.621	0.126	0.377
-154.677	-149.474	0.208	0.021
-153.662	-200.000	-0.006	0.307
-152.647	-99.659	-0.142	0.046
-151.633	-82.886	-0.072	-0.030
-150.618	800.000	0.035	0.188
-149.604	-43.827	-0.405	-0.264
-148.589	55.841	0.209	0.263
-147.574	274.860	0.265	0.612
-146.560	-155.692	0.305	-0.025
-145.545	3.668	-0.093	0.088
-144.531	-156.246	0.232	0.019
-143.516	35.212	-0.303	0.345
-142.502	451.034	0.055	0.157
-141.487	-27.329	0.197	0.148
-140.472	800.000	0.106	-0.503
-139.458	-107.164	-0.349	0.099
-138.443	-59.041	0.205	0.114
-137.429	327.308	0.094	0.235
-136.414	21.820	0.250	-0.264
-135.399	-200.000	0.024	-0.568
-134.385	87.349	0.248	0.356
-133.370	-146.168	0.273	0.031
-132.356	-82.336	-0.265	0.111
-131.341	-146.954	-0.129	0.014
-130.326	44.606	0.261	0.311
-129.312	800.000	0.054	0.263
-128.297	-200.000	-0.310	0.001
-127.283	-200.000	0.031	0.214
-126.268	74.270	0.258	0.352
-125.253	2.673	-0.177	0.166
-124.239	69.177	0.187	-0.250
-123.224	-53.097	-0.178	-0.105
-122.210	77.317	0.107	-0.148
-121.195	-54.381	0.163	0.096
