DTS Sentinel unit serial number:	SN409020Multiplexer serial number:	ORYXHardware model number:	OX4-SRSoftware version number:	ORYX F/W v3.00 Oryx Data Collector v3.7.2.0data status	okinstallation	HaddamTimeLapsedifferential loss correction	single-endedforward channel	channel 3reverse channel	N/Adate	2011/06/21time	18:01:17forward acquisition time	30.00reverse acquisition time	0.00gamma	498.7831k internal	0.1838k external	0.1838temperature offset calibration	1.0074default loss term (dB/km)	0.3790temperature slope calibration	1.3530multiplexer offset coefficient	1.0000multiplexer slope coefficient	1.0000fibre end	0.00T internal ref (°C)	36.25T ext. ref 1 (°C)	28.91T ext. ref 2 (°C)	0.28length (m)	temperature (°C)	Stokes	anti-Stokes-747.200	800.000	-0.067	-0.242
-746.185	-150.102	0.114	0.011
-745.171	-200.000	-0.005	0.206
-744.156	-15.613	0.503	0.405
-743.142	-200.000	-0.043	-0.548
-742.127	-102.658	-0.382	-0.115
-741.112	-110.074	-0.554	0.146
-740.098	-111.216	-0.609	0.156
-739.083	-49.776	-0.172	0.103
-738.069	-99.804	0.536	-0.169
-737.054	457.577	0.116	-0.327
-736.039	-52.082	0.239	0.140
-735.025	-65.162	-0.354	0.180
-734.010	-29.384	-0.254	-0.184
-732.996	-50.900	-0.399	-0.237
-731.981	-47.656	0.027	-0.017
-730.966	-21.013	-0.404	-0.312
-729.952	-43.540	0.180	0.115
-728.937	-174.955	0.281	-0.010
-727.923	8.226	0.169	0.160
-726.908	-164.180	0.174	0.010
-725.894	-10.226	-0.203	0.170
-724.879	-72.710	0.636	-0.295
-723.864	-82.942	0.543	0.220
-722.850	26.494	0.288	0.305
-721.835	197.522	-0.060	-0.117
-720.821	-165.298	-0.262	-0.014
-719.806	-66.551	-0.277	0.139
-718.791	708.258	0.037	-0.126
-717.777	-101.607	-0.436	-0.133
-716.762	-10.472	-0.543	-0.454
-715.748	-34.936	-0.328	-0.226
-714.733	652.105	0.184	0.601
-713.718	-87.985	-0.274	-0.103
-712.704	-90.011	0.191	-0.070
-711.689	361.388	-0.072	-0.184
-710.675	-142.323	-0.403	-0.050
-709.660	-200.000	0.001	0.289
-708.645	220.329	-0.040	0.082
-707.631	-72.709	0.019	-0.009
-706.616	-37.128	0.066	0.044
-705.602	-9.563	-0.330	-0.278
-704.587	124.203	-0.163	-0.260
-703.572	-200.000	-0.079	-0.000
-702.558	-200.000	0.020	-0.220
-701.543	-21.786	-0.274	0.210
-700.529	-66.910	-0.299	0.149
-699.514	-200.000	0.005	0.383
-698.499	652.020	0.078	0.252
-697.485	7.290	-0.451	-0.425
-696.470	773.323	-0.158	-0.549
-695.456	-52.585	-0.605	0.352
-694.441	-25.493	0.256	0.191
-693.426	7.700	-0.097	-0.092
-692.412	-200.000	-0.011	0.149
-691.397	277.709	0.026	-0.058
-690.383	-46.919	0.359	-0.221
-689.368	-19.954	-0.224	-0.174
-688.354	-79.866	-0.302	0.128
-687.339	-200.000	0.072	0.603
-686.324	800.000	-0.088	0.393
-685.310	291.258	0.068	0.157
-684.295	43.527	-0.206	-0.238
-683.281	-16.371	-0.270	0.216
-682.266	319.824	0.018	-0.044
-681.251	-68.363	0.187	0.091
-680.237	-76.196	-0.183	-0.081
-679.222	800.000	-0.083	0.410
-678.208	-200.000	0.011	0.125
-677.193	169.745	-0.129	0.233
-676.178	283.872	0.030	0.069
-675.164	330.483	0.105	-0.257
-674.149	-200.000	0.428	-0.001
-673.135	-13.822	-0.268	-0.219
-672.120	95.490	0.108	0.155
-671.105	-9.158	-0.239	0.201
-670.091	708.823	0.079	0.265
-669.076	-166.520	-0.459	-0.024
-668.062	-32.027	-0.316	-0.223
-667.047	-102.478	0.400	0.120
-666.032	-97.009	-0.154	-0.051
-665.018	-26.039	0.142	0.105
-664.003	35.268	-0.083	0.091
-662.989	419.513	-0.044	0.120
-661.974	-49.738	0.135	0.081
-660.959	-32.396	0.144	0.101
-659.945	-59.937	0.266	0.143
-658.930	-182.909	0.093	0.002
-657.916	-39.891	0.082	-0.054
-656.901	-140.581	-0.336	-0.044
-655.886	800.000	-0.046	0.208
-654.872	71.578	-0.143	-0.188
-653.857	-135.111	0.113	0.017
-652.843	48.445	-0.151	0.178
-651.828	65.266	-0.125	-0.160
-650.814	800.000	0.104	0.521
-649.799	11.579	-0.173	-0.168
-648.784	282.841	-0.144	-0.327
-647.770	77.995	-0.270	0.364
-646.755	-200.000	0.034	-0.323
-645.741	-37.239	-0.277	-0.186
-644.726	-200.000	-0.058	-0.556
-643.711	210.621	-0.170	-0.337
-642.697	10.670	0.307	0.295
-641.682	800.000	-0.033	0.175
-640.668	-197.283	-0.434	0.003
-639.653	98.662	-0.273	0.398
-638.638	-155.646	0.432	0.035
-637.624	415.695	0.039	0.106
-636.609	-55.532	-0.237	-0.133
-635.595	-175.174	0.220	0.008
-634.580	800.000	-0.067	0.352
-633.565	-135.904	-0.386	0.057
-632.551	-21.056	0.322	0.248
-631.536	-44.332	-0.189	-0.119
-630.522	49.021	-0.261	0.309
-629.507	341.278	0.063	0.155
-628.492	-200.000	-0.008	0.051
-627.478	18.125	0.272	-0.273
-626.463	800.000	-0.055	-0.229
-625.449	117.718	0.438	-0.681
-624.434	800.000	-0.231	-0.887
-623.419	-2.199	0.374	0.331
-622.405	-71.799	0.386	-0.180
-621.390	-3.660	-0.277	-0.242
-620.376	-200.000	0.059	-0.335
-619.361	-91.610	-0.165	-0.059
-618.346	-0.136	-0.079	0.071
-617.332	120.363	0.230	0.360
-616.317	205.138	0.188	-0.368
-615.303	-144.377	0.183	-0.021
-614.288	-78.122	-0.296	0.128
-613.273	-29.052	0.470	0.339
-612.259	-125.836	0.197	-0.037
-611.244	564.880	0.033	0.101
-610.230	516.015	-0.216	0.639
-609.215	-200.000	0.014	-0.114
-608.201	12.584	-0.127	-0.123
-607.186	-141.329	-0.245	-0.031
-606.171	155.651	-0.255	0.443
-605.157	343.872	-0.094	-0.232
-604.142	-54.223	0.179	-0.102
-603.128	-200.000	-0.042	-0.511
-602.113	190.849	-0.072	0.136
-601.098	7.837	0.054	0.051
-600.084	-141.461	0.079	-0.010
-599.069	-131.250	-0.286	-0.047
-598.055	-23.952	-0.319	0.240
-597.040	-80.192	-0.581	-0.243
-596.025	206.759	0.084	-0.165
-595.011	13.910	0.163	-0.160
-593.996	257.725	-0.193	-0.419
-592.982	-200.000	0.052	-0.325
-591.967	9.815	-0.044	0.042
-590.952	-104.055	-0.342	-0.100
-589.938	-200.000	0.037	-0.428
-588.923	-186.346	0.438	-0.008
-587.909	-131.651	-0.204	0.033
-586.894	252.898	-0.113	-0.243
-585.879	41.194	-0.249	0.283
-584.865	-5.914	-0.037	0.032
-583.850	631.157	-0.162	0.520
-582.836	-195.715	0.181	0.002
-581.821	394.583	0.028	-0.073
-580.806	-113.277	0.159	-0.039
-579.792	-149.922	0.147	-0.014
-578.777	18.506	-0.364	-0.366
-577.763	-53.128	-0.267	0.154
-576.748	-200.000	-0.026	-0.279
-575.733	84.132	-0.216	0.297
-574.719	177.905	0.226	-0.415
-573.704	-98.110	-0.281	-0.090
-572.690	-128.976	-0.319	-0.056
-571.675	-179.770	-0.276	0.007
-570.661	-111.499	0.330	-0.084
-569.646	-98.217	0.348	0.112
-568.631	8.723	0.048	-0.045
-567.617	-200.000	0.036	-0.313
-566.602	81.785	-0.179	-0.244
-565.588	62.360	0.227	0.285
-564.573	-66.423	0.169	0.084
-563.558	-97.648	0.218	-0.071
-562.544	49.107	-0.256	0.302
-561.529	112.202	0.110	-0.167
-560.515	-81.746	-0.452	-0.185
-559.500	-190.232	-0.358	-0.005
-558.485	-12.479	0.170	0.139
-557.471	30.427	-0.129	-0.138
-556.456	-200.000	0.042	-0.273
-555.442	-132.311	0.543	-0.087
-554.427	31.339	0.346	0.374
-553.412	-200.000	-0.061	-0.436
-552.398	-119.523	-0.114	0.025
-551.383	-133.783	0.344	-0.053
-550.369	560.613	0.136	0.414
-549.354	-42.992	0.431	-0.274
-548.339	645.384	-0.066	-0.213
-547.325	-64.376	-0.430	0.219
-546.310	80.400	-0.304	-0.412
-545.296	328.555	0.140	-0.340
-544.281	-123.124	-0.304	0.061
-543.266	-61.503	-0.173	0.091
-542.252	89.056	-0.165	-0.232
-541.237	-62.462	0.344	0.179
-540.223	211.602	0.162	0.320
-539.208	416.430	-0.167	-0.450
-538.193	100.408	-0.392	-0.573
-537.179	256.487	-0.103	-0.222
-536.164	-82.142	-0.040	0.016
-535.150	138.130	-0.165	-0.272
-534.135	441.581	-0.074	-0.205
-533.121	130.559	0.189	-0.305
-532.106	85.044	0.094	0.129
-531.091	800.000	-0.072	0.270
-530.077	383.301	0.103	-0.267
-529.062	-56.537	-0.282	0.157
-528.048	155.153	-0.123	0.213
-527.033	-162.351	0.376	-0.023
-526.018	-200.000	0.012	0.076
-525.004	-65.923	0.240	0.120
-523.989	800.000	0.040	0.167
-522.975	-60.452	0.065	-0.035
-521.960	-63.909	0.358	-0.183
-520.945	-145.574	0.113	-0.013
-519.931	800.000	-0.052	0.239
-518.916	67.662	-0.265	0.340
-517.902	800.000	0.048	0.178
-516.887	142.630	0.231	0.386
-515.872	236.518	0.054	0.113
-514.858	-200.000	0.001	-0.047
-513.843	357.353	0.204	0.512
-512.829	-83.622	-0.205	-0.082
-511.814	-129.576	-0.205	-0.035
-510.799	20.369	-0.171	0.173
-509.785	-200.000	0.019	-0.192
-508.770	-200.000	0.044	-0.512
-507.756	198.094	-0.172	-0.331
-506.741	-200.000	0.017	-0.566
-505.726	390.070	0.202	-0.528
-504.712	18.593	0.216	0.216
-503.697	-36.769	-0.110	-0.074
-502.683	718.337	0.051	-0.170
-501.668	-162.080	0.176	-0.011
-500.653	-57.120	0.189	-0.104
-499.639	-3.295	0.165	-0.144
-498.624	-89.629	0.394	0.144
-497.610	-11.834	-0.103	-0.085
-496.595	-60.872	-0.134	-0.071
-495.581	800.000	0.062	0.253
-494.566	-29.421	0.155	-0.111
-493.551	-0.006	0.190	-0.169
-492.537	-116.601	-0.103	-0.024
-491.522	101.536	-0.130	-0.190
-490.508	800.000	0.006	-0.029
-489.493	-70.805	-0.101	-0.047
-488.478	800.000	-0.074	-0.290
-487.464	800.000	0.048	0.180
-486.449	-41.436	-0.135	-0.087
-485.435	34.421	0.100	0.109
-484.420	-60.586	-0.249	0.132
-483.405	-200.000	0.070	0.575
-482.391	-200.000	-0.017	0.472
-481.376	-104.804	0.578	-0.165
-480.362	83.767	0.247	-0.338
-479.347	800.000	-0.046	-0.176
-478.332	-18.294	-0.248	0.194
-477.318	111.358	-0.087	0.131
-476.303	32.571	-0.218	0.236
-475.289	41.990	-0.212	0.241
-474.274	800.000	-0.075	-0.368
-473.259	114.917	-0.189	0.290
-472.245	239.972	0.097	-0.203
-471.230	-121.589	0.332	0.068
-470.216	-137.923	0.098	0.014
-469.201	-200.000	0.086	-0.505
-468.186	-10.395	0.547	0.453
-467.172	-73.050	-0.257	-0.118
-466.157	-127.140	-0.424	-0.077
-465.143	-200.000	-0.071	0.407
-464.128	37.957	0.245	0.272
-463.113	659.348	-0.105	0.339
-462.099	195.516	-0.088	-0.169
-461.084	-138.356	0.356	-0.049
-460.070	-126.939	0.156	0.028
-459.055	-103.183	-0.101	0.030
-458.040	138.393	-0.116	-0.192
-457.026	-183.986	-0.314	-0.006
-456.011	-84.698	-0.467	-0.183
-454.997	-200.000	0.035	0.350
-453.982	-132.562	0.585	-0.093
-452.968	-200.000	0.010	-0.388
-451.953	18.703	-0.245	-0.245
-450.938	234.720	0.115	0.238
-449.924	-200.000	0.042	0.395
-448.909	42.435	0.088	0.100
-447.895	-7.849	0.150	0.127
-446.880	-87.469	0.219	-0.083
-445.865	-27.767	0.176	0.127
-444.851	-94.693	-0.483	0.163
-443.836	-113.982	0.331	-0.080
-442.822	-55.845	-0.392	0.218
-441.807	-111.416	-0.449	-0.114
-440.792	-56.377	0.229	-0.127
-439.778	150.642	0.148	-0.253
-438.763	302.956	0.142	-0.331
-437.749	-16.150	-0.189	0.150
-436.734	18.166	-0.193	-0.193
-435.719	91.035	0.104	0.147
-434.705	620.344	-0.089	-0.280
-433.690	-78.531	0.072	-0.031
-432.676	800.000	-0.056	-0.201
-431.661	254.102	0.290	-0.622
-430.646	85.486	0.161	-0.221
-429.632	-5.976	-0.234	-0.200
-428.617	-99.807	0.102	0.032
-427.603	-25.323	0.086	0.063
-426.588	-200.000	0.058	-0.370
-425.573	194.699	-0.192	-0.366
-424.559	-72.034	0.433	-0.200
-423.544	-200.000	-0.032	-0.321
-422.530	-200.000	0.075	-0.430
-421.515	6.368	-0.152	0.141
-420.500	-200.000	0.077	0.577
-419.486	447.667	-0.017	0.046
-418.471	342.574	0.037	-0.092
-417.457	-200.000	-0.115	0.000
-416.442	395.761	0.141	-0.370
-415.428	247.399	0.126	-0.266
-414.413	335.938	0.139	-0.340
-413.398	59.877	0.241	-0.297
-412.384	-55.346	-0.160	0.090
-411.369	800.000	-0.057	0.272
-410.355	-73.518	-0.399	0.181
-409.340	-28.188	0.006	0.005
-408.325	-200.000	-0.007	-0.151
-407.311	800.000	-0.074	0.323
-406.296	-68.851	0.809	0.388
-405.282	-138.056	0.175	0.024
-404.267	-19.055	-0.174	-0.135
-403.252	-200.000	0.040	0.557
-402.238	-200.000	-0.002	0.371
-401.223	709.011	0.199	0.663
-400.209	13.853	-0.062	-0.060
-399.194	82.765	-0.198	0.269
-398.179	544.844	0.041	0.123
-397.165	-85.752	0.323	-0.125
-396.150	-13.368	-0.762	0.616
-395.136	309.462	0.048	0.114
-394.121	-200.000	-0.030	0.320
-393.106	-200.000	0.009	0.309
-392.092	-39.844	0.220	0.143
-391.077	39.751	-0.168	0.188
-390.063	108.332	-0.215	-0.322
-389.048	131.317	0.092	-0.147
-388.033	-10.817	0.314	0.259
-387.019	-193.463	-0.289	-0.003
-386.004	-5.357	-0.220	0.188
-384.990	248.830	-0.242	-0.513
-383.975	-49.720	0.433	0.256
-382.960	-105.015	-0.367	-0.104
-381.946	-41.590	-0.160	0.103
-380.931	-200.000	0.007	-0.084
-379.917	158.125	0.254	0.440
-378.902	-200.000	0.000	-0.348
-377.888	-200.000	0.040	0.405
-376.873	-127.554	-0.300	0.054
-375.858	393.817	0.175	-0.456
-374.844	-6.624	-0.387	-0.329
-373.829	297.065	-0.148	0.340
-372.815	-49.477	0.219	0.130
-371.800	-151.172	0.065	-0.006
-370.785	53.535	0.083	0.099
-369.771	122.336	0.160	-0.249
-368.756	272.920	-0.204	0.450
-367.742	800.000	-0.097	-0.443
-366.727	29.542	0.218	0.231
-365.712	-77.237	0.329	-0.142
-364.698	-68.271	0.451	-0.218
-363.683	486.923	0.051	0.144
-362.669	-10.807	0.124	0.102
-361.654	-52.563	-0.320	-0.184
-360.639	-1.800	-0.197	0.173
-359.625	-30.130	0.169	0.120
-358.610	237.028	0.175	0.363
-357.596	-129.460	0.348	0.060
-356.581	-151.585	-0.075	-0.007
-355.566	183.854	-0.262	0.484
-354.552	285.179	0.093	0.210
-353.537	266.350	-0.043	0.093
-352.523	396.513	-0.121	-0.317
-351.508	-109.727	-0.127	-0.033
-350.493	-111.041	0.144	-0.037
-349.479	800.000	0.067	-0.237
-348.464	-41.182	0.404	-0.259
-347.450	-168.168	0.061	0.003
-346.435	49.251	-0.252	0.296
-345.420	-91.538	-0.231	0.081
-344.406	-128.648	-0.400	-0.070
-343.391	-200.000	0.039	0.474
-342.377	29.908	0.307	-0.326
-341.362	-200.000	-0.047	0.384
-340.348	12.008	-0.308	0.295
-339.333	99.861	0.317	-0.459
-338.318	159.261	-0.117	-0.204
-337.304	800.000	-0.111	-0.446
-336.289	-134.518	-0.546	-0.082
-335.275	554.216	-0.110	-0.332
-334.260	-61.294	-0.204	-0.107
-333.245	7.108	-0.369	-0.342
-332.231	205.130	0.243	-0.472
-331.216	-200.000	0.008	-0.090
-330.202	800.000	0.031	0.125
-329.187	-108.936	-0.082	-0.022
-328.172	800.000	-0.060	0.319
-327.158	-67.923	-0.057	-0.027
-326.143	-81.305	-0.271	0.111
-325.129	6.885	-0.264	-0.244
-324.114	-101.564	0.183	-0.055
-323.099	-147.245	0.164	-0.017
-322.085	25.141	-0.048	-0.049
-321.070	-39.906	-0.213	0.138
-320.056	-133.549	0.261	0.040
-319.041	-200.000	-0.067	-0.466
-318.026	-130.418	0.138	-0.023
-317.012	-21.171	0.367	-0.279
-315.997	-72.455	-0.210	-0.096
-314.983	-82.118	0.244	-0.099
-313.968	123.678	0.365	0.571
-312.953	-30.350	-0.166	0.117
-311.939	-30.384	-0.130	0.091
-310.924	250.368	0.154	-0.326
-309.910	800.000	-0.032	-0.114
-308.895	-36.260	-0.452	0.303
-307.880	-102.930	-0.234	-0.069
-306.866	-26.544	-0.141	-0.102
-305.851	489.055	0.117	-0.334
-304.837	-200.000	-0.013	-0.277
-303.822	41.667	-0.228	-0.257
-302.807	138.427	0.137	0.225
-301.793	-93.130	-0.109	0.038
-300.778	-122.403	-0.413	0.083
-299.764	-46.340	-0.123	-0.075
-298.749	-3.485	-0.357	0.309
-297.735	-87.050	-0.593	-0.224
-296.720	-154.538	-0.145	-0.012
-295.705	-43.037	-0.029	-0.019
-294.691	317.020	-0.027	-0.064
-293.676	29.300	0.197	0.208
-292.662	27.393	-0.378	-0.395
-291.647	-125.034	-0.213	-0.040
-290.632	-200.000	-0.023	0.419
-289.618	49.246	0.472	-0.552
-288.603	-32.345	0.291	-0.201
-287.589	-63.498	0.293	0.149
-286.574	10.809	0.198	0.188
-285.559	126.705	-0.280	-0.442
-284.545	115.474	-0.087	0.133
-283.530	-136.822	0.406	0.057
-282.516	-60.384	0.355	0.187
-281.501	-89.422	0.271	0.099
-280.486	800.000	0.083	0.351
-279.472	-118.480	-0.110	0.024
-278.457	83.650	0.169	0.230
-277.443	355.827	0.148	-0.369
-276.428	-120.317	-0.425	-0.089
-275.413	201.407	0.426	0.819
-274.399	-93.140	0.106	-0.036
-273.384	-8.791	0.149	0.124
-272.370	-82.257	0.168	0.068
-271.355	-200.000	-0.027	0.467
-270.340	-91.386	0.269	0.095
-269.326	22.752	0.351	0.357
-268.311	662.099	0.100	0.321
-267.297	-43.666	-0.068	-0.043
-266.282	-114.968	-0.672	-0.158
-265.267	-28.380	-0.412	-0.295
-264.253	443.013	-0.070	-0.192
-263.238	38.067	0.191	-0.212
-262.224	-200.000	-0.002	-0.160
-261.209	-100.294	-0.370	0.113
-260.195	428.550	0.028	0.075
-259.180	160.244	-0.152	0.264
-258.165	541.703	-0.238	0.708
-257.151	-148.960	-0.087	-0.009
-256.136	-49.859	0.151	-0.089
-255.122	-48.241	0.161	0.096
-254.107	-61.150	-0.230	0.120
-253.092	-200.000	-0.051	-0.315
-252.078	-49.415	-0.124	0.073
-251.063	-86.987	0.437	0.165
-250.049	64.018	0.177	-0.221
-249.034	-165.160	0.312	0.017
-248.019	45.091	0.243	-0.278
-247.005	248.083	-0.177	-0.373
-245.990	225.928	0.137	-0.277
-244.976	133.312	-0.062	-0.100
-243.961	-200.000	0.009	-0.294
-242.946	375.446	-0.196	0.498
-241.932	-200.000	-0.024	0.201
-240.917	-2.295	-0.235	-0.205
-239.903	800.000	0.050	-0.252
-238.888	160.784	0.079	-0.137
-237.873	-200.000	-0.016	-0.262
-236.859	-135.933	0.392	-0.057
-235.844	589.245	0.148	-0.454
-234.830	-136.755	0.544	-0.077
-233.815	-75.027	0.421	0.186
-232.800	333.480	0.030	0.072
-231.786	-35.369	0.189	-0.127
-230.771	56.175	-0.176	0.212
-229.757	227.454	0.034	-0.069
-228.742	-200.000	0.071	0.502
-227.727	-13.426	0.767	0.616
-226.713	-200.000	-0.016	0.271
-225.698	-143.417	-0.153	0.018
-224.684	52.931	0.269	0.320
-223.669	150.230	-0.126	-0.212
-222.655	-200.000	0.024	-0.320
-221.640	-137.339	-0.290	-0.040
-220.625	466.328	-0.047	0.130
-219.611	800.000	0.066	-0.325
-218.596	800.000	-0.070	-0.315
-217.582	580.471	0.134	-0.408
-216.567	-42.937	-0.136	-0.085
-215.552	-19.498	-0.387	-0.297
-214.538	-142.125	-0.182	-0.022
-213.523	-21.020	0.267	0.202
-212.509	635.439	-0.107	-0.337
-211.494	90.709	-0.125	0.174
-210.479	76.917	-0.297	-0.392
-209.465	-151.631	-0.391	0.035
-208.450	-91.341	-0.384	0.135
-207.436	-63.767	-0.342	0.173
-206.421	-115.727	0.394	-0.091
-205.406	-168.986	0.275	-0.013
-204.392	-64.238	0.265	-0.133
-203.377	37.195	-0.130	-0.142
-202.363	800.000	0.141	-0.509
-201.348	-107.133	-0.516	0.140
-200.333	-128.898	-0.199	0.034
-199.319	-69.477	-0.112	0.053
-198.304	304.418	-0.218	0.503
-197.290	-35.625	-0.303	-0.203
-196.275	-200.000	0.064	0.493
-195.260	-200.000	-0.011	0.194
-194.246	-78.567	-0.145	0.061
-193.231	-64.120	0.583	0.294
-192.217	-29.203	-0.390	0.276
-191.202	800.000	0.125	0.583
-190.187	-63.532	0.143	0.072
-189.173	-100.544	0.215	-0.065
-188.158	-79.009	0.377	0.158
-187.144	318.152	-0.143	-0.336
-186.129	-77.944	0.427	0.181
-185.114	135.144	0.242	0.391
-184.100	291.148	0.077	-0.174
-183.085	-200.000	-0.076	0.500
-182.071	-200.000	-0.022	0.305
-181.056	-200.000	-0.026	-0.168
-180.042	-200.000	0.004	-0.282
-179.027	56.801	0.431	0.520
-178.012	-36.805	-0.226	0.150
-176.998	180.390	-0.273	0.497
-175.983	-200.000	-0.020	0.209
-174.969	66.155	-0.210	0.264
-173.954	800.000	-0.052	0.254
-172.939	516.577	0.027	0.080
-171.925	-87.551	0.115	0.043
-170.910	-82.800	-0.101	0.040
-169.896	-77.751	0.229	0.098
-168.881	-83.140	0.453	-0.179
-167.866	122.648	-0.263	-0.408
-166.852	-200.000	-0.000	-0.019
-165.837	113.890	-0.328	0.494
-164.823	-168.706	0.047	-0.002
-163.808	-129.857	0.316	-0.053
-162.793	-73.528	0.313	0.141
-161.779	183.410	-0.078	-0.144
-160.764	68.189	0.373	0.473
-159.750	519.503	-0.122	0.356
-158.735	-124.327	0.411	0.079
-157.720	87.835	0.307	0.421
-156.706	-110.212	-0.361	0.093
-155.691	800.000	0.063	0.239
-154.677	46.802	-0.117	0.135
-153.662	-185.654	-0.167	-0.003
-152.647	49.377	0.152	0.177
-151.633	203.568	0.118	0.227
-150.618	-61.687	-0.104	0.054
-149.604	-35.275	-0.128	0.086
-148.589	-25.583	-0.230	-0.168
-147.574	-146.975	0.246	0.026
-146.560	202.419	-0.128	-0.244
-145.545	-134.053	-0.469	0.071
-144.531	800.000	-0.048	0.231
-143.516	800.000	-0.079	0.352
-142.502	262.573	0.111	-0.238
-141.487	148.684	-0.120	-0.201
-140.472	-35.961	-0.649	-0.433
-139.458	-171.240	-0.340	0.014
-138.443	-136.560	0.499	-0.071
-137.429	-133.555	-0.150	-0.023
-136.414	219.093	-0.076	0.151
-135.399	-5.201	0.214	0.182
-134.385	147.204	0.096	0.160
-133.370	-44.474	-0.278	0.171
-132.356	-200.000	-0.010	0.143
-131.341	800.000	-0.062	0.248
-130.326	17.427	-0.185	-0.181
-129.312	-13.253	0.240	-0.192
-128.297	214.918	-0.023	0.046
-127.283	228.201	-0.147	-0.296
-126.268	788.301	0.089	-0.303
-125.253	-153.493	-0.486	-0.041
-124.239	-71.859	-0.273	0.125
-123.224	64.279	-0.123	0.153
-122.210	174.133	0.179	-0.321
