DTS Sentinel unit serial number:	SN409020Multiplexer serial number:	ORYXHardware model number:	OX4-SRSoftware version number:	ORYX F/W v3.00 Oryx Data Collector v3.7.2.0data status	okinstallation	HaddamTimeLapsedifferential loss correction	single-endedforward channel	channel 3reverse channel	N/Adate	2011/06/22time	10:46:02forward acquisition time	30.00reverse acquisition time	0.00gamma	498.7831k internal	0.1785k external	0.1785temperature offset calibration	1.0074default loss term (dB/km)	0.3790temperature slope calibration	1.3530multiplexer offset coefficient	1.0000multiplexer slope coefficient	1.0000fibre end	0.00T internal ref (°C)	30.22T ext. ref 1 (°C)	24.93T ext. ref 2 (°C)	-0.09length (m)	temperature (°C)	Stokes	anti-Stokes-747.200	-27.044	-0.162	0.123
-746.185	17.898	-0.461	0.479
-745.171	-86.052	0.277	-0.111
-744.156	-33.098	-0.390	0.281
-743.142	-200.000	-0.042	-0.329
-742.127	535.713	-0.257	0.800
-741.112	72.264	-0.133	-0.181
-740.098	697.606	0.091	0.315
-739.083	318.472	0.057	-0.142
-738.069	48.985	0.237	0.290
-737.054	31.774	-0.395	-0.443
-736.039	-83.797	-0.441	-0.182
-735.025	101.520	0.147	-0.223
-734.010	29.445	-0.589	-0.652
-732.996	800.000	-0.060	-0.228
-731.981	-200.000	-0.005	0.406
-730.966	211.103	0.052	0.106
-729.952	-106.964	-0.238	0.068
-728.937	-144.975	0.031	-0.004
-727.923	81.477	-0.118	0.167
-726.908	21.071	0.286	-0.302
-725.894	-142.116	-0.185	-0.024
-724.879	39.684	-0.205	-0.239
-723.864	-200.000	0.271	0.001
-722.850	57.079	0.181	0.230
-721.835	-79.333	0.251	0.110
-720.821	-4.670	0.088	-0.079
-719.806	12.710	-0.459	0.461
-718.791	800.000	-0.097	0.493
-717.777	-177.801	-0.637	0.020
-716.762	46.267	-0.078	0.094
-715.748	-133.330	0.044	-0.007
-714.733	65.991	-0.324	0.428
-713.718	-137.320	-0.602	0.088
-712.704	458.108	-0.203	-0.589
-711.689	-52.008	0.081	0.049
-710.675	-50.405	0.356	0.218
-709.660	-94.611	-0.152	-0.053
-708.645	17.235	-0.264	-0.272
-707.631	-96.105	-0.476	0.164
-706.616	34.199	0.075	-0.085
-705.602	59.148	-0.214	-0.274
-704.587	-39.398	-0.217	0.148
-703.572	-132.735	-0.439	0.072
-702.558	-128.919	0.257	0.046
-701.543	800.000	0.068	0.261
-700.529	590.693	-0.172	-0.556
-699.514	112.376	-0.121	0.191
-698.499	-128.715	0.354	0.064
-697.485	-139.772	-0.139	-0.019
-696.470	259.299	0.027	-0.060
-695.456	-143.967	-0.413	-0.050
-694.441	-200.000	-0.061	-0.401
-693.426	700.646	-0.074	-0.255
-692.412	-84.679	0.259	-0.106
-691.397	172.815	0.083	0.157
-690.383	424.354	-0.110	0.309
-689.368	-101.420	0.324	-0.102
-688.354	570.859	0.185	0.590
-687.339	800.000	0.102	-0.473
-686.324	-99.491	-0.634	-0.206
-685.310	641.728	-0.085	0.283
-684.295	144.210	-0.108	0.189
-683.281	-67.286	-0.435	-0.221
-682.266	139.801	0.090	-0.154
-681.251	-53.642	-0.245	-0.145
-680.237	-166.967	-0.198	0.010
-679.222	-109.929	-0.132	-0.036
-678.208	-135.206	0.529	-0.082
-677.193	-14.822	-0.095	0.079
-676.178	71.126	-0.146	0.197
-675.164	-117.463	0.561	-0.131
-674.149	-39.974	-0.490	-0.332
-673.135	-93.249	-0.303	-0.109
-672.120	-136.757	-0.333	-0.049
-671.105	10.377	-0.226	-0.223
-670.091	-108.924	-0.224	-0.062
-669.076	-61.047	-0.384	-0.210
-668.062	633.835	0.089	-0.296
-667.047	336.476	-0.083	0.211
-666.032	168.739	0.151	-0.280
-665.018	521.011	0.090	0.277
-664.003	-200.000	-0.050	0.665
-662.989	-192.939	-0.217	0.002
-661.974	627.311	-0.215	0.710
-660.959	-200.000	0.010	0.084
-659.945	14.235	-0.063	0.064
-658.930	273.260	0.023	-0.053
-657.916	8.792	0.164	-0.161
-656.901	-114.086	0.644	-0.161
-655.886	-87.329	-0.412	-0.161
-654.872	-119.198	-0.414	-0.093
-653.857	-17.652	-0.414	-0.338
-652.843	-65.832	0.195	-0.101
-651.828	43.148	-0.304	-0.361
-650.814	-44.357	-0.314	0.204
-649.799	-41.983	0.088	0.058
-648.784	394.914	0.118	-0.320
-647.770	455.367	0.125	-0.362
-646.755	-69.829	0.029	0.015
-645.741	-43.555	-0.185	0.121
-644.726	193.477	-0.071	-0.140
-643.711	-145.914	0.368	-0.042
-642.697	-200.000	-0.045	0.292
-641.682	229.206	-0.173	0.367
-640.668	-200.000	-0.001	0.160
-639.653	315.997	0.070	-0.172
-638.638	352.180	-0.109	0.281
-637.624	-200.000	-0.008	-0.081
-636.609	38.508	-0.279	-0.323
-635.595	-200.000	0.023	-0.365
-634.580	637.593	0.149	-0.494
-633.565	-200.000	-0.015	-0.287
-632.551	-10.046	-0.024	0.021
-631.536	559.204	0.047	0.149
-630.522	-200.000	0.002	-0.109
-629.507	800.000	0.056	-0.271
-628.492	-60.718	0.183	-0.100
-627.478	119.237	-0.063	0.101
-626.463	150.746	-0.090	0.159
-625.449	36.541	-0.189	0.217
-624.434	-200.000	0.018	0.201
-623.419	30.819	-0.031	0.034
-622.405	-200.000	-0.032	0.579
-621.390	8.185	0.354	0.344
-620.376	-10.918	0.248	-0.212
-619.361	-200.000	0.015	0.154
-618.346	-200.000	-0.021	0.283
-617.332	-37.378	-0.109	0.076
-616.317	-94.028	-0.207	-0.073
-615.303	-110.622	-0.311	0.083
-614.288	-71.411	0.036	0.018
-613.273	-31.380	-0.437	0.318
-612.259	431.605	-0.138	0.390
-611.244	-140.065	0.666	-0.090
-610.230	800.000	-0.027	-0.102
-609.215	-200.000	-0.032	0.232
-608.201	800.000	0.090	0.353
-607.186	-10.922	0.145	0.124
-606.171	420.272	-0.170	0.475
-605.157	144.664	0.068	0.119
-604.142	444.311	0.146	0.417
-603.128	-130.166	-0.408	0.071
-602.113	-30.156	-0.384	-0.282
-601.098	123.023	0.141	0.230
-600.084	-134.419	-0.107	-0.017
-599.069	163.265	-0.189	-0.346
-598.055	64.008	0.102	-0.132
-597.040	-172.922	-0.263	0.010
-596.025	-108.826	0.457	0.126
-595.011	-30.176	-0.080	0.059
-593.996	705.387	-0.063	-0.216
-592.982	-103.655	-0.022	-0.007
-591.967	-31.029	-0.075	0.055
-590.952	-200.000	-0.036	0.487
-589.938	-200.000	-0.014	0.253
-588.923	-54.731	0.148	-0.086
-587.909	-174.405	0.396	0.015
-586.894	-61.001	-0.298	0.163
-585.879	4.386	0.248	0.235
-584.865	28.346	0.111	0.122
-583.850	800.000	-0.036	0.203
-582.836	-51.253	0.292	0.176
-581.821	-200.000	-0.035	0.353
-580.806	-200.000	-0.034	0.314
-579.792	9.517	-0.127	0.124
-578.777	-200.000	-0.004	0.493
-577.763	-90.788	-0.190	-0.071
-576.748	-118.914	0.517	-0.117
-575.733	-110.402	0.645	-0.172
-574.719	54.398	0.355	-0.443
-573.704	-88.185	-0.486	0.187
-572.690	-200.000	-0.002	0.133
-571.675	-99.376	-0.465	0.151
-570.661	-110.062	-0.467	-0.125
-569.646	18.073	0.457	0.471
-568.631	-133.220	-0.168	-0.027
-567.617	-118.224	0.053	-0.012
-566.602	-24.758	-0.192	0.148
-565.588	800.000	-0.064	-0.343
-564.573	-200.000	-0.138	0.828
-563.558	-89.441	0.493	0.187
-562.544	-83.395	0.375	-0.155
-561.529	118.376	-0.073	-0.117
-560.515	800.000	0.091	-0.344
-559.500	-53.871	0.176	-0.103
-558.485	-53.297	0.255	0.151
-557.471	-200.000	0.046	0.606
-556.456	-44.261	0.205	0.133
-555.442	-127.647	-0.511	0.095
-554.427	800.000	0.057	-0.211
-553.412	-1.823	-0.281	-0.255
-552.398	26.670	-0.294	0.318
-551.383	20.965	-0.182	-0.191
-550.369	405.850	-0.055	-0.150
-549.354	115.425	0.082	-0.129
-548.339	-123.645	-0.423	0.086
-547.325	459.028	-0.178	-0.516
-546.310	745.080	-0.167	-0.586
-545.296	35.222	-0.474	0.537
-544.281	-110.312	0.186	-0.050
-543.266	355.674	-0.101	-0.262
-542.252	-42.357	-0.165	0.109
-541.237	-200.000	0.007	-0.275
-540.223	-162.082	0.227	0.015
-539.208	-30.772	-0.200	-0.146
-538.193	94.368	0.101	-0.149
-537.179	-82.442	0.154	-0.064
-536.164	108.886	-0.071	0.111
-535.150	66.509	0.090	0.118
-534.135	-123.852	0.180	-0.036
-533.121	-128.652	-0.083	-0.015
-532.106	144.243	0.179	0.309
-531.091	372.537	0.185	0.488
-530.077	800.000	0.027	0.111
-529.062	43.712	-0.105	0.124
-528.048	-7.000	0.223	0.196
-527.033	-48.332	-0.277	0.172
-526.018	-104.874	-0.528	0.156
-525.004	81.364	-0.286	0.399
-523.989	-39.068	-0.280	0.190
-522.975	579.384	-0.068	-0.216
-521.960	-0.669	-0.304	0.278
-520.945	166.268	0.255	0.467
-519.931	-122.186	-0.408	0.085
-518.916	1.943	0.336	0.313
-517.902	-108.436	-0.069	-0.019
-516.887	68.105	-0.033	0.043
-515.872	-85.780	0.255	0.101
-514.858	-49.472	-0.286	-0.176
-513.843	-81.633	-0.261	0.110
-512.829	-101.421	-0.289	0.090
-511.814	258.636	-0.092	0.205
-510.799	126.690	-0.085	-0.139
-509.785	-178.267	0.243	-0.007
-508.770	-119.886	-0.646	-0.142
-507.756	647.780	0.145	-0.480
-506.741	31.148	0.226	0.250
-505.726	-25.075	-0.142	-0.109
-504.712	-69.661	0.083	0.041
-503.697	228.095	0.124	-0.262
-502.683	-7.013	-0.201	-0.176
-501.668	800.000	-0.116	-0.621
-500.653	36.172	-0.109	0.124
-499.639	-132.829	0.527	0.086
-498.624	9.131	-0.215	0.210
-497.610	-189.744	-0.227	-0.003
-496.595	254.235	-0.189	0.419
-495.581	29.070	0.300	0.329
-494.566	-86.908	-0.144	-0.056
-493.551	59.957	-0.083	-0.106
-492.537	132.996	0.156	0.261
-491.522	-9.175	0.384	-0.331
-490.508	436.141	0.062	-0.174
-489.493	225.178	-0.038	-0.079
-488.478	186.643	0.058	-0.112
-487.464	-200.000	-0.051	-0.381
-486.449	57.311	0.346	0.436
-485.435	715.033	0.137	-0.472
-484.420	-72.711	0.239	0.113
-483.405	-151.004	-0.335	0.032
-482.391	-122.911	0.257	-0.053
-481.376	74.241	0.045	0.061
-480.362	51.362	0.180	-0.221
-479.347	62.912	0.297	-0.383
-478.332	-163.906	-0.417	-0.025
-477.318	-111.244	0.249	0.065
-476.303	289.523	-0.086	0.201
-475.289	36.877	-0.318	0.362
-474.274	-89.676	-0.231	-0.087
-473.259	-95.738	0.345	0.118
-472.245	-151.223	0.301	-0.029
-471.230	-1.403	-0.037	0.034
-470.216	-152.022	-0.270	0.025
-469.201	5.617	0.524	0.499
-468.186	-90.658	0.198	-0.073
-467.172	71.482	-0.081	-0.109
-466.157	-87.861	0.059	-0.023
-465.143	40.803	0.065	-0.076
-464.128	-98.588	-0.513	-0.168
-463.113	-6.992	-0.128	-0.112
-462.099	76.474	-0.122	-0.166
-461.084	-168.039	-0.106	-0.005
-460.070	-89.823	0.265	-0.099
-459.055	-135.695	0.158	-0.024
-458.040	604.805	0.051	0.166
-457.026	-7.305	0.343	-0.299
-456.011	248.627	-0.141	-0.309
-454.997	-52.436	-0.353	0.210
-453.982	-60.630	-0.172	-0.094
-452.968	-130.285	0.028	-0.005
-451.953	-72.897	0.452	-0.213
-450.938	-200.000	0.001	-0.106
-449.924	129.286	0.141	-0.233
-448.909	606.570	-0.126	0.406
-447.895	-186.761	0.680	0.012
-446.880	-109.854	-0.153	-0.041
-445.865	-42.643	0.440	0.288
-444.851	-115.340	0.497	0.120
-443.836	494.201	0.070	0.207
-442.822	-128.844	-0.652	0.117
-441.807	-129.116	0.139	-0.025
-440.792	50.844	0.271	0.331
-439.778	-200.000	-0.044	0.466
-438.763	-42.586	0.547	-0.358
-437.749	-200.000	0.025	0.148
-436.734	-6.652	-0.042	0.036
-435.719	-37.115	0.340	0.234
-434.705	-124.190	0.315	-0.063
-433.690	-53.351	-0.044	-0.026
-432.676	-200.000	0.018	0.132
-431.661	5.166	-0.144	-0.136
-430.646	601.013	0.236	-0.758
-429.632	-121.758	-0.515	0.109
-428.617	-56.960	-0.423	0.239
-427.603	18.171	-0.296	0.304
-426.588	-130.817	-0.552	0.094
-425.573	-185.186	-0.370	0.007
-424.559	-20.304	0.393	0.311
-423.544	-83.761	0.109	-0.045
-422.530	196.695	0.085	-0.166
-421.515	-200.000	0.000	0.284
-420.500	-102.098	0.719	0.221
-419.486	-200.000	-0.024	-0.159
-418.471	-200.000	0.015	-0.153
-417.457	438.787	0.171	-0.483
-416.442	-99.470	-0.285	0.092
-415.428	-96.212	-0.293	-0.099
-414.413	-133.233	0.450	-0.072
-413.398	232.025	-0.172	-0.364
-412.384	67.041	0.218	-0.286
-411.369	800.000	0.054	0.303
-410.355	-25.275	-0.535	0.407
-409.340	-31.661	-0.310	-0.223
-408.325	63.594	0.301	-0.389
-407.311	-32.143	-0.413	0.297
-406.296	35.177	0.292	0.329
-405.282	74.650	0.456	-0.618
-404.267	-78.412	0.307	-0.135
-403.252	-200.000	-0.007	0.198
-402.238	800.000	0.039	0.138
-401.223	-47.915	0.371	-0.230
-400.209	73.959	0.228	-0.308
-399.194	-156.272	0.271	-0.022
-398.179	-3.014	-0.241	0.216
-397.165	-108.451	-0.081	-0.022
-396.150	-72.586	0.249	0.117
-395.136	262.401	-0.153	-0.342
-394.121	196.005	-0.155	-0.305
-393.106	800.000	-0.166	-0.599
-392.092	-108.359	0.570	0.157
-391.077	120.127	0.273	0.436
-390.063	33.736	-0.251	0.280
-389.048	144.114	-0.068	0.118
-388.033	-27.103	0.137	0.102
-387.019	-197.921	-0.463	0.003
-386.004	-113.917	-0.313	-0.077
-384.990	90.729	-0.037	0.054
-383.975	-132.967	-0.517	-0.084
-382.960	800.000	0.055	-0.257
-381.946	-174.656	0.105	-0.004
-380.931	240.220	-0.074	0.159
-379.917	-98.920	-0.594	-0.193
-378.902	20.468	0.277	-0.288
-377.888	-6.609	-0.533	-0.466
-376.873	25.681	0.298	0.319
-375.858	298.435	0.168	-0.399
-374.844	294.582	0.033	-0.078
-373.829	800.000	-0.096	-0.424
-372.815	-190.509	0.098	0.001
-371.800	-171.371	-0.343	-0.014
-370.785	-102.021	-0.154	-0.047
-369.771	31.319	-0.158	-0.174
-368.756	-179.437	0.244	0.007
-367.742	-200.000	-0.006	-0.112
-366.727	800.000	0.072	0.310
-365.712	-29.555	-0.444	0.325
-364.698	474.576	0.165	0.479
-363.683	-37.372	-0.430	0.294
-362.669	800.000	0.051	-0.260
-361.654	15.793	-0.305	0.308
-360.639	-200.000	-0.011	0.092
-359.625	-138.638	0.258	-0.036
-358.610	800.000	0.024	-0.093
-357.596	89.796	-0.414	0.595
-356.581	-141.846	-0.433	-0.055
-355.566	800.000	-0.090	-0.343
-354.552	-165.526	0.538	-0.030
-353.537	23.969	0.160	0.169
-352.523	4.367	-0.207	-0.195
-351.508	105.940	-0.078	-0.119
-350.493	63.463	0.184	-0.237
-349.479	-77.079	-0.092	-0.041
-348.464	356.144	0.171	0.438
-347.450	800.000	0.089	-0.347
-346.435	53.498	-0.329	-0.405
-345.420	-68.922	0.050	0.025
-344.406	273.277	0.137	-0.312
-343.391	49.475	-0.357	-0.431
-342.377	-32.383	0.209	-0.150
-341.362	-41.836	0.235	-0.154
-340.348	-112.687	-0.196	-0.050
-339.333	-200.000	-0.042	0.246
-338.318	705.388	-0.065	-0.222
-337.304	-98.590	0.234	-0.076
-336.289	77.051	0.219	0.299
-335.275	484.077	0.060	-0.176
-334.260	97.613	0.245	-0.361
-333.245	66.740	-0.142	-0.186
-332.231	-136.986	0.509	0.074
-331.216	-1.142	-0.271	-0.246
-330.202	-84.002	-0.349	-0.142
-329.187	-97.113	-0.346	-0.115
-328.172	-200.000	0.024	-0.282
-327.158	-49.140	-0.023	-0.014
-326.143	-9.842	-0.200	-0.170
-325.129	-57.267	0.231	0.130
-324.114	-74.367	0.579	0.267
-323.099	779.397	-0.056	-0.198
-322.085	-169.310	-0.387	0.018
-321.070	185.089	-0.202	0.386
-320.056	659.872	-0.072	-0.237
-319.041	-40.478	-0.055	0.036
-318.026	273.049	-0.039	-0.088
-317.012	-118.114	-0.114	-0.026
-315.997	17.702	0.219	-0.223
-314.983	127.056	0.150	0.244
-313.968	86.713	-0.195	-0.276
-312.953	-106.676	-0.212	-0.060
-311.939	-200.000	0.006	-0.305
-310.924	-200.000	0.216	0.000
-309.910	321.271	-0.142	0.347
-308.895	-95.757	-0.149	0.051
-307.880	465.484	-0.141	-0.407
-306.866	800.000	0.056	-0.271
-305.851	-4.690	-0.278	0.245
-304.837	34.366	-0.217	-0.243
-303.822	-75.082	0.239	0.109
-302.807	16.565	0.495	-0.501
-301.793	800.000	-0.141	-0.507
-300.778	-200.000	-0.022	-0.131
-299.764	-13.763	-0.471	-0.390
-298.749	230.432	0.154	-0.323
-297.735	-153.620	0.478	0.042
-296.720	-41.994	-0.634	-0.415
-295.705	-90.716	-0.152	0.056
-294.691	721.508	0.104	-0.355
-293.676	-36.245	0.269	-0.186
-292.662	-42.999	0.327	0.212
-291.647	-71.702	-0.943	-0.448
-290.632	800.000	-0.085	0.419
-289.618	-117.752	0.184	-0.042
-288.603	-114.164	-0.185	0.045
-287.589	800.000	0.023	0.088
-286.574	-116.041	0.315	-0.075
-285.559	-37.860	-0.267	-0.181
-284.545	388.936	0.139	0.369
-283.530	-72.924	-0.434	-0.203
-282.516	-35.240	-0.246	-0.171
-281.501	-200.000	-0.029	-0.378
-280.486	-200.000	0.017	0.387
-279.472	-147.126	-0.374	0.040
-278.457	-86.210	0.309	-0.121
-277.443	-98.250	0.468	-0.153
-276.428	-117.883	0.346	0.079
-275.413	45.374	-0.323	0.381
-274.399	-200.000	-0.011	-0.250
-273.384	-200.000	0.015	-0.195
-272.370	-84.222	0.182	-0.073
-271.355	-115.289	0.160	0.038
-270.340	583.018	-0.057	0.181
-269.326	-81.169	0.292	-0.123
-268.311	80.940	0.215	0.297
-267.297	-75.033	-0.245	0.112
-266.282	-107.933	-0.505	0.139
-265.267	266.214	0.134	0.301
-264.253	-122.140	-0.472	-0.098
-263.238	20.116	0.312	0.321
-262.224	800.000	-0.111	0.407
-261.209	-24.908	0.373	-0.283
-260.195	-118.478	0.312	0.070
-259.180	-200.000	0.022	0.199
-258.165	409.050	0.124	-0.336
-257.151	145.952	-0.044	0.075
-256.136	-92.289	0.350	-0.125
-255.122	18.474	-0.112	0.114
-254.107	-37.663	-0.206	-0.140
-253.092	-119.415	0.105	0.023
-252.078	3.280	0.249	-0.232
-251.063	-200.000	0.000	-0.211
-250.049	-8.327	-0.290	-0.249
-249.034	-65.740	0.503	-0.257
-248.019	-42.117	-0.181	-0.118
-247.005	192.449	0.189	-0.365
-245.990	-200.000	-0.062	0.417
-244.976	-175.066	0.061	-0.002
-243.961	-65.481	-0.376	0.192
-242.946	89.529	0.197	0.281
-241.932	249.100	0.045	0.098
-240.917	-43.134	-0.102	0.066
-239.903	473.698	0.096	0.279
-238.888	-58.195	0.090	-0.050
-237.873	800.000	-0.051	-0.198
-236.859	685.854	0.073	0.243
-235.844	-74.197	0.393	0.181
-234.830	-120.548	0.281	0.060
-233.815	-100.314	0.303	0.095
-232.800	164.561	-0.041	0.074
-231.786	800.000	0.116	-0.534
-230.771	0.409	0.297	-0.270
-229.757	83.888	-0.257	0.358
-228.742	-99.547	-0.152	-0.048
-227.727	-132.607	0.081	-0.013
-226.713	-84.482	0.245	-0.098
-225.698	458.339	-0.180	-0.515
-224.684	-148.750	0.245	0.025
-223.669	-26.057	-0.168	-0.126
-222.655	-123.411	-0.279	0.056
-221.640	-43.770	-0.269	-0.172
-220.625	129.013	0.028	-0.045
-219.611	-66.073	-0.187	0.095
-218.596	174.972	0.254	0.470
-217.582	-94.527	0.340	-0.118
-216.567	-56.851	0.148	0.083
-215.552	-74.155	0.558	0.257
-214.538	-200.000	-0.097	0.587
-213.523	-95.394	0.176	-0.060
-212.509	-200.000	-0.091	-0.531
-211.494	-21.320	0.287	0.223
-210.479	209.372	-0.141	0.283
-209.465	-12.523	0.089	0.074
-208.450	224.577	-0.033	0.068
-207.436	-98.253	0.492	-0.160
-206.421	70.691	0.289	-0.383
-205.406	800.000	-0.094	-0.337
-204.392	-175.302	-0.430	0.015
-203.377	244.474	0.244	0.524
-202.363	-31.535	-0.209	0.149
-201.348	23.167	-0.204	-0.213
-200.333	-71.377	0.332	0.158
-199.319	109.185	0.095	0.146
-198.304	-64.910	-0.165	0.085
-197.290	8.803	-0.323	0.310
-196.275	-200.000	0.023	0.268
-195.260	-200.000	-0.033	-0.258
-194.246	39.083	-0.131	0.149
-193.231	-124.512	-0.184	0.036
-192.217	-62.767	-0.135	-0.071
-191.202	-6.136	-0.097	-0.085
-190.187	-200.000	0.027	-0.220
-189.173	-115.016	-0.104	0.025
-188.158	244.158	0.184	-0.396
-187.144	122.963	-0.275	-0.440
-186.129	800.000	0.048	0.192
-185.114	-136.898	0.331	0.048
-184.100	-92.388	-0.481	-0.171
-183.085	-158.492	-0.360	0.026
-182.071	386.882	-0.083	-0.219
-181.056	424.852	0.090	0.247
-180.042	44.568	0.386	0.452
-179.027	-200.000	0.029	0.211
-178.012	-99.177	-0.281	-0.090
-176.998	-44.903	0.302	0.191
-175.983	48.685	0.180	0.215
-174.969	3.446	-0.227	0.211
-173.954	528.614	0.047	-0.143
-172.939	83.564	0.247	0.344
-171.925	-77.085	0.244	-0.108
-170.910	-135.734	-0.431	-0.064
-169.896	-14.071	0.168	-0.138
-168.881	95.625	-0.200	0.292
-167.866	3.075	0.155	0.144
-166.852	-72.771	-0.378	-0.176
-165.837	75.352	-0.215	-0.289
-164.823	800.000	0.076	-0.396
-163.808	-0.156	0.189	-0.171
-162.793	38.435	0.216	-0.245
-161.779	241.094	-0.251	-0.535
-160.764	66.261	0.277	-0.359
-159.750	-53.369	-0.031	-0.018
-158.735	-141.512	0.404	-0.051
-157.720	-86.888	0.021	0.008
-156.706	-68.605	0.124	0.061
-155.691	305.033	-0.113	0.268
-154.677	-65.710	-0.409	0.208
-153.662	227.322	-0.019	0.040
-152.647	550.645	0.062	0.190
-151.633	-8.227	0.104	0.089
-150.618	-164.496	-0.291	-0.017
-149.604	669.278	-0.078	-0.258
-148.589	28.145	0.333	-0.357
-147.574	800.000	0.011	0.057
-146.560	-160.098	0.364	-0.025
-145.545	-107.890	-0.164	0.045
-144.531	165.401	-0.041	-0.074
-143.516	9.624	-0.217	0.209
-142.502	800.000	0.090	-0.321
-141.487	-155.038	0.483	-0.040
-140.472	-200.000	0.023	0.218
-139.458	-55.182	0.293	0.167
-138.443	-61.789	0.435	0.231
-137.429	-175.113	-0.526	-0.018
-136.414	334.991	-0.096	-0.238
-135.399	-68.198	-0.235	0.116
-134.385	-187.802	-0.262	-0.004
-133.370	-40.302	-0.278	-0.183
-132.356	-92.687	-0.344	-0.122
-131.341	217.420	0.029	-0.060
-130.326	10.113	0.325	0.314
-129.312	-200.000	-0.011	0.228
-128.297	150.469	-0.226	0.391
-127.283	800.000	-0.061	0.236
-126.268	-4.690	0.128	-0.112
-125.253	1.625	0.373	0.341
-124.239	-125.132	-0.198	-0.038
-123.224	124.113	-0.247	-0.396
-122.210	-68.014	0.210	0.104
-121.195	66.562	-0.130	0.168
