DTS Sentinel unit serial number:	SN409020Multiplexer serial number:	ORYXHardware model number:	OX4-SRSoftware version number:	ORYX F/W v3.00 Oryx Data Collector v3.7.2.0data status	okinstallation	HaddamTimeLapsedifferential loss correction	single-endedforward channel	channel 3reverse channel	N/Adate	2011/06/21time	16:06:16forward acquisition time	30.00reverse acquisition time	0.00gamma	498.7831k internal	0.1794k external	0.1794temperature offset calibration	1.0074default loss term (dB/km)	0.3790temperature slope calibration	1.3530multiplexer offset coefficient	1.0000multiplexer slope coefficient	1.0000fibre end	0.00T internal ref (°C)	34.87T ext. ref 1 (°C)	26.65T ext. ref 2 (°C)	0.23length (m)	temperature (°C)	Stokes	anti-Stokes-747.200	-104.334	-0.082	-0.025
-746.185	152.734	0.042	0.075
-745.171	-200.000	-0.018	-0.525
-744.156	-200.000	0.014	0.156
-743.142	42.661	-0.173	-0.204
-742.127	429.002	0.143	0.402
-741.112	16.861	-0.182	0.187
-740.098	800.000	0.078	0.423
-739.083	114.503	0.049	0.078
-738.069	-200.000	-0.005	-0.195
-737.054	-191.540	0.377	-0.005
-736.039	-110.584	-0.317	0.084
-735.025	-67.800	-0.150	0.076
-734.010	418.467	0.081	-0.227
-732.996	800.000	0.024	-0.134
-731.981	255.963	-0.226	-0.503
-730.966	-200.000	-0.494	0.003
-729.952	-60.921	-0.070	-0.038
-728.937	-39.009	-0.298	0.203
-727.923	-74.475	-0.302	0.140
-726.908	60.322	-0.361	-0.463
-725.894	-60.470	-0.210	-0.115
-724.879	507.532	-0.020	-0.060
-723.864	-193.099	0.461	0.005
-722.850	-129.553	-0.533	-0.095
-721.835	-12.241	0.302	-0.256
-720.821	-200.000	0.013	0.189
-719.806	206.021	-0.053	0.108
-718.791	28.355	-0.255	-0.280
-717.777	-82.315	-0.662	-0.278
-716.762	-87.657	-0.589	-0.229
-715.748	-6.335	-0.273	-0.241
-714.733	-152.401	-0.253	-0.023
-713.718	14.480	-0.199	0.201
-712.704	-109.144	-0.316	-0.086
-711.689	-130.252	-0.577	0.101
-710.675	767.730	-0.088	-0.313
-709.660	-18.484	-0.166	-0.134
-708.645	-131.061	0.040	-0.007
-707.631	-57.633	-0.405	0.229
-706.616	-20.467	-0.450	0.358
-705.602	207.294	-0.088	-0.179
-704.587	-140.241	-0.367	0.049
-703.572	-51.330	-0.554	-0.334
-702.558	-71.084	-0.312	-0.151
-701.543	337.697	0.156	-0.393
-700.529	-105.926	-0.264	0.076
-699.514	-43.806	0.294	-0.191
-698.499	-72.392	-0.129	0.061
-697.485	-98.831	0.255	0.083
-696.470	800.000	0.046	0.253
-695.456	-200.000	-0.001	0.167
-694.441	800.000	-0.067	-0.355
-693.426	249.659	-0.118	-0.259
-692.412	7.212	0.246	-0.238
-691.397	43.409	0.062	0.074
-690.383	-200.000	-0.029	0.343
-689.368	-120.076	-0.409	0.090
-688.354	-200.000	0.062	-0.380
-687.339	-12.065	0.050	0.042
-686.324	263.805	0.286	-0.647
-685.310	-37.116	-0.319	0.220
-684.295	49.055	-0.113	0.137
-683.281	-153.362	0.485	0.043
-682.266	-200.000	0.051	0.346
-681.251	800.000	-0.051	-0.249
-680.237	117.975	-0.211	0.336
-679.222	793.002	0.072	0.258
-678.208	-200.000	-0.012	-0.432
-677.193	-20.710	-0.328	-0.260
-676.178	31.617	0.255	-0.284
-675.164	-44.418	0.240	-0.155
-674.149	-200.000	0.545	-0.003
-673.135	-98.877	0.210	0.068
-672.120	-200.000	0.017	-0.295
-671.105	-85.876	-0.418	-0.166
-670.091	-34.791	-0.129	-0.091
-669.076	-65.387	0.389	0.201
-668.062	280.489	0.088	-0.205
-667.047	-7.223	-0.204	0.179
-666.032	-27.044	0.179	0.135
-665.018	-55.908	0.462	-0.265
-664.003	-188.671	0.370	-0.006
-662.989	11.734	0.177	0.175
-661.974	-190.873	-0.173	0.002
-660.959	272.508	-0.282	-0.646
-659.945	-131.459	-0.520	0.088
-658.930	70.225	0.027	-0.035
-657.916	-67.063	-0.340	0.172
-656.901	-49.321	-0.576	-0.354
-655.886	-15.935	-0.168	-0.138
-654.872	-144.521	0.282	0.033
-653.857	-141.907	-0.151	0.019
-652.843	89.849	-0.258	0.373
-651.828	107.954	-0.139	-0.214
-650.814	-66.437	0.195	0.100
-649.799	-135.453	0.218	0.033
-648.784	-5.565	0.122	0.108
-647.770	800.000	0.038	0.168
-646.755	-91.667	-0.486	0.177
-645.741	-149.317	0.131	-0.013
-644.726	-158.555	0.423	0.031
-643.711	25.550	0.256	-0.275
-642.697	-130.129	-0.252	0.044
-641.682	-200.000	-0.038	0.233
-640.668	-10.418	-0.324	-0.277
-639.653	-99.782	0.105	0.034
-638.638	-187.330	-0.439	-0.007
-637.624	-144.779	0.268	-0.031
-636.609	43.737	0.075	0.089
-635.595	800.000	0.090	0.337
-634.580	-200.000	-0.074	0.523
-633.565	1.672	-0.312	-0.290
-632.551	754.841	-0.019	0.068
-631.536	-181.729	-0.338	-0.008
-630.522	0.002	-0.096	0.088
-629.507	56.185	-0.039	0.049
-628.492	-24.963	0.060	0.046
-627.478	72.675	0.161	0.217
-626.463	-61.804	0.322	0.173
-625.449	-130.840	0.243	0.042
-624.434	-102.009	0.219	-0.068
-623.419	-87.951	-0.136	-0.052
-622.405	-66.824	0.232	0.118
-621.390	-200.000	0.017	0.133
-620.376	5.745	0.500	0.477
-619.361	605.310	-0.040	-0.128
-618.346	-55.873	-0.332	-0.191
-617.332	-200.000	-0.046	-0.287
-616.317	158.200	-0.100	0.179
-615.303	-200.000	0.051	-0.514
-614.288	-95.111	0.279	0.097
-613.273	-200.000	0.023	-0.318
-612.259	146.972	0.140	-0.244
-611.244	-133.538	-0.175	-0.028
-610.230	-48.575	-0.177	-0.109
-609.215	597.899	-0.023	-0.073
-608.201	800.000	-0.081	-0.400
-607.186	10.477	0.338	0.332
-606.171	-146.489	0.377	0.042
-605.157	-131.039	-0.205	-0.035
-604.142	-85.881	-0.471	-0.187
-603.128	-94.361	-0.357	-0.125
-602.113	96.543	-0.189	0.279
-601.098	-110.654	0.422	-0.112
-600.084	30.126	0.296	-0.326
-599.069	-68.835	0.038	-0.019
-598.055	-49.548	-0.283	-0.173
-597.040	-61.933	0.355	-0.191
-596.025	-87.179	0.088	-0.034
-595.011	800.000	0.142	-0.584
-593.996	91.015	0.065	-0.094
-592.982	43.891	-0.093	-0.109
-591.967	800.000	0.097	0.374
-590.952	-200.000	0.047	0.426
-589.938	-25.986	0.274	0.207
-588.923	77.591	-0.165	-0.226
-587.909	143.292	0.251	0.432
-586.894	135.689	-0.087	0.146
-585.879	-38.265	0.193	-0.131
-584.865	-108.850	0.245	-0.067
-583.850	-72.922	-0.539	-0.254
-582.836	196.315	0.164	0.323
-581.821	-0.549	-0.147	0.135
-580.806	-28.704	-0.447	-0.331
-579.792	17.351	-0.224	0.229
-578.777	572.440	0.184	0.582
-577.763	-189.321	0.339	-0.005
-576.748	548.472	-0.090	-0.278
-575.733	177.416	0.092	0.173
-574.719	43.422	-0.333	0.392
-573.704	-124.756	-0.121	0.024
-572.690	-200.000	-0.053	-0.522
-571.675	-38.329	0.060	-0.041
-570.661	104.063	-0.038	-0.057
-569.646	-3.156	0.272	0.244
-568.631	-57.811	-0.451	-0.253
-567.617	-200.000	-0.004	0.112
-566.602	130.369	0.097	0.160
-565.588	323.191	0.108	0.267
-564.573	-57.143	-0.140	-0.079
-563.558	293.447	-0.106	-0.250
-562.544	49.044	0.375	-0.454
-561.529	-200.000	-0.001	-0.196
-560.515	82.966	-0.161	-0.226
-559.500	310.629	-0.304	-0.736
-558.485	539.936	-0.104	-0.320
-557.471	21.337	-0.136	-0.142
-556.456	-70.175	-0.156	0.076
-555.442	70.028	-0.206	0.273
-554.427	-81.166	0.370	0.157
-553.412	-200.000	0.051	-0.461
-552.398	14.789	-0.433	-0.435
-551.383	-124.322	0.257	-0.051
-550.369	28.427	-0.137	-0.149
-549.354	-0.211	-0.080	0.073
-548.339	-14.392	-0.253	0.209
-547.325	-75.568	-0.229	-0.104
-546.310	-133.425	0.142	-0.023
-545.296	-158.657	-0.317	-0.023
-544.281	-200.000	0.027	-0.159
-543.266	-98.818	-0.449	0.146
-542.252	-146.526	-0.513	0.057
-541.237	225.009	-0.248	0.519
-540.223	-113.049	-0.411	0.104
-539.208	-73.271	0.180	-0.084
-538.193	-54.119	-0.339	0.198
-537.179	-200.000	0.014	0.214
-536.164	66.934	-0.073	0.096
-535.150	800.000	0.098	-0.350
-534.135	800.000	-0.077	0.310
-533.121	-127.956	0.339	-0.062
-532.106	24.888	0.309	0.330
-531.091	800.000	0.131	0.621
-530.077	-200.000	-0.066	0.541
-529.062	210.820	-0.144	0.292
-528.048	748.241	0.058	-0.202
-527.033	230.130	-0.199	0.421
-526.018	-106.054	0.213	0.061
-525.004	238.280	0.208	-0.446
-523.989	-147.037	0.300	0.033
-522.975	-51.804	-0.078	0.046
-521.960	-200.000	0.061	-0.454
-520.945	-126.429	-0.237	0.045
-519.931	86.220	-0.069	-0.098
-518.916	-112.873	-0.454	0.115
-517.902	-70.822	0.129	0.062
-516.887	-114.368	-0.264	-0.065
-515.872	-105.456	-0.471	-0.137
-514.858	49.544	-0.220	0.267
-513.843	-135.679	-0.363	-0.055
-512.829	-152.272	0.362	0.033
-511.814	87.305	0.138	0.197
-510.799	-19.424	0.381	0.303
-509.785	-137.095	0.389	-0.056
-508.770	-45.128	0.279	-0.177
-507.756	146.065	0.306	-0.528
-506.741	-97.777	0.344	0.114
-505.726	84.194	-0.370	0.521
-504.712	-200.000	-0.027	0.228
-503.697	7.610	-0.143	0.137
-502.683	-200.000	-0.005	0.161
-501.668	-172.807	-0.356	-0.014
-500.653	-105.662	0.460	-0.133
-499.639	41.949	0.506	0.590
-498.624	800.000	0.081	-0.403
-497.610	288.998	-0.185	-0.432
-496.595	-43.348	-0.480	-0.311
-495.581	143.795	0.282	-0.484
-494.566	-9.928	-0.134	-0.114
-493.551	-41.030	0.111	0.073
-492.537	-9.805	-0.223	0.191
-491.522	12.917	0.126	-0.126
-490.508	117.953	-0.229	-0.362
-489.493	-23.529	-0.156	-0.120
-488.478	144.663	0.198	0.340
-487.464	222.933	0.127	-0.263
-486.449	182.601	-0.138	0.263
-485.435	-119.202	0.237	-0.053
-484.420	-85.201	-0.392	-0.157
-483.405	-200.000	-0.008	0.087
-482.391	-83.662	0.400	0.163
-481.376	-57.307	0.344	-0.194
-480.362	800.000	0.049	-0.278
-479.347	220.963	0.077	0.159
-478.332	800.000	-0.010	-0.040
-477.318	-56.861	-0.405	0.229
-476.303	355.692	-0.110	-0.282
-475.289	-53.845	-0.237	0.138
-474.274	2.890	0.176	0.163
-473.259	-63.135	0.099	0.052
-472.245	95.202	0.068	-0.099
-471.230	800.000	-0.096	0.464
-470.216	-13.118	-0.331	0.276
-469.201	11.632	0.140	-0.138
-468.186	-200.000	-0.012	-0.179
-467.172	138.872	-0.143	0.242
-466.157	-57.888	0.060	0.034
-465.143	-200.000	0.024	-0.318
-464.128	-141.413	-0.233	-0.030
-463.113	-200.000	0.019	0.449
-462.099	-200.000	0.021	-0.443
-461.084	17.644	-0.117	-0.119
-460.070	-119.789	-0.311	-0.068
-459.055	0.354	0.286	-0.262
-458.040	333.666	-0.096	0.240
-457.026	62.144	0.027	0.034
-456.011	-171.906	0.315	-0.013
-454.997	-111.630	-0.149	-0.038
-453.982	-117.725	0.166	0.038
-452.968	-193.266	0.419	-0.005
-451.953	-82.042	0.390	-0.163
-450.938	-138.259	-0.346	0.049
-449.924	-29.527	-0.086	-0.063
-448.909	-17.033	-0.222	-0.180
-447.895	23.152	-0.154	-0.162
-446.880	453.751	0.057	-0.164
-445.865	-183.308	0.273	-0.006
-444.851	-9.252	-0.354	-0.303
-443.836	-1.397	0.172	-0.156
-442.822	-1.372	0.309	0.280
-441.807	124.734	-0.135	-0.219
-440.792	800.000	-0.040	0.172
-439.778	-200.000	0.008	-0.309
-438.763	138.490	-0.152	-0.256
-437.749	-129.216	0.642	0.114
-436.734	-200.000	-0.006	0.163
-435.719	171.671	-0.131	0.241
-434.705	-43.882	-0.217	0.140
-433.690	9.906	-0.277	0.269
-432.676	-161.434	0.660	0.043
-431.661	-166.586	0.425	0.022
-430.646	105.382	-0.125	-0.189
-429.632	-64.904	0.169	0.087
-428.617	-142.806	-0.215	-0.027
-427.603	2.743	-0.616	-0.571
-426.588	9.713	0.262	-0.254
-425.573	-100.555	-0.182	0.057
-424.559	-53.270	0.313	0.183
-423.544	-30.114	0.401	0.292
-422.530	-128.813	0.255	-0.046
-421.515	-115.838	0.288	-0.068
-420.500	124.155	-0.054	-0.087
-419.486	544.423	-0.090	0.275
-418.471	-200.000	-0.008	0.110
-417.457	-52.787	-0.389	0.229
-416.442	-200.000	-0.040	-0.265
-415.428	46.873	-0.152	-0.181
-414.413	639.647	0.185	-0.606
-413.398	158.611	-0.017	-0.030
-412.384	47.081	0.281	-0.335
-411.369	-41.002	0.305	0.201
-410.355	-200.000	0.035	0.553
-409.340	45.375	0.272	0.322
-408.325	506.500	0.065	0.194
-407.311	-53.900	-0.424	0.247
-406.296	216.557	0.176	-0.360
-405.282	-110.315	0.223	-0.059
-404.267	35.895	0.160	0.180
-403.252	4.539	0.026	-0.024
-402.238	42.838	-0.203	0.237
-401.223	-200.000	-0.023	-0.647
-400.209	-100.035	0.188	0.060
-399.194	800.000	0.056	-0.219
-398.179	-17.202	0.366	0.295
-397.165	-200.000	0.107	0.635
-396.150	704.935	-0.087	0.294
-395.136	-134.730	-0.323	0.050
-394.121	120.636	0.206	0.328
-393.106	-33.618	0.666	-0.469
-392.092	396.396	-0.057	-0.153
-391.077	559.790	0.078	-0.241
-390.063	304.439	-0.136	-0.325
-389.048	38.812	-0.225	0.258
-388.033	-57.151	0.164	0.092
-387.019	-158.219	-0.477	0.035
-386.004	-81.621	-0.226	-0.094
-384.990	-99.670	-0.576	0.184
-383.975	97.031	-0.092	-0.136
-382.960	-81.973	-0.255	0.106
-381.946	-142.539	-0.390	0.048
-380.931	103.865	0.231	0.347
-379.917	-169.003	0.827	0.039
-378.902	-26.447	-0.194	0.145
-377.888	18.957	-0.217	-0.222
-376.873	174.162	-0.143	-0.264
-375.858	-46.777	0.321	-0.200
-374.844	-39.472	-0.213	-0.142
-373.829	313.771	0.185	-0.447
-372.815	-52.426	0.261	0.154
-371.800	54.089	-0.283	-0.348
-370.785	628.522	-0.051	-0.167
-369.771	632.325	0.032	0.106
-368.756	135.958	0.156	-0.260
-367.742	-200.000	-0.021	0.000
-366.727	-18.429	0.420	0.334
-365.712	-108.614	-0.325	-0.089
-364.698	-91.398	0.458	0.166
-363.683	-163.655	0.067	-0.004
-362.669	-141.164	0.325	-0.042
-361.654	5.549	0.274	0.258
-360.639	76.196	-0.236	0.319
-359.625	-99.628	-0.598	-0.190
-358.610	-200.000	0.023	-0.196
-357.596	-73.378	-0.204	0.095
-356.581	-1.973	-0.213	-0.191
-355.566	172.249	0.244	-0.450
-354.552	765.853	-0.043	-0.151
-353.537	139.932	-0.309	0.522
-352.523	-63.455	-0.087	-0.045
-351.508	44.578	0.199	0.233
-350.493	800.000	0.068	0.283
-349.479	-27.549	-0.246	-0.182
-348.464	56.392	-0.262	0.325
-347.450	35.908	-0.055	0.061
-346.435	129.905	0.102	0.168
-345.420	-141.162	0.164	0.021
-344.406	-8.374	0.052	0.044
-343.391	-162.120	-0.086	0.005
-342.377	-110.535	0.438	-0.115
-341.362	70.928	-0.435	0.576
-340.348	-164.154	-0.376	-0.022
-339.333	15.456	-0.084	0.084
-338.318	-87.893	-0.058	-0.022
-337.304	-52.103	-0.383	-0.226
-336.289	-0.090	0.025	-0.022
-335.275	-79.463	0.218	-0.094
-334.260	311.932	-0.242	-0.583
-333.245	-77.566	-0.132	0.058
-332.231	-119.949	0.224	-0.049
-331.216	319.720	-0.126	-0.306
-330.202	-8.612	0.190	0.163
-329.187	-127.109	0.454	-0.084
-328.172	34.718	0.337	-0.375
-327.158	117.451	-0.451	-0.709
-326.143	31.933	-0.289	0.317
-325.129	-200.000	0.287	-0.001
-324.114	-134.643	0.204	0.031
-323.099	800.000	0.081	0.434
-322.085	-200.000	-0.021	-0.251
-321.070	13.297	-0.249	-0.246
-320.056	-118.802	0.515	-0.115
-319.041	-4.911	0.280	0.246
-318.026	-172.743	-0.170	0.007
-317.012	-11.936	-0.330	0.276
-315.997	-158.207	-0.138	0.010
-314.983	-43.342	-0.159	-0.102
-313.968	-160.861	0.530	-0.035
-312.953	20.920	-0.340	0.352
-311.939	-200.000	-0.002	0.215
-310.924	-60.385	-0.065	0.035
-309.910	-17.177	0.201	0.161
-308.895	49.958	-0.135	-0.163
-307.880	-200.000	-0.014	0.157
-306.866	-165.042	0.451	0.025
-305.851	174.410	-0.042	-0.078
-304.837	-200.000	0.008	0.255
-303.822	-15.121	-0.207	0.169
-302.807	-96.802	0.106	-0.035
-301.793	-109.190	-0.296	0.079
-300.778	-200.000	-0.035	0.432
-299.764	256.523	0.116	0.254
-298.749	-200.000	0.005	0.143
-297.735	-67.926	0.338	-0.167
-296.720	-99.921	0.554	-0.175
-295.705	318.466	0.209	-0.506
-294.691	-114.709	-0.176	0.042
-293.676	-134.606	-0.369	0.057
-292.662	-53.824	0.220	0.128
-291.647	111.154	0.237	0.365
-290.632	108.511	-0.093	-0.141
-289.618	-46.282	0.384	-0.240
-288.603	143.332	0.166	0.282
-287.589	-69.001	-0.442	-0.216
-286.574	800.000	-0.048	0.236
-285.559	69.112	0.263	-0.345
-284.545	-67.828	-0.100	-0.050
-283.530	75.239	-0.047	0.063
-282.516	800.000	-0.098	-0.434
-281.501	38.395	0.159	0.180
-280.486	-22.726	-0.213	0.164
-279.472	-118.091	0.081	-0.018
-278.457	-38.743	-0.296	0.198
-277.443	5.437	-0.276	0.259
-276.428	77.830	0.237	-0.322
-275.413	-87.071	0.336	0.129
-274.399	531.762	-0.124	0.375
-273.384	-152.991	-0.228	0.020
-272.370	-200.000	-0.007	0.158
-271.355	-63.725	-0.230	-0.120
-270.340	-35.872	0.239	-0.164
-269.326	-20.173	-0.362	-0.284
-268.311	10.908	-0.343	-0.334
-267.297	-200.000	-0.009	0.116
-266.282	-156.627	-0.047	-0.004
-265.267	-38.010	0.101	-0.068
-264.253	-106.266	-0.734	-0.208
-263.238	-76.313	-0.319	-0.143
-262.224	119.275	-0.042	-0.067
-261.209	212.317	-0.221	-0.445
-260.195	-29.525	0.304	-0.221
-259.180	-21.481	0.153	-0.118
-258.165	376.131	-0.225	0.588
-257.151	-99.855	0.233	0.074
-256.136	800.000	-0.037	0.208
-255.122	-56.419	-0.152	-0.086
-254.107	-159.379	0.364	0.026
-253.092	-200.000	0.023	0.357
-252.078	-76.912	0.367	0.162
-251.063	-137.904	-0.259	-0.036
-250.049	337.213	-0.082	-0.204
-249.034	-200.000	0.008	-0.205
-248.019	-171.802	-0.193	0.008
-247.005	-102.649	-0.511	0.154
-245.990	-148.012	0.282	-0.029
-244.976	15.265	0.462	0.460
-243.961	108.792	0.287	0.437
-242.946	96.937	0.053	0.077
-241.932	-200.000	-0.010	-0.167
-240.917	-25.649	-0.560	0.420
-239.903	-142.766	0.359	0.044
-238.888	12.805	-0.039	-0.038
-237.873	284.169	0.161	-0.369
-236.859	-16.142	-0.037	-0.030
-235.844	-13.872	-0.314	0.258
-234.830	27.658	-0.218	-0.233
-233.815	317.812	-0.228	0.551
-232.800	-50.690	-0.366	0.219
-231.786	119.786	0.078	0.123
-230.771	40.212	-0.209	0.239
-229.757	-200.000	0.002	0.107
-228.742	-200.000	0.010	0.481
-227.727	103.266	-0.047	-0.070
-226.713	800.000	0.041	-0.209
-225.698	-144.833	0.167	0.019
-224.684	116.989	-0.348	-0.544
-223.669	-68.063	-0.234	-0.116
-222.655	-8.481	0.357	0.304
-221.640	199.759	-0.089	-0.175
-220.625	-158.364	0.040	-0.003
-219.611	-200.000	0.005	-0.076
-218.596	-52.760	-0.196	-0.115
-217.582	-21.313	-0.121	0.094
-216.567	-12.627	-0.153	-0.127
-215.552	-68.309	0.437	0.215
-214.538	-200.000	-0.001	0.368
-213.523	199.797	-0.323	0.632
-212.509	-27.612	0.387	-0.285
-211.494	104.063	0.229	-0.342
-210.479	-149.712	-0.248	-0.024
-209.465	-200.000	0.015	-0.114
-208.450	-115.301	0.274	0.065
-207.436	110.868	0.097	-0.148
-206.421	-200.000	0.045	-0.366
-205.406	-59.652	-0.112	0.061
-204.392	292.177	0.107	-0.249
-203.377	-16.267	-0.321	-0.258
-202.363	117.596	0.381	-0.596
-201.348	-200.000	0.312	0.002
-200.333	-134.684	0.491	0.075
-199.319	-200.000	0.029	-0.488
-198.304	-21.725	0.303	-0.233
-197.290	-51.086	0.145	-0.086
-196.275	800.000	0.039	0.221
-195.260	283.062	-0.198	0.454
-194.246	-200.000	-0.017	-0.501
-193.231	55.389	-0.275	-0.338
-192.217	395.144	-0.148	-0.394
-191.202	-117.989	-0.423	0.095
-190.187	-117.945	0.141	0.032
-189.173	-200.000	0.001	0.288
-188.158	800.000	-0.044	0.202
-187.144	-2.199	-0.199	0.177
-186.129	-141.287	-0.158	-0.020
-185.114	4.633	0.428	-0.399
-184.100	800.000	-0.065	0.242
-183.085	-100.600	0.217	-0.068
-182.071	-38.503	0.435	0.291
-181.056	-51.654	-0.056	0.033
-180.042	-151.036	-0.401	0.038
-179.027	-200.000	0.006	-0.152
-178.012	346.458	0.247	-0.618
-176.998	286.448	-0.069	-0.158
-175.983	-68.634	-0.653	-0.319
-174.969	-89.959	-0.314	-0.115
-173.954	150.981	-0.219	-0.378
-172.939	800.000	0.100	0.430
-171.925	-101.969	0.422	0.128
-170.910	6.061	0.081	0.076
-169.896	-200.000	0.053	-0.326
-168.881	-95.470	0.712	0.241
-167.866	128.034	-0.196	-0.317
-166.852	572.144	-0.040	-0.125
-165.837	-142.454	0.340	0.042
-164.823	280.948	0.154	0.351
-163.808	382.359	-0.061	0.159
-162.793	299.500	0.181	0.425
-161.779	-106.953	0.266	-0.074
-160.764	-23.381	0.208	0.158
-159.750	59.182	0.070	0.088
-158.735	-101.813	-0.168	0.051
-157.720	-84.821	-0.177	0.070
-156.706	-23.358	0.260	-0.198
-155.691	-200.000	-0.020	0.582
-154.677	144.940	-0.108	0.183
-153.662	-21.083	-0.157	-0.121
-152.647	-85.257	-0.224	0.088
-151.633	-119.086	0.321	0.071
-150.618	-48.567	-0.405	0.246
-149.604	-173.772	-0.251	0.009
-148.589	-116.812	0.359	-0.083
-147.574	-140.811	-0.154	-0.020
-146.560	3.485	-0.132	0.122
-145.545	79.295	-0.238	-0.323
-144.531	268.776	0.094	-0.210
-143.516	800.000	0.075	0.350
-142.502	799.522	-0.064	-0.226
-141.487	158.315	-0.085	-0.150
-140.472	432.814	0.059	0.163
-139.458	-200.000	0.018	-0.182
-138.443	11.530	-0.196	0.190
-137.429	52.834	0.167	-0.202
-136.414	-58.366	0.264	-0.145
-135.399	-162.246	0.427	-0.027
-134.385	155.521	-0.168	0.294
-133.370	437.289	0.062	-0.171
-132.356	19.281	0.303	0.308
-131.341	800.000	-0.093	-0.481
-130.326	118.729	-0.171	0.268
-129.312	-99.609	-0.199	-0.063
-128.297	80.116	0.227	0.310
-127.283	-153.275	-0.318	0.028
-126.268	-189.767	0.408	0.006
-125.253	-200.000	0.035	-0.451
-124.239	69.770	-0.118	0.154
-123.224	800.000	0.047	-0.187
-122.210	41.643	0.248	0.284
