DTS Sentinel unit serial number:	SN409020Multiplexer serial number:	ORYXHardware model number:	OX4-SRSoftware version number:	ORYX F/W v3.00 Oryx Data Collector v3.7.2.0data status	okinstallation	HaddamTimeLapsedifferential loss correction	single-endedforward channel	channel 3reverse channel	N/Adate	2011/06/22time	08:56:17forward acquisition time	30.00reverse acquisition time	0.00gamma	498.7831k internal	0.1796k external	0.1796temperature offset calibration	1.0074default loss term (dB/km)	0.3790temperature slope calibration	1.3530multiplexer offset coefficient	1.0000multiplexer slope coefficient	1.0000fibre end	0.00T internal ref (°C)	27.31T ext. ref 1 (°C)	24.67T ext. ref 2 (°C)	0.18length (m)	temperature (°C)	Stokes	anti-Stokes-747.200	800.000	0.046	0.230
-746.185	-200.000	-0.081	0.558
-745.171	-97.082	-0.321	-0.108
-744.156	-87.432	0.418	0.163
-743.142	-0.977	0.177	-0.162
-742.127	-70.781	0.167	-0.081
-741.112	-88.855	-0.097	0.037
-740.098	96.401	-0.304	0.450
-739.083	-5.155	-0.259	-0.231
-738.069	-2.416	-0.452	0.410
-737.054	33.928	0.205	0.232
-736.039	-200.000	-0.015	-0.462
-735.025	-47.513	-0.212	0.133
-734.010	-71.155	-0.113	-0.055
-732.996	-128.035	-0.487	-0.090
-731.981	800.000	-0.075	-0.273
-730.966	-14.380	0.171	0.142
-729.952	-48.025	-0.126	0.079
-728.937	-188.864	-0.484	0.007
-727.923	-200.000	0.003	0.176
-726.908	-54.322	0.151	0.088
-725.894	400.042	-0.209	-0.570
-724.879	-99.375	0.255	0.083
-723.864	400.475	-0.095	-0.259
-722.850	-200.000	0.059	-0.584
-721.835	49.223	0.189	-0.230
-720.821	-1.725	0.309	-0.281
-719.806	-170.220	0.106	-0.005
-718.791	-64.010	-0.460	0.242
-717.777	146.722	-0.075	0.130
-716.762	800.000	-0.029	-0.131
-715.748	-200.000	-0.076	-0.519
-714.733	84.990	0.314	-0.446
-713.718	208.182	-0.187	-0.379
-712.704	-53.763	-0.291	-0.171
-711.689	-84.340	-0.270	-0.110
-710.675	-73.036	-0.412	0.195
-709.660	265.951	0.045	-0.102
-708.645	-94.127	-0.112	-0.039
-707.631	-200.000	-0.000	0.489
-706.616	800.000	0.024	0.093
-705.602	-83.951	0.148	0.061
-704.587	-154.818	-0.556	-0.047
-703.572	310.875	-0.094	-0.229
-702.558	8.008	-0.041	-0.040
-701.543	-28.375	-0.287	-0.214
-700.529	800.000	-0.039	-0.168
-699.514	-12.916	-0.318	-0.267
-698.499	529.937	0.039	-0.119
-697.485	-108.303	-0.185	0.051
-696.470	248.807	-0.114	-0.250
-695.456	-169.412	-0.180	-0.008
-694.441	-183.598	-0.384	-0.008
-693.426	8.497	-0.197	-0.192
-692.412	77.687	0.141	0.194
-691.397	143.248	0.026	0.045
-690.383	-60.989	-0.209	-0.114
-689.368	800.000	0.066	-0.365
-688.354	800.000	0.110	0.488
-687.339	279.624	-0.143	0.331
-686.324	647.505	-0.034	0.114
-685.310	-69.560	-0.211	0.104
-684.295	-160.334	0.107	-0.007
-683.281	123.598	-0.143	-0.233
-682.266	-154.533	-0.624	-0.053
-681.251	191.550	-0.175	-0.341
-680.237	246.757	-0.029	0.064
-679.222	800.000	0.090	0.472
-678.208	-89.980	0.073	0.027
-677.193	-136.817	0.244	-0.036
-676.178	-200.000	-0.004	0.083
-675.164	-110.746	-0.122	-0.032
-674.149	-4.313	-0.080	0.072
-673.135	3.412	0.289	-0.271
-672.120	142.765	0.144	-0.248
-671.105	282.032	0.054	-0.125
-670.091	3.590	-0.086	-0.081
-669.076	-44.801	0.402	-0.258
-668.062	-9.705	0.083	0.072
-667.047	110.094	-0.053	-0.082
-666.032	-200.000	-0.007	-0.251
-665.018	-182.634	0.664	0.015
-664.003	105.266	0.194	0.296
-662.989	18.102	-0.461	-0.474
-661.974	-45.971	0.095	0.060
-660.959	-161.730	-0.302	0.020
-659.945	-69.272	-0.339	0.167
-658.930	-68.952	-0.152	-0.075
-657.916	-200.000	-0.046	0.382
-656.901	-103.343	0.299	0.090
-655.886	-159.474	-0.269	-0.019
-654.872	-51.036	0.237	0.143
-653.857	-16.263	-0.275	-0.225
-652.843	-89.972	-0.343	-0.128
-651.828	-200.000	-0.026	-0.327
-650.814	-200.000	0.035	-0.260
-649.799	23.260	-0.274	-0.291
-648.784	-81.768	-0.561	-0.236
-647.770	-69.449	0.446	-0.220
-646.755	-200.000	0.015	0.403
-645.741	800.000	0.084	-0.440
-644.726	-110.973	0.078	-0.020
-643.711	8.929	-0.191	-0.185
-642.697	-68.107	0.482	0.241
-641.682	-200.000	-0.072	-0.519
-640.668	-75.034	-0.324	-0.149
-639.653	297.663	0.243	0.577
-638.638	-200.000	0.020	-0.349
-637.624	-48.691	0.338	-0.209
-636.609	-28.865	-0.219	0.162
-635.595	-142.612	-0.540	0.067
-634.580	-44.278	-0.036	0.023
-633.565	79.256	-0.246	-0.341
-632.551	-155.200	-0.329	0.027
-631.536	800.000	-0.200	-0.724
-630.522	-88.692	0.285	-0.109
-629.507	-77.695	-0.409	0.181
-628.492	82.361	0.227	0.318
-627.478	-119.694	0.101	0.022
-626.463	-109.637	-0.103	0.028
-625.449	-180.917	-0.060	0.002
-624.434	125.907	0.241	-0.392
-623.419	-146.374	-0.167	0.019
-622.405	3.358	-0.182	-0.171
-621.390	108.463	0.140	-0.216
-620.376	70.853	0.133	0.177
-619.361	-161.239	-0.226	-0.015
-618.346	-78.102	0.180	-0.080
-617.332	-131.837	-0.199	0.033
-616.317	160.611	0.055	0.099
-615.303	106.443	0.167	0.256
-614.288	133.950	-0.001	-0.002
-613.273	-22.478	0.207	0.161
-612.259	576.107	-0.158	0.501
-611.244	230.268	0.114	0.240
-610.230	-20.208	0.171	0.135
-609.215	-11.940	0.502	-0.423
-608.201	-200.000	0.020	-0.273
-607.186	20.136	-0.403	0.419
-606.171	-95.427	-0.247	0.085
-605.157	-134.008	-0.166	-0.026
-604.142	-127.274	-0.245	-0.046
-603.128	88.927	-0.323	0.463
-602.113	-200.000	0.015	-0.185
-601.098	-200.000	0.005	-0.306
-600.084	752.857	0.074	0.259
-599.069	348.009	-0.050	-0.128
-598.055	-68.473	-0.411	-0.204
-597.040	-87.909	-0.360	0.139
-596.025	-30.097	0.081	-0.059
-595.011	-3.585	0.406	-0.363
-593.996	-91.210	-0.176	0.065
-592.982	-200.000	0.006	-0.218
-591.967	194.009	-0.202	0.396
-590.952	-35.661	-0.403	-0.281
-589.938	-200.000	-0.007	-0.138
-588.923	-158.038	0.154	-0.011
-587.909	153.987	0.050	-0.089
-586.894	-43.775	-0.335	-0.217
-585.879	-65.523	0.402	-0.207
-584.865	-63.772	0.092	0.048
-583.850	-42.801	-0.193	-0.126
-582.836	-101.094	0.313	0.098
-581.821	193.265	-0.151	-0.295
-580.806	-92.022	0.465	-0.168
-579.792	-57.401	0.437	-0.246
-578.777	-79.574	-0.481	-0.208
-577.763	-84.344	-0.235	-0.095
-576.748	95.622	-0.132	0.194
-575.733	-120.774	-0.065	0.014
-574.719	-104.056	-0.397	-0.118
-573.704	252.602	0.071	-0.156
-572.690	800.000	0.060	-0.301
-571.675	226.682	-0.113	0.237
-570.661	-143.229	-0.153	-0.019
-569.646	-99.941	-0.413	0.132
-568.631	-180.453	0.263	-0.007
-567.617	800.000	0.061	0.323
-566.602	-200.000	0.008	-0.208
-565.588	-83.781	0.093	0.038
-564.573	800.000	0.017	0.092
-563.558	235.304	-0.164	-0.348
-562.544	412.785	-0.118	0.323
-561.529	-106.165	-0.399	0.114
-560.515	-163.826	0.565	0.033
-559.500	-110.778	0.096	-0.025
-558.485	-200.000	0.009	-0.123
-557.471	-124.113	0.180	-0.036
-556.456	-19.507	-0.139	-0.110
-555.442	17.444	0.220	0.225
-554.427	-100.782	-0.227	0.071
-553.412	481.364	-0.191	-0.560
-552.398	-136.369	0.465	-0.069
-551.383	-91.671	-0.221	-0.081
-550.369	-36.011	0.136	0.095
-549.354	-56.814	0.120	-0.068
-548.339	210.904	-0.298	-0.603
-547.325	-7.125	-0.239	0.209
-546.310	-10.669	-0.098	-0.083
-545.296	-6.651	0.337	-0.294
-544.281	-200.000	-0.056	-0.539
-543.266	-200.000	-0.049	0.306
-542.252	-200.000	0.051	0.322
-541.237	25.978	-0.160	0.171
-540.223	-200.000	-0.115	0.791
-539.208	-110.243	0.267	0.071
-538.193	-100.433	-0.594	0.188
-537.179	48.201	0.147	-0.177
-536.164	71.628	-0.116	-0.155
-535.150	-200.000	0.015	0.264
-534.135	59.013	0.109	-0.137
-533.121	84.614	-0.433	0.609
-532.106	36.663	0.404	0.458
-531.091	222.528	-0.107	-0.222
-530.077	-26.522	0.241	0.181
-529.062	322.584	0.098	0.242
-528.048	480.135	0.155	0.453
-527.033	-118.617	0.370	-0.083
-526.018	800.000	0.077	-0.351
-525.004	-49.140	-0.078	0.048
-523.989	-84.435	-0.083	0.033
-522.975	119.919	-0.280	-0.447
-521.960	-68.772	-0.071	-0.035
-520.945	317.927	0.150	-0.365
-519.931	-1.935	0.156	0.141
-518.916	-152.747	0.816	0.073
-517.902	-151.086	-0.406	-0.039
-516.887	129.277	-0.101	-0.165
-515.872	-114.767	0.143	0.035
-514.858	126.265	0.117	0.191
-513.843	676.341	-0.019	-0.064
-512.829	-154.544	-0.321	-0.027
-511.814	622.452	-0.076	0.246
-510.799	-3.846	-0.088	-0.078
-509.785	-68.485	-0.302	-0.150
-508.770	-200.000	-0.053	-0.539
-507.756	130.163	0.168	-0.277
-506.741	800.000	0.062	0.232
-505.726	-200.000	-0.006	-0.198
-504.712	-200.000	-0.021	-0.217
-503.697	-95.174	-0.543	-0.187
-502.683	-64.286	0.136	0.071
-501.668	-5.060	0.092	-0.081
-500.653	350.422	-0.142	-0.362
-499.639	-200.000	-0.012	-0.292
-498.624	198.549	-0.165	0.326
-497.610	-79.632	-0.203	-0.087
-496.595	-144.054	0.321	-0.038
-495.581	107.506	0.191	0.291
-494.566	-77.550	0.228	0.101
-493.551	176.140	-0.148	-0.276
-492.537	127.891	0.223	-0.364
-491.522	-102.306	0.025	0.008
-490.508	-200.000	-0.347	-0.001
-489.493	-200.000	-0.063	-0.493
-488.478	-200.000	-0.031	-0.232
-487.464	-85.572	0.721	0.286
-486.449	-3.102	0.209	0.187
-485.435	-169.201	0.413	0.019
-484.420	-173.472	-0.364	0.014
-483.405	-53.891	-0.439	0.256
-482.391	32.321	0.429	0.475
-481.376	-55.138	0.308	0.177
-480.362	113.907	0.106	0.165
-479.347	-116.405	0.366	-0.086
-478.332	-91.183	0.101	-0.037
-477.318	438.955	0.049	-0.139
-476.303	-82.156	0.381	-0.159
-475.289	552.670	-0.118	-0.365
-474.274	353.059	0.088	0.225
-473.259	-115.516	-0.510	0.122
-472.245	-80.299	0.151	-0.064
-471.230	97.907	-0.180	0.266
-470.216	-30.633	-0.064	-0.046
-469.201	-104.207	0.406	-0.120
-468.186	-156.463	-0.205	-0.016
-467.172	-8.831	0.478	0.410
-466.157	800.000	-0.084	0.415
-465.143	-79.863	-0.765	-0.328
-464.128	-169.250	0.230	-0.011
-463.113	-79.834	-0.200	-0.086
-462.099	227.494	-0.072	0.151
-461.084	42.219	-0.220	-0.257
-460.070	800.000	0.056	-0.200
-459.055	800.000	-0.042	-0.222
-458.040	-191.905	-0.472	-0.006
-457.026	-33.319	-0.304	0.215
-456.011	-130.867	-0.603	0.102
-454.997	-8.681	-0.283	0.242
-453.982	-89.823	-0.099	-0.037
-452.968	-156.044	0.040	0.003
-451.953	-200.000	-0.023	-0.151
-450.938	-200.000	0.031	-0.373
-449.924	41.285	-0.138	0.160
-448.909	-200.000	-0.045	-0.571
-447.895	-71.526	-0.478	0.228
-446.880	-134.338	-0.101	-0.016
-445.865	-124.326	0.375	-0.074
-444.851	353.168	-0.050	-0.129
-443.836	-192.099	-0.425	0.005
-442.822	86.875	0.120	0.170
-441.807	288.845	-0.127	-0.296
-440.792	235.653	0.091	-0.192
-439.778	44.812	0.169	-0.199
-438.763	68.196	-0.495	-0.649
-437.749	-86.249	-0.446	0.175
-436.734	-122.655	0.323	0.066
-435.719	22.341	-0.230	-0.240
-434.705	-167.393	-0.225	0.011
-433.690	-92.274	0.730	-0.262
-432.676	-36.698	-0.296	0.203
-431.661	680.532	-0.100	0.335
-430.646	-50.421	0.211	-0.127
-429.632	-43.792	-0.355	0.228
-428.617	254.790	0.185	0.406
-427.603	625.821	-0.033	0.108
-426.588	-174.692	-0.288	0.010
-425.573	-124.571	0.151	-0.030
-424.559	-147.352	0.109	0.012
-423.544	-142.611	-0.149	0.018
-422.530	281.183	-0.198	0.455
-421.515	-151.180	-0.506	0.048
-420.500	-26.499	0.318	0.238
-419.486	-116.215	0.563	-0.133
-418.471	33.581	-0.109	0.121
-417.457	60.361	-0.130	0.165
-416.442	-111.182	-0.504	0.131
-415.428	257.272	0.243	0.536
-414.413	-46.830	0.374	0.233
-413.398	17.238	-0.145	-0.147
-412.384	-169.126	-0.257	-0.012
-411.369	-94.033	0.540	-0.188
-410.355	-32.156	0.150	0.107
-409.340	176.972	0.083	0.155
-408.325	-0.396	0.237	-0.215
-407.311	-93.555	0.583	-0.205
-406.296	-168.890	0.222	-0.011
-405.282	-52.577	0.105	-0.062
-404.267	40.452	0.195	0.225
-403.252	-109.681	0.407	-0.109
-402.238	-138.919	0.229	-0.031
-401.223	-85.742	0.363	-0.143
-400.209	437.553	0.126	-0.351
-399.194	-92.060	-0.300	-0.108
-398.179	145.575	-0.183	0.313
-397.165	800.000	0.108	-0.593
-396.150	-200.000	-0.021	-0.361
-395.136	-151.450	-0.039	-0.004
-394.121	190.875	0.261	-0.502
-393.106	-58.118	0.115	0.064
-392.092	664.950	-0.052	-0.171
-391.077	-47.797	-0.189	-0.116
-390.063	-46.779	0.428	0.267
-389.048	-200.000	-0.018	-0.308
-388.033	-70.841	-0.634	-0.304
-387.019	-39.109	-0.237	0.159
-386.004	-196.577	-0.398	0.003
-384.990	260.315	0.308	0.683
-383.975	-113.481	0.511	0.127
-382.960	-148.673	0.289	0.030
-381.946	-200.000	0.052	-0.375
-380.931	-148.208	0.198	-0.021
-379.917	0.362	0.201	-0.183
-378.902	800.000	0.118	-0.549
-377.888	449.327	-0.087	-0.246
-376.873	-200.000	-0.027	-0.314
-375.858	90.568	-0.327	-0.469
-374.844	-33.298	-0.239	0.168
-373.829	-200.000	0.006	0.263
-372.815	-130.187	0.217	0.037
-371.800	-107.407	0.191	0.053
-370.785	52.736	-0.249	-0.304
-369.771	179.689	-0.061	0.115
-368.756	507.372	0.018	0.055
-367.742	-30.849	0.339	0.244
-366.727	106.595	-0.183	-0.277
-365.712	-52.397	-0.268	0.158
-364.698	-128.489	-0.282	-0.051
-363.683	800.000	0.050	0.205
-362.669	800.000	0.049	-0.233
-361.654	53.966	0.148	0.181
-360.639	126.192	0.086	0.139
-359.625	225.615	-0.038	0.080
-358.610	-66.143	0.516	-0.262
-357.596	-58.961	-0.285	0.157
-356.581	59.035	-0.219	0.275
-355.566	-200.000	-0.014	-0.229
-354.552	207.312	-0.059	-0.117
-353.537	18.186	0.391	0.398
-352.523	-200.000	-0.031	0.192
-351.508	-183.805	0.413	0.009
-350.493	416.700	0.181	0.495
-349.479	24.277	-0.463	0.487
-348.464	45.840	-0.174	0.206
-347.450	231.207	-0.171	0.358
-346.435	-4.439	0.071	-0.062
-345.420	-27.849	-0.257	0.190
-344.406	-127.102	0.436	-0.081
-343.391	-82.958	0.139	0.057
-342.377	-142.627	-0.767	0.095
-341.362	-200.000	-0.013	0.189
-340.348	198.914	-0.132	-0.258
-339.333	95.838	0.174	-0.254
-338.318	41.713	-0.384	0.444
-337.304	-200.000	0.012	-0.089
-336.289	-177.910	-0.374	0.011
-335.275	-165.856	-0.204	-0.011
-334.260	-22.181	-0.083	0.064
-333.245	-90.062	-0.326	-0.120
-332.231	-12.094	0.433	0.361
-331.216	39.274	-0.076	-0.087
-330.202	-36.818	-0.287	-0.196
-329.187	800.000	0.147	-0.625
-328.172	210.921	-0.099	-0.198
-327.158	688.042	-0.103	-0.344
-326.143	800.000	0.064	-0.252
-325.129	-142.419	-0.140	0.017
-324.114	-132.212	0.217	0.035
-323.099	-13.778	0.263	-0.216
-322.085	40.308	-0.206	0.236
-321.070	-42.116	0.249	-0.162
-320.056	-200.000	-0.044	0.260
-319.041	648.823	-0.107	-0.350
-318.026	-200.000	-0.094	0.686
-317.012	493.289	-0.185	0.542
-315.997	179.697	0.240	0.448
-314.983	800.000	0.026	0.145
-313.968	-63.676	0.117	-0.061
-312.953	115.379	-0.130	-0.202
-311.939	-20.280	0.125	0.098
-310.924	-200.000	-0.019	0.418
-309.910	-141.092	0.233	-0.030
-308.895	-122.318	0.481	0.099
-307.880	-135.893	-0.100	0.015
-306.866	120.630	-0.097	0.153
-305.851	-36.442	0.343	-0.235
-304.837	679.028	-0.142	0.472
-303.822	547.826	-0.258	-0.792
-302.807	253.980	0.119	0.259
-301.793	17.481	-0.185	0.187
-300.778	753.883	-0.035	-0.123
-299.764	111.428	-0.247	-0.379
-298.749	-73.526	-0.545	-0.252
-297.735	-158.209	-0.198	-0.014
-296.720	176.369	0.211	-0.391
-295.705	131.280	-0.073	0.119
-294.691	180.573	0.307	0.574
-293.676	-71.282	0.372	0.177
-292.662	-200.000	-0.032	-0.231
-291.647	323.752	0.099	0.242
-290.632	482.803	0.077	0.225
-289.618	743.062	0.140	0.482
-288.603	-68.157	0.467	0.230
-287.589	-152.577	-0.198	-0.018
-286.574	208.950	0.298	0.595
-285.559	-117.880	0.228	0.052
-284.545	-156.578	0.176	0.014
-283.530	470.866	-0.163	0.470
-282.516	38.235	0.076	-0.086
-281.501	-200.000	-0.677	-0.003
-280.486	-198.352	0.433	-0.003
-279.472	12.315	0.199	0.195
-278.457	330.120	-0.116	0.285
-277.443	400.531	-0.143	0.382
-276.428	-95.146	-0.352	-0.120
-275.413	-14.371	-0.141	0.115
-274.399	-67.955	-0.399	0.197
-273.384	183.242	-0.258	-0.485
-272.370	32.778	-0.242	-0.266
-271.355	-200.000	0.289	-0.001
-270.340	144.063	-0.239	-0.406
-269.326	-200.000	0.032	0.254
-268.311	486.708	-0.216	0.628
-267.297	800.000	-0.024	-0.102
-266.282	488.308	-0.120	0.350
-265.267	-155.002	-0.456	0.038
-264.253	97.929	0.076	-0.111
-263.238	391.983	0.150	-0.399
-262.224	342.688	-0.094	-0.236
-261.209	-200.000	0.026	0.260
-260.195	46.156	0.268	0.316
-259.180	17.392	-0.099	0.100
-258.165	-200.000	-0.203	0.000
-257.151	-21.062	0.148	0.115
-256.136	-200.000	-0.036	-0.467
-255.122	-22.885	0.280	0.214
-254.107	240.763	0.300	-0.638
-253.092	-89.997	0.229	-0.084
-252.078	148.907	-0.071	0.122
-251.063	15.310	0.334	0.332
-250.049	-200.000	-0.035	0.275
-249.034	-106.062	0.150	-0.043
-248.019	-196.451	0.250	-0.002
-247.005	-40.555	0.132	0.087
-245.990	-8.411	0.170	0.145
-244.976	-58.766	0.192	0.105
-243.961	-73.521	-0.334	-0.154
-242.946	-76.984	0.330	0.146
-241.932	12.344	0.247	0.242
-240.917	-103.188	-0.131	-0.039
-239.903	-59.691	0.351	0.190
-238.888	800.000	-0.170	0.696
-237.873	181.452	0.131	-0.245
-236.859	-200.000	0.028	0.344
-235.844	-110.118	0.240	-0.063
-234.830	-80.156	0.125	-0.053
-233.815	55.188	-0.179	-0.220
-232.800	-21.499	0.080	-0.062
-231.786	-200.000	0.046	0.359
-230.771	22.837	-0.183	-0.190
-229.757	-79.616	-0.231	0.098
-228.742	-157.416	0.203	0.015
-227.727	5.841	0.117	-0.109
-226.713	104.529	-0.063	-0.095
-225.698	154.805	0.094	-0.165
-224.684	462.854	-0.103	-0.293
-223.669	25.147	0.199	-0.209
-222.655	149.295	0.143	-0.246
-221.640	53.383	-0.164	-0.200
-220.625	800.000	0.036	-0.142
-219.611	185.153	-0.175	0.330
-218.596	-41.137	-0.290	0.189
-217.582	-200.000	-0.005	-0.452
-216.567	-200.000	0.096	-0.609
-215.552	800.000	-0.098	0.356
-214.538	23.762	0.051	0.053
-213.523	-22.547	-0.084	0.064
-212.509	800.000	0.031	-0.130
-211.494	-119.318	0.498	0.109
-210.479	-200.000	0.367	0.002
-209.465	-200.000	0.027	0.287
-208.450	94.508	-0.245	-0.353
-207.436	217.650	-0.280	-0.568
-206.421	11.656	-0.058	0.057
-205.406	69.160	0.024	0.031
-204.392	-200.000	0.028	-0.266
-203.377	281.727	0.292	0.666
-202.363	-99.922	0.325	-0.102
-201.348	110.828	-0.396	0.606
-200.333	-62.244	-0.411	-0.216
-199.319	-60.559	-0.198	0.106
-198.304	-200.000	0.091	-0.554
-197.290	-200.000	-0.013	-0.115
-196.275	93.802	-0.299	-0.431
-195.260	-200.000	0.055	-0.382
-194.246	-105.692	0.151	0.043
-193.231	286.055	0.306	-0.701
-192.217	100.928	-0.270	-0.398
-191.202	-157.938	0.366	-0.027
-190.187	-17.637	0.448	-0.356
-189.173	800.000	0.052	0.286
-188.158	48.917	0.171	-0.204
-187.144	-200.000	-0.018	-0.515
-186.129	-98.078	0.361	-0.117
-185.114	242.123	-0.100	-0.212
-184.100	-45.242	0.243	0.152
-183.085	-60.546	-0.288	0.155
-182.071	53.501	-0.132	0.161
-181.056	-54.099	0.196	-0.113
-180.042	-51.270	0.426	-0.252
-179.027	-85.823	0.577	0.225
-178.012	-200.000	-0.046	0.335
-176.998	-84.015	0.467	0.187
-175.983	-200.000	0.001	0.114
-174.969	33.232	0.081	-0.089
-173.954	-200.000	-0.018	0.338
-172.939	-52.451	0.752	0.439
-171.925	56.083	0.210	0.258
-170.910	17.894	0.498	0.502
-169.896	800.000	0.055	-0.244
-168.881	-200.000	0.001	0.447
-167.866	-42.992	-0.267	-0.171
-166.852	363.649	0.132	0.338
-165.837	101.174	-0.424	0.625
-164.823	-14.081	0.360	0.293
-163.808	-101.158	-0.141	-0.043
-162.793	-120.684	-0.653	0.139
-161.779	-200.000	-0.010	0.148
-160.764	185.433	-0.232	-0.438
-159.750	-118.819	-0.255	-0.056
-158.735	-160.785	-0.436	-0.029
-157.720	800.000	0.045	-0.192
-156.706	147.064	-0.235	0.401
-155.691	41.184	0.273	0.312
-154.677	1.407	0.232	0.211
-153.662	76.920	-0.051	0.069
-152.647	800.000	-0.105	0.382
-151.633	-70.446	-0.243	-0.116
-150.618	-106.870	-0.636	-0.177
-149.604	-49.609	0.471	0.283
-148.589	152.316	0.181	-0.313
-147.574	-18.757	0.266	-0.209
-146.560	-33.994	0.235	0.163
-145.545	-200.000	-0.036	0.352
-144.531	-58.960	-0.551	0.300
-143.516	-200.000	0.059	0.581
-142.502	-29.744	-0.064	-0.046
-141.487	71.947	-0.291	-0.383
-140.472	-119.538	0.495	-0.108
-139.458	299.865	-0.181	-0.423
-138.443	224.509	-0.154	-0.315
-137.429	240.819	0.279	-0.590
-136.414	-108.428	0.431	-0.117
-135.399	80.888	-0.239	-0.326
-134.385	48.215	-0.193	0.228
-133.370	-108.088	-0.355	0.097
-132.356	800.000	-0.095	0.501
-131.341	-200.000	-0.058	-0.452
-130.326	800.000	-0.133	0.524
-129.312	-22.980	-0.102	-0.078
-128.297	303.058	-0.255	-0.599
-127.283	-200.000	-0.021	0.367
-126.268	-200.000	-0.013	-0.080
-125.253	-58.347	0.193	0.106
-124.239	184.429	0.059	0.111
-123.224	-200.000	0.002	-0.226
