DTS Sentinel unit serial number:	SN409020Multiplexer serial number:	ORYXHardware model number:	OX4-SRSoftware version number:	ORYX F/W v3.00 Oryx Data Collector v3.7.2.0data status	okinstallation	HaddamTimeLapsedifferential loss correction	single-endedforward channel	channel 3reverse channel	N/Adate	2011/06/22time	09:56:17forward acquisition time	30.00reverse acquisition time	0.00gamma	498.7831k internal	0.1807k external	0.1807temperature offset calibration	1.0074default loss term (dB/km)	0.3790temperature slope calibration	1.3530multiplexer offset coefficient	1.0000multiplexer slope coefficient	1.0000fibre end	0.00T internal ref (°C)	28.56T ext. ref 1 (°C)	25.75T ext. ref 2 (°C)	0.20length (m)	temperature (°C)	Stokes	anti-Stokes-747.200	59.205	0.179	-0.227
-746.185	11.670	0.615	0.608
-745.171	-42.780	0.360	-0.235
-744.156	-3.954	0.342	0.305
-743.142	-200.000	0.074	-0.665
-742.127	-2.912	-0.158	0.142
-741.112	13.000	0.201	-0.200
-740.098	-200.000	-0.060	0.563
-739.083	-200.000	-0.007	0.195
-738.069	726.630	0.109	0.378
-737.054	50.239	-0.421	-0.512
-736.039	11.406	-0.157	0.155
-735.025	-200.000	-0.266	-0.001
-734.010	-145.610	-0.267	0.030
-732.996	-64.343	-0.186	-0.097
-731.981	-117.954	-0.354	-0.081
-730.966	800.000	-0.149	-0.547
-729.952	-94.541	-0.460	-0.160
-728.937	-82.628	-0.335	-0.139
-727.923	-81.363	-0.482	-0.203
-726.908	-117.558	0.240	0.055
-725.894	36.529	-0.106	0.120
-724.879	-38.301	-0.348	-0.237
-723.864	-128.415	-0.496	-0.090
-722.850	118.574	0.032	-0.051
-721.835	-114.135	0.150	0.037
-720.821	-82.468	0.159	0.066
-719.806	-16.381	0.190	-0.155
-718.791	31.434	-0.132	0.145
-717.777	-63.057	-0.259	0.137
-716.762	-139.655	0.535	0.073
-715.748	-157.729	-0.208	0.016
-714.733	800.000	-0.063	-0.294
-713.718	-67.829	0.285	0.143
-712.704	-105.583	-0.360	0.104
-711.689	326.220	0.134	-0.332
-710.675	100.570	-0.084	0.126
-709.660	528.855	-0.039	-0.120
-708.645	-88.260	0.255	0.097
-707.631	-17.495	-0.349	0.282
-706.616	-78.537	-0.235	0.103
-705.602	246.349	0.211	0.460
-704.587	-80.515	0.697	0.297
-703.572	-31.352	-0.186	0.135
-702.558	-32.023	0.046	0.033
-701.543	-113.206	-0.099	0.025
-700.529	-81.631	-0.481	0.202
-699.514	-147.986	-0.234	0.025
-698.499	-200.000	0.013	0.090
-697.485	-200.000	0.017	0.569
-696.470	-200.000	-0.015	0.566
-695.456	-142.894	-0.102	-0.013
-694.441	226.929	0.136	-0.285
-693.426	294.164	-0.047	0.111
-692.412	-23.189	0.636	0.491
-691.397	-200.000	0.002	-0.066
-690.383	-200.000	-0.028	-0.419
-689.368	123.987	0.018	-0.029
-688.354	166.836	0.230	-0.419
-687.339	-100.494	-0.374	0.118
-686.324	-90.347	-0.476	-0.176
-685.310	800.000	0.089	0.341
-684.295	-99.855	-0.287	-0.092
-683.281	-20.996	-0.244	-0.192
-682.266	35.688	0.190	-0.214
-681.251	-117.800	-0.039	-0.009
-680.237	568.384	-0.084	-0.262
-679.222	463.006	0.208	0.600
-678.208	661.041	-0.050	0.168
-677.193	-23.270	-0.315	0.243
-676.178	-7.064	-0.181	0.157
-675.164	519.972	0.091	-0.275
-674.149	-168.893	0.519	0.025
-673.135	-162.289	0.533	0.034
-672.120	-109.074	-0.650	0.176
-671.105	32.634	-0.508	0.564
-670.091	-66.012	-0.152	0.077
-669.076	178.516	-0.105	-0.198
-668.062	-200.000	0.006	0.282
-667.047	60.658	0.230	-0.292
-666.032	-200.000	0.056	0.340
-665.018	-130.628	0.730	0.125
-664.003	-39.462	-0.446	-0.299
-662.989	-84.758	-0.638	-0.256
-661.974	-147.688	-0.606	0.064
-660.959	-96.503	-0.422	-0.142
-659.945	-26.868	0.175	-0.131
-658.930	264.348	0.106	0.238
-657.916	800.000	-0.068	-0.291
-656.901	-117.760	-0.129	-0.029
-655.886	-171.976	0.544	0.022
-654.872	-116.372	-0.271	0.064
-653.857	242.056	-0.103	-0.222
-652.843	7.500	0.164	0.158
-651.828	-0.401	-0.297	-0.270
-650.814	-87.046	-0.203	-0.079
-649.799	-149.023	-0.387	0.039
-648.784	22.366	-0.172	0.180
-647.770	14.136	-0.387	-0.386
-646.755	-168.949	0.365	-0.017
-645.741	100.929	0.204	0.304
-644.726	-6.361	-0.133	0.116
-643.711	-32.773	-0.096	0.068
-642.697	-69.146	-0.417	0.205
-641.682	14.877	0.111	0.112
-640.668	31.973	0.148	-0.163
-639.653	38.348	-0.092	0.106
-638.638	111.376	-0.107	-0.166
-637.624	461.083	-0.100	0.287
-636.609	245.612	0.141	-0.305
-635.595	-117.275	-0.234	-0.054
-634.580	476.633	-0.028	-0.082
-633.565	-200.000	0.026	0.318
-632.551	800.000	0.069	0.277
-631.536	78.194	-0.197	-0.270
-630.522	93.660	-0.129	-0.187
-629.507	-40.299	0.153	-0.102
-628.492	-70.180	0.270	0.131
-627.478	-79.529	0.466	0.201
-626.463	28.613	0.088	-0.095
-625.449	-200.000	-0.019	0.160
-624.434	-130.451	-0.427	-0.073
-623.419	71.376	0.190	0.252
-622.405	-173.022	0.190	-0.007
-621.390	800.000	0.062	0.331
-620.376	-41.074	-0.225	0.148
-619.361	-17.192	0.125	-0.101
-618.346	-173.673	0.371	-0.014
-617.332	-121.593	-0.125	0.026
-616.317	-58.860	0.130	0.072
-615.303	-88.897	-0.596	0.225
-614.288	800.000	-0.085	0.327
-613.273	800.000	0.102	-0.423
-612.259	53.314	0.042	0.052
-611.244	-57.997	-0.343	0.191
-610.230	-75.645	-0.237	0.107
-609.215	11.466	0.173	0.170
-608.201	185.170	-0.102	-0.195
-607.186	-200.000	-0.016	0.477
-606.171	-93.799	0.081	-0.028
-605.157	-86.078	0.340	-0.134
-604.142	77.456	0.108	0.147
-603.128	-113.679	-0.310	0.077
-602.113	-110.113	0.252	0.067
-601.098	-87.679	-0.326	0.125
-600.084	93.538	-0.298	-0.433
-599.069	-89.370	0.354	-0.133
-598.055	800.000	0.131	-0.557
-597.040	152.491	-0.156	-0.273
-596.025	339.458	0.125	-0.314
-595.011	81.048	-0.465	-0.643
-593.996	101.382	0.112	-0.168
-592.982	189.140	-0.137	0.263
-591.967	-68.870	-0.276	0.136
-590.952	-166.784	-0.255	0.013
-589.938	-13.640	0.229	0.190
-588.923	-152.211	-0.414	-0.038
-587.909	800.000	-0.071	-0.306
-586.894	-82.565	0.300	-0.124
-585.879	400.953	0.175	-0.472
-584.865	-50.322	-0.279	-0.168
-583.850	-48.565	0.445	0.273
-582.836	-33.982	0.244	0.171
-581.821	800.000	-0.141	0.632
-580.806	-76.639	-0.648	0.289
-579.792	-155.435	0.382	0.031
-578.777	-100.018	-0.380	-0.120
-577.763	66.336	-0.097	0.126
-576.748	150.034	0.101	0.175
-575.733	-59.171	0.301	-0.165
-574.719	123.418	-0.221	-0.356
-573.704	-200.000	-0.012	-0.083
-572.690	800.000	0.039	0.198
-571.675	102.175	0.072	-0.108
-570.661	99.901	-0.236	0.350
-569.646	40.771	0.232	0.267
-568.631	-200.000	-0.005	-0.159
-567.617	51.815	0.158	-0.192
-566.602	25.319	0.084	0.089
-565.588	105.580	-0.139	-0.210
-564.573	-89.209	0.184	-0.069
-563.558	-200.000	0.056	-0.505
-562.544	800.000	-0.068	0.272
-561.529	-40.366	0.360	-0.238
-560.515	54.082	-0.127	0.156
-559.500	55.713	-0.066	0.082
-558.485	153.473	-0.143	0.251
-557.471	-101.933	-0.166	0.051
-556.456	170.498	0.173	0.317
-555.442	-49.807	-0.349	0.211
-554.427	-200.000	-0.063	-0.362
-553.412	-6.310	0.467	0.407
-552.398	-200.000	-0.021	0.255
-551.383	-91.640	-0.274	-0.099
-550.369	-75.472	0.597	0.271
-549.354	103.920	-0.170	-0.255
-548.339	203.498	-0.117	0.232
-547.325	-200.000	-0.002	0.564
-546.310	42.839	0.162	-0.188
-545.296	-169.291	-0.301	-0.014
-544.281	-54.864	-0.307	0.176
-543.266	-108.237	0.334	-0.092
-542.252	-102.148	0.225	0.069
-541.237	85.774	0.262	-0.368
-540.223	39.919	0.222	-0.255
-539.208	10.734	-0.291	-0.284
-538.193	280.771	0.166	-0.380
-537.179	397.965	-0.078	0.209
-536.164	-136.921	-0.054	0.008
-535.150	7.383	-0.263	-0.251
-534.135	-200.000	0.036	0.355
-533.121	16.611	-0.168	0.170
-532.106	-107.696	-0.419	-0.116
-531.091	-34.709	-0.317	-0.221
-530.077	405.341	0.153	-0.413
-529.062	347.286	0.108	-0.271
-528.048	55.778	0.313	-0.387
-527.033	-97.385	0.399	-0.132
-526.018	-200.000	0.018	0.271
-525.004	-72.160	0.327	0.154
-523.989	-33.321	-0.234	-0.165
-522.975	164.630	-0.084	0.151
-521.960	-4.725	0.172	0.152
-520.945	-45.263	-0.206	0.130
-519.931	-55.828	-0.268	0.152
-518.916	-29.352	-0.093	0.068
-517.902	-135.251	0.272	-0.041
-516.887	-19.529	-0.039	-0.031
-515.872	-31.271	-0.283	-0.203
-514.858	-132.272	0.457	0.075
-513.843	-71.986	0.108	-0.051
-512.829	-200.000	0.017	-0.615
-511.814	-10.930	-0.420	-0.353
-510.799	-20.403	-0.247	-0.194
-509.785	24.973	0.448	-0.474
-508.770	117.130	0.248	0.390
-507.756	20.699	0.164	-0.170
-506.741	-174.703	0.182	0.006
-505.726	311.418	0.046	0.110
-504.712	-75.549	0.479	0.216
-503.697	-70.628	0.298	-0.143
-502.683	-75.478	0.264	-0.119
-501.668	615.155	0.038	-0.122
-500.653	168.853	-0.095	0.173
-499.639	-122.327	-0.281	-0.058
-498.624	10.720	0.298	0.289
-497.610	52.383	0.335	0.408
-496.595	-129.436	-0.288	0.050
-495.581	800.000	-0.225	-0.798
-494.566	95.717	-0.194	-0.283
-493.551	-200.000	-0.007	-0.659
-492.537	-6.307	-0.303	-0.263
-491.522	396.717	-0.132	-0.352
-490.508	129.787	-0.164	0.267
-489.493	-18.130	-0.202	0.161
-488.478	42.926	0.156	-0.182
-487.464	-152.976	0.370	0.033
-486.449	-126.183	-0.196	0.037
-485.435	800.000	-0.048	0.187
-484.420	40.356	0.184	0.211
-483.405	122.748	0.033	0.053
-482.391	-44.706	0.034	-0.022
-481.376	-78.041	-0.438	-0.191
-480.362	-104.366	-0.529	-0.155
-479.347	47.052	-0.172	0.204
-478.332	-200.000	-0.023	0.465
-477.318	398.844	0.070	-0.189
-476.303	800.000	0.065	0.274
-475.289	800.000	-0.066	-0.279
-474.274	-99.896	0.227	-0.072
-473.259	715.684	0.134	-0.454
-472.245	405.891	0.153	-0.414
-471.230	-118.850	-0.393	-0.087
-470.216	43.442	0.231	0.269
-469.201	-200.000	-0.001	0.095
-468.186	-28.352	-0.186	-0.137
-467.172	316.308	-0.087	0.210
-466.157	-134.114	0.680	-0.106
-465.143	260.050	0.151	0.333
-464.128	800.000	-0.024	-0.096
-463.113	-101.039	0.106	-0.033
-462.099	63.964	0.397	-0.509
-461.084	456.897	-0.065	-0.184
-460.070	27.229	0.123	0.131
-459.055	-200.000	-0.034	0.422
-458.040	-77.109	-0.559	0.247
-457.026	-200.000	0.044	0.251
-456.011	-105.175	0.386	0.112
-454.997	-200.000	0.084	-0.494
-453.982	101.957	0.207	0.308
-452.968	-77.985	-0.434	0.189
-451.953	-8.205	0.173	0.148
-450.938	256.830	-0.103	-0.225
-449.924	-200.000	-0.003	-0.131
-448.909	-77.527	-0.407	0.179
-447.895	636.449	-0.081	0.263
-446.880	9.589	-0.023	0.022
-445.865	8.196	0.186	-0.178
-444.851	-154.673	0.249	0.021
-443.836	692.600	-0.144	0.483
-442.822	-130.164	-0.452	0.078
-441.807	-114.611	-0.449	0.109
-440.792	-83.175	0.602	-0.245
-439.778	-39.965	0.200	-0.133
-438.763	232.960	-0.131	-0.275
-437.749	34.825	0.262	0.292
-436.734	-61.773	0.449	0.239
-435.719	-98.414	0.271	0.088
-434.705	-72.462	-0.124	-0.058
-433.690	233.328	-0.063	0.132
-432.676	-0.746	-0.010	0.009
-431.661	-194.630	0.400	-0.004
-430.646	-200.000	-0.001	-0.062
-429.632	-71.807	-0.110	-0.052
-428.617	-22.446	0.097	-0.074
-427.603	-94.525	0.506	-0.174
-426.588	-124.655	0.219	0.043
-425.573	16.034	-0.072	-0.072
-424.559	800.000	-0.066	0.317
-423.544	276.642	0.108	0.246
-422.530	-129.070	-0.332	-0.059
-421.515	-157.187	-0.385	-0.029
-420.500	-102.599	-0.096	0.029
-419.486	-15.344	-0.050	0.040
-418.471	402.083	0.153	0.412
-417.457	-143.389	-0.261	0.031
-416.442	265.612	-0.128	0.284
-415.428	301.001	-0.163	0.384
-414.413	-65.525	0.520	-0.264
-413.398	175.467	-0.037	0.068
-412.384	-93.198	0.256	-0.090
-411.369	-61.591	0.375	-0.199
-410.355	135.425	-0.247	0.409
-409.340	54.260	0.373	-0.456
-408.325	15.980	0.215	-0.215
-407.311	-32.646	0.143	0.101
-406.296	-145.448	-0.104	0.012
-405.282	-161.663	0.125	-0.008
-404.267	-56.508	-0.184	-0.103
-403.252	-42.754	0.403	0.260
-402.238	66.722	0.064	0.083
-401.223	-12.842	0.127	0.105
-400.209	-69.589	0.172	-0.083
-399.194	-47.808	-0.283	-0.174
-398.179	-37.968	0.346	-0.233
-397.165	171.252	-0.336	-0.613
-396.150	-200.000	0.015	-0.163
-395.136	177.511	0.092	-0.170
-394.121	100.680	0.118	0.174
-393.106	-144.410	-0.306	-0.036
-392.092	-150.343	-0.262	-0.025
-391.077	-200.000	-0.001	-0.256
-390.063	-75.988	-0.689	0.308
-389.048	492.888	-0.054	0.158
-388.033	-200.000	0.011	-0.160
-387.019	32.807	-0.390	-0.428
-386.004	82.836	0.222	0.306
-384.990	-200.000	0.005	0.219
-383.975	800.000	-0.117	-0.518
-382.960	670.242	0.084	-0.277
-381.946	-200.000	0.010	-0.237
-380.931	-156.284	0.189	0.015
-379.917	130.704	-0.143	0.232
-378.902	372.623	0.197	-0.511
-377.888	122.119	0.294	-0.467
-376.873	-200.000	0.010	-0.276
-375.858	-200.000	-0.074	0.559
-374.844	-200.000	-0.021	0.339
-373.829	-58.671	0.181	0.099
-372.815	39.378	0.415	0.471
-371.800	195.141	-0.166	-0.320
-370.785	-105.888	-0.281	0.080
-369.771	93.934	0.164	0.237
-368.756	227.834	-0.141	0.291
-367.742	332.691	0.169	-0.417
-366.727	791.569	0.164	0.575
-365.712	4.303	-0.387	0.360
-364.698	-159.986	-0.578	-0.039
-363.683	-68.209	-0.514	-0.252
-362.669	-102.514	0.361	-0.109
-361.654	-34.343	0.050	-0.035
-360.639	-110.587	0.204	0.053
-359.625	-69.935	-0.370	0.178
-358.610	57.559	-0.259	0.321
-357.596	93.645	0.211	-0.303
-356.581	203.250	0.043	-0.084
-355.566	522.179	-0.127	0.379
-354.552	-39.406	0.135	0.090
-353.537	127.659	-0.133	0.215
-352.523	130.978	-0.224	-0.365
-351.508	-200.000	-0.027	0.397
-350.493	800.000	0.030	0.164
-349.479	343.923	-0.076	-0.190
-348.464	-98.277	-0.269	0.087
-347.450	79.982	-0.135	-0.184
-346.435	-9.037	0.293	-0.249
-345.420	79.399	0.178	0.243
-344.406	-57.441	-0.103	-0.057
-343.391	-18.461	0.108	-0.085
-342.377	-41.888	-0.209	0.135
-341.362	-200.000	-0.003	0.484
-340.348	-200.000	-0.029	0.240
-339.333	-14.101	-0.068	0.056
-338.318	-99.121	-0.163	0.052
-337.304	-74.487	0.336	0.153
-336.289	-134.063	0.150	0.023
-335.275	287.335	0.167	-0.385
-334.260	-13.806	-0.461	0.377
-333.245	-111.471	0.478	-0.122
-332.231	-41.146	-0.196	-0.128
-331.216	800.000	0.129	-0.453
-330.202	-107.769	0.402	-0.110
-329.187	-83.195	-0.167	0.068
-328.172	-52.299	-0.289	-0.169
-327.158	21.874	0.026	-0.027
-326.143	9.912	0.398	-0.382
-325.129	187.664	0.205	0.388
-324.114	684.347	0.243	-0.808
-323.099	48.250	-0.133	-0.157
-322.085	-94.431	-0.376	0.129
-321.070	-200.000	0.007	0.175
-320.056	-200.000	-0.083	-0.574
-319.041	608.923	-0.091	-0.289
-318.026	40.586	-0.295	-0.337
-317.012	57.853	0.337	0.417
-315.997	-16.278	0.543	0.436
-314.983	-107.805	0.312	0.085
-313.968	-1.223	-0.167	0.149
-312.953	-85.181	0.204	-0.080
-311.939	800.000	0.147	-0.537
-310.924	-200.000	-0.035	0.340
-309.910	-182.938	-0.414	-0.009
-308.895	-177.397	0.287	0.009
-307.880	-103.077	-0.282	0.084
-306.866	2.606	0.032	0.029
-305.851	-0.355	-0.088	-0.079
-304.837	-26.013	0.316	-0.235
-303.822	-71.417	0.103	-0.048
-302.807	-117.298	0.134	0.031
-301.793	54.351	-0.256	0.312
-300.778	800.000	-0.067	-0.307
-299.764	-42.355	0.111	-0.072
-298.749	-200.000	-0.029	-0.286
-297.735	-8.090	0.135	-0.115
-296.720	-200.000	0.027	-0.171
-295.705	-33.745	-0.192	0.134
-294.691	800.000	0.019	0.080
-293.676	-200.000	-0.002	0.192
-292.662	106.255	0.192	0.288
-291.647	-200.000	-0.049	-0.485
-290.632	-200.000	-0.262	0.002
-289.618	12.077	0.299	0.291
-288.603	283.082	-0.045	-0.102
-287.589	370.699	-0.163	0.420
-286.574	39.283	0.127	-0.144
-285.559	-42.160	-0.371	-0.239
-284.545	-103.887	-0.257	0.075
-283.530	-115.827	0.215	0.050
-282.516	169.027	-0.343	-0.621
-281.501	-114.160	-0.187	0.045
-280.486	-106.144	-0.326	0.092
-279.472	-50.799	-0.483	-0.287
-278.457	460.498	0.085	0.239
-277.443	-20.160	-0.183	-0.143
-276.428	-17.941	0.065	0.051
-275.413	134.396	-0.117	0.192
-274.399	-70.844	0.155	0.073
-273.384	280.118	0.084	-0.191
-272.370	-24.432	0.204	-0.153
-271.355	-200.000	-0.001	-0.556
-270.340	-14.833	-0.240	-0.194
-269.326	-68.387	0.147	-0.072
-268.311	-25.182	0.405	-0.303
-267.297	-39.126	0.384	0.254
-266.282	-200.000	0.037	-0.328
-265.267	-104.291	0.180	-0.052
-264.253	147.558	0.225	-0.384
-263.238	-129.082	-0.266	0.046
-262.224	-141.069	-0.547	-0.070
-261.209	34.242	0.154	-0.170
-260.195	170.419	-0.157	0.285
-259.180	-42.976	-0.152	-0.097
-258.165	-152.965	0.342	-0.030
-257.151	121.400	0.276	0.436
-256.136	13.874	-0.429	-0.421
-255.122	-37.848	-0.320	0.215
-254.107	41.224	-0.245	0.280
-253.092	-112.038	-0.218	0.055
-252.078	17.312	-0.251	0.252
-251.063	-115.822	0.303	-0.071
-250.049	21.046	0.405	0.415
-249.034	-107.815	-0.486	0.133
-248.019	-29.274	0.627	0.452
-247.005	328.445	0.177	0.430
-245.990	-89.761	0.128	-0.047
-244.976	-200.000	-0.026	-0.411
-243.961	-62.460	-0.097	-0.051
-242.946	84.063	-0.252	0.348
-241.932	-50.122	0.130	-0.078
-240.917	-107.114	0.377	-0.104
-239.903	-78.371	-0.609	-0.262
-238.888	-1.943	0.138	0.123
-237.873	255.638	-0.134	0.291
-236.859	239.138	-0.144	0.303
-235.844	-8.054	0.442	0.376
-234.830	-200.000	-0.043	0.312
-233.815	-48.087	-0.076	-0.046
-232.800	-153.316	-0.558	0.048
-231.786	-138.490	0.111	0.015
-230.771	348.477	-0.150	0.375
-229.757	107.481	0.250	-0.376
-228.742	-105.294	-0.270	0.077
-227.727	-44.994	-0.270	0.169
-226.713	274.503	-0.288	-0.646
-225.698	308.012	0.125	0.296
-224.684	294.276	0.189	0.437
-223.669	-97.331	-0.069	0.023
-222.655	311.479	0.150	-0.355
-221.640	800.000	0.027	0.137
-220.625	-119.282	0.442	-0.096
-219.611	-157.753	0.182	-0.013
-218.596	129.949	-0.218	0.353
-217.582	-45.934	0.535	-0.332
-216.567	335.527	0.083	0.204
-215.552	-28.325	0.240	0.174
-214.538	-2.822	-0.078	-0.068
-213.523	200.154	0.209	-0.405
-212.509	76.208	0.304	0.406
-211.494	-133.626	0.341	0.053
-210.479	-125.833	-0.408	-0.077
-209.465	459.329	-0.104	-0.295
-208.450	16.285	-0.168	0.167
-207.436	18.901	-0.050	0.050
-206.421	800.000	0.084	-0.392
-205.406	703.390	0.075	0.249
-204.392	-125.396	-0.375	0.071
-203.377	107.562	0.058	-0.087
-202.363	-163.055	0.395	-0.024
-201.348	-200.000	0.027	-0.409
-200.333	-200.000	-0.013	0.103
-199.319	-94.527	-0.207	0.071
-198.304	-133.454	-0.219	-0.034
-197.290	-11.470	-0.050	0.041
-196.275	-116.341	-0.248	-0.057
-195.260	-200.000	0.044	0.421
-194.246	-67.715	-0.081	0.040
-193.231	-2.969	0.333	0.293
-192.217	-48.165	0.273	0.166
-191.202	-137.676	0.416	-0.058
-190.187	-135.956	0.148	-0.022
-189.173	-168.573	-0.406	0.019
-188.158	-133.337	-0.395	-0.062
-187.144	-68.956	-0.315	-0.152
-186.129	-94.958	-0.112	-0.038
-185.114	88.242	-0.203	0.285
-184.100	-162.673	0.128	0.008
-183.085	800.000	0.038	-0.185
-182.071	-21.856	-0.250	-0.191
-181.056	-28.583	-0.300	0.217
-180.042	347.502	0.199	-0.497
-179.027	82.464	-0.126	0.172
-178.012	800.000	-0.057	0.250
-176.998	23.361	-0.076	0.078
-175.983	-94.183	0.152	0.052
-174.969	20.656	-0.029	-0.029
-173.954	-14.695	-0.229	0.185
-172.939	-53.141	0.123	-0.071
-171.925	111.324	0.175	-0.266
-170.910	216.908	0.274	-0.551
-169.896	206.880	0.029	-0.057
-168.881	30.753	-0.151	0.162
-167.866	-200.000	-0.042	0.342
-166.852	250.023	0.231	0.495
-165.837	-27.665	-0.311	0.227
-164.823	109.382	0.249	-0.375
-163.808	-200.000	-0.003	-0.147
-162.793	-41.919	0.431	-0.277
-161.779	-53.551	0.212	0.122
-160.764	105.092	-0.062	0.092
-159.750	-39.129	-0.229	0.151
-158.735	483.309	-0.116	0.334
-157.720	161.745	-0.187	-0.331
-156.706	-200.000	0.006	0.122
-155.691	-200.000	0.034	0.444
-154.677	15.795	0.155	0.153
-153.662	800.000	0.030	-0.149
-152.647	-200.000	-0.032	-0.180
-151.633	96.373	0.103	0.148
-150.618	368.806	-0.196	0.501
-149.604	111.326	-0.034	0.052
-148.589	800.000	0.072	0.295
-147.574	406.111	0.168	0.449
-146.560	-112.751	-0.457	0.113
-145.545	274.436	0.076	-0.170
-144.531	78.127	0.320	0.429
-143.516	206.080	0.118	0.232
-142.502	-110.052	0.241	-0.063
-141.487	800.000	-0.122	-0.545
-140.472	256.738	0.045	-0.097
-139.458	-21.049	0.193	0.148
-138.443	34.620	0.459	0.504
-137.429	-20.763	0.487	0.375
-136.414	-49.767	0.236	0.141
-135.399	403.667	-0.114	-0.302
-134.385	800.000	-0.063	0.340
-133.370	-37.749	-0.330	0.220
-132.356	-75.925	0.239	0.106
-131.341	-168.433	-0.329	-0.016
-130.326	221.503	-0.124	0.251
-129.312	-107.283	-0.080	-0.022
-128.297	-119.136	0.107	-0.023
-127.283	69.156	-0.219	0.283
-126.268	269.465	0.139	0.308
-125.253	-174.553	0.263	0.009
-124.239	-145.682	-0.727	0.081
-123.224	-7.342	-0.246	0.209
-122.210	-139.655	0.112	-0.015
-121.195	-141.612	0.252	0.032
-120.180	121.280	0.033	0.052
