DTS Sentinel unit serial number:	SN409020Multiplexer serial number:	ORYXHardware model number:	OX4-SRSoftware version number:	ORYX F/W v3.00 Oryx Data Collector v3.7.2.0data status	okinstallation	HaddamTimeLapsedifferential loss correction	single-endedforward channel	channel 3reverse channel	N/Adate	2011/06/22time	07:51:16forward acquisition time	30.00reverse acquisition time	0.00gamma	498.7831k internal	0.1764k external	0.1764temperature offset calibration	1.0074default loss term (dB/km)	0.3790temperature slope calibration	1.3530multiplexer offset coefficient	1.0000multiplexer slope coefficient	1.0000fibre end	0.00T internal ref (°C)	24.22T ext. ref 1 (°C)	21.76T ext. ref 2 (°C)	0.15length (m)	temperature (°C)	Stokes	anti-Stokes-747.200	313.838	-0.063	0.157
-746.185	254.579	-0.194	0.440
-745.171	-8.399	0.225	0.199
-744.156	-103.057	0.232	0.072
-743.142	90.786	-0.076	-0.112
-742.127	-200.000	-0.097	0.000
-741.112	308.640	0.161	-0.397
-740.098	94.236	-0.016	0.024
-739.083	66.331	0.276	-0.370
-738.069	-6.332	0.400	0.360
-737.054	203.256	-0.248	-0.508
-736.039	-129.822	0.173	-0.031
-735.025	-21.253	-0.408	-0.328
-734.010	-112.870	-0.221	-0.057
-732.996	-52.373	-0.195	0.119
-731.981	-120.744	-0.163	0.036
-730.966	-200.000	-0.168	-0.001
-729.952	800.000	0.176	-0.667
-728.937	-148.102	0.252	-0.027
-727.923	200.344	-0.167	0.339
-726.908	357.309	0.148	0.391
-725.894	-106.892	0.062	0.018
-724.879	66.508	-0.247	-0.332
-723.864	278.302	0.181	-0.427
-722.850	-104.329	0.065	0.020
-721.835	-162.115	-0.710	-0.046
-720.821	382.227	-0.086	-0.234
-719.806	-200.000	-0.032	0.406
-718.791	-200.000	-0.068	0.591
-717.777	370.728	0.055	-0.148
-716.762	122.922	0.245	0.405
-715.748	800.000	-0.110	-0.496
-714.733	-12.576	-0.244	0.209
-713.718	-37.577	0.194	0.136
-712.704	-78.095	0.102	0.046
-711.689	-124.722	-0.309	0.062
-710.675	52.988	0.244	0.308
-709.660	800.000	0.055	-0.250
-708.645	10.208	0.197	0.198
-707.631	161.375	-0.150	0.276
-706.616	-200.000	0.011	-0.078
-705.602	-200.000	-0.053	-0.471
-704.587	144.849	-0.061	-0.108
-703.572	74.215	0.137	0.190
-702.558	-48.459	-0.230	0.145
-701.543	-47.333	-0.341	-0.218
-700.529	-70.790	-0.176	-0.087
-699.514	-59.158	0.318	-0.180
-698.499	-200.000	-0.042	-0.287
-697.485	150.440	0.112	0.200
-696.470	-73.654	-0.475	-0.227
-695.456	26.937	0.118	0.131
-694.441	-51.029	-0.377	-0.232
-693.426	-117.393	-0.370	-0.087
-692.412	800.000	0.061	0.321
-691.397	800.000	0.045	0.181
-690.383	448.932	0.049	-0.143
-689.368	76.040	0.209	-0.292
-688.354	-113.914	0.249	-0.063
-687.339	191.346	0.184	-0.366
-686.324	-134.599	-0.277	-0.044
-685.310	-84.430	0.267	-0.111
-684.295	-13.246	-0.112	0.095
-683.281	-133.889	-0.291	-0.047
-682.266	-200.000	0.033	0.546
-681.251	-78.075	0.485	0.219
-680.237	-11.305	-0.086	-0.074
-679.222	-114.838	0.106	-0.026
-678.208	-23.494	-0.380	0.300
-677.193	62.353	-0.446	-0.586
-676.178	-0.309	-0.157	0.146
-675.164	-124.178	0.475	0.097
-674.149	18.634	0.444	-0.467
-673.135	55.494	0.252	-0.321
-672.120	-166.815	-0.521	-0.028
-671.105	55.468	0.217	0.277
-670.091	-10.251	-0.034	-0.029
-669.076	-146.053	0.110	0.013
-668.062	-112.910	0.200	0.052
-667.047	-78.154	0.398	-0.179
-666.032	-107.626	0.152	-0.043
-665.018	52.207	0.232	-0.291
-664.003	800.000	0.031	-0.179
-662.989	-200.000	-0.001	0.564
-661.974	152.802	-0.243	0.438
-660.959	32.572	-0.230	-0.261
-659.945	154.852	-0.173	0.314
-658.930	-200.000	0.003	-0.291
-657.916	-41.569	-0.355	-0.239
-656.901	800.000	-0.037	-0.174
-655.886	235.458	-0.179	0.389
-654.872	-200.000	0.026	0.347
-653.857	181.126	0.073	0.141
-652.843	-105.461	-0.114	0.034
-651.828	-73.906	-0.388	-0.184
-650.814	-200.000	-0.031	0.200
-649.799	-125.585	0.585	-0.116
-648.784	-135.120	-0.310	-0.048
-647.770	228.938	0.063	0.135
-646.755	-158.715	-0.408	0.030
-645.741	788.868	-0.117	-0.426
-644.726	-110.064	-0.252	0.069
-643.711	-51.436	-0.079	-0.048
-642.697	47.215	0.170	-0.208
-641.682	245.738	0.192	-0.427
-640.668	-68.020	-0.692	-0.353
-639.653	234.839	-0.153	-0.333
-638.638	-57.189	0.371	0.214
-637.624	341.768	0.060	0.154
-636.609	-126.571	-0.390	0.075
-635.595	122.615	-0.133	0.218
-634.580	-54.972	-0.304	-0.179
-633.565	144.749	0.431	0.759
-632.551	-141.302	-0.756	0.100
-631.536	-49.907	0.259	0.161
-630.522	-95.685	0.213	-0.074
-629.507	-33.620	-0.358	-0.259
-628.492	-168.289	0.518	0.026
-627.478	-185.949	-0.266	-0.005
-626.463	199.231	-0.078	0.158
-625.449	-50.437	-0.137	-0.084
-624.434	16.216	-0.247	0.255
-623.419	-178.189	0.191	0.006
-622.405	675.200	0.225	-0.772
-621.390	179.501	-0.065	0.124
-620.376	99.184	0.097	0.147
-619.361	-75.064	0.098	-0.046
-618.346	-122.209	-0.063	0.013
-617.332	131.136	0.040	-0.067
-616.317	110.552	-0.328	0.519
-615.303	-72.415	-0.258	0.125
-614.288	800.000	-0.050	0.188
-613.273	304.287	0.038	-0.093
-612.259	-150.461	-0.132	0.013
-611.244	-200.000	-0.008	-0.106
-610.230	-10.543	-0.170	0.148
-609.215	-107.589	0.334	0.095
-608.201	-200.000	-0.003	0.194
-607.186	-57.326	0.422	-0.243
-606.171	-67.533	0.280	0.143
-605.157	-32.049	-0.225	-0.165
-604.142	-21.200	-0.091	-0.073
-603.128	-183.042	0.585	0.013
-602.113	270.029	0.123	-0.285
-601.098	10.180	0.064	-0.063
-600.084	-82.211	0.210	0.089
-599.069	301.137	-0.103	-0.251
-598.055	774.194	-0.048	-0.173
-597.040	-93.725	0.200	-0.072
-596.025	-169.983	-0.262	-0.012
-595.011	-101.395	-0.159	-0.050
-593.996	800.000	0.031	-0.168
-592.982	29.764	-0.169	0.188
-591.967	98.472	-0.100	-0.151
-590.952	236.101	-0.105	0.228
-589.938	-34.863	0.539	0.385
-588.923	-35.474	-0.209	0.148
-587.909	52.633	-0.204	-0.255
-586.894	304.878	0.110	-0.268
-585.879	182.857	-0.135	-0.261
-584.865	-121.413	-0.359	0.078
-583.850	30.789	-0.231	-0.259
-582.836	-89.780	-0.198	0.076
-581.821	122.219	0.065	-0.106
-580.806	460.401	-0.148	0.435
-579.792	-21.531	-0.205	-0.164
-578.777	-142.848	-0.171	-0.022
-577.763	-102.227	0.219	0.069
-576.748	-200.000	0.068	0.413
-575.733	121.767	0.208	-0.341
-574.719	800.000	-0.064	-0.350
-573.704	-138.979	-0.433	0.061
-572.690	-165.389	-0.190	0.011
-571.675	-82.509	-0.433	0.183
-570.661	94.756	-0.117	-0.174
-569.646	402.223	0.092	0.255
-568.631	800.000	-0.090	0.417
-567.617	800.000	0.094	-0.542
-566.602	-200.000	0.027	-0.221
-565.588	400.250	-0.039	-0.109
-564.573	-120.471	0.240	0.053
-563.558	5.039	0.263	0.253
-562.544	402.120	0.066	-0.183
-561.529	50.063	-0.369	0.456
-560.515	452.075	0.085	-0.249
-559.500	800.000	0.031	-0.119
-558.485	-7.546	-0.082	-0.072
-557.471	207.897	-0.118	0.241
-556.456	189.936	-0.206	-0.407
-555.442	136.116	0.077	0.131
-554.427	571.742	-0.109	0.348
-553.412	-124.760	0.470	-0.094
-552.398	366.192	0.154	0.409
-551.383	-21.619	-0.536	-0.427
-550.369	129.631	0.218	-0.365
-549.354	21.211	0.263	-0.280
-548.339	-200.000	-0.037	-0.291
-547.325	32.064	0.414	-0.467
-546.310	47.044	-0.360	-0.439
-545.296	172.793	-0.152	-0.288
-544.281	24.502	-0.152	-0.164
-543.266	64.879	0.269	-0.355
-542.252	-2.305	-0.135	-0.124
-541.237	12.349	-0.327	0.329
-540.223	-145.635	0.475	-0.055
-539.208	-149.509	0.129	-0.013
-538.193	314.254	-0.010	0.024
-537.179	16.113	0.314	0.323
-536.164	3.371	0.258	-0.246
-535.150	-90.382	-0.434	-0.164
-534.135	469.750	-0.055	0.163
-533.121	-200.000	0.011	0.074
-532.106	-87.079	-0.325	-0.129
-531.091	800.000	0.085	-0.391
-530.077	196.728	0.177	0.353
-529.062	79.214	0.044	-0.062
-528.048	-10.397	0.586	0.508
-527.033	-200.000	0.013	0.330
-526.018	-92.881	-0.478	-0.174
-525.004	-62.211	0.333	0.181
-523.989	-62.443	0.165	-0.089
-522.975	-148.988	-0.070	-0.007
-521.960	35.551	-0.265	0.304
-520.945	-177.127	-0.503	0.016
-519.931	10.011	-0.222	-0.220
-518.916	-70.526	0.692	-0.341
-517.902	-122.334	0.411	-0.087
-516.887	-200.000	-0.002	0.255
-515.872	-111.383	-0.040	-0.010
-514.858	-98.581	0.330	-0.110
-513.843	195.210	-0.049	0.097
-512.829	-86.744	-0.224	0.089
-511.814	19.251	-0.244	0.256
-510.799	-111.824	-0.181	-0.047
-509.785	-47.327	0.335	0.212
-508.770	-175.799	-0.451	-0.016
-507.756	-74.440	-0.576	0.270
-506.741	-23.575	-0.154	0.120
-505.726	15.935	0.245	0.252
-504.712	460.212	-0.063	0.185
-503.697	-118.178	0.295	-0.068
-502.683	-22.595	-0.237	0.187
-501.668	-73.882	0.288	0.136
-500.653	-42.662	-0.223	-0.148
-499.639	613.025	0.202	-0.663
-498.624	-129.002	0.428	0.078
-497.610	-160.069	0.359	-0.025
-496.595	500.154	0.141	-0.426
-495.581	66.538	-0.159	0.211
-494.566	800.000	-0.098	-0.419
-493.551	417.457	0.103	0.288
-492.537	-200.000	-0.002	-0.176
-491.522	129.915	0.081	-0.136
-490.508	482.077	-0.052	0.156
-489.493	-36.456	-0.283	-0.199
-488.478	-151.493	0.275	0.026
-487.464	242.799	-0.059	0.129
-486.449	17.170	0.232	0.240
-485.435	290.095	0.211	0.503
-484.420	-172.844	0.205	0.008
-483.405	-89.664	-0.055	0.021
-482.391	-200.000	-0.006	0.047
-481.376	-37.618	0.254	-0.176
-480.362	-135.242	-0.413	-0.064
-479.347	-99.988	-0.307	0.099
-478.332	119.557	-0.126	-0.205
-477.318	-167.537	-0.401	-0.021
-476.303	-185.970	-0.217	0.004
-475.289	115.307	0.219	0.350
-474.274	-99.359	0.481	0.157
-473.259	129.099	-0.188	0.314
-472.245	32.812	0.218	-0.247
-471.230	-113.588	0.598	-0.151
-470.216	115.392	0.112	0.180
-469.201	5.896	0.204	-0.197
-468.186	-110.933	-0.312	0.083
-467.172	-150.239	0.249	-0.025
-466.157	-200.000	0.011	-0.446
-465.143	337.850	0.081	-0.206
-464.128	89.455	0.187	0.272
-463.113	-53.715	-0.259	0.154
-462.099	197.854	-0.169	-0.337
-461.084	-200.000	0.012	0.379
-460.070	-200.000	-0.002	0.118
-459.055	-18.020	-0.387	-0.315
-458.040	-200.000	-0.025	0.216
-457.026	-3.792	0.255	0.231
-456.011	800.000	0.095	0.488
-454.997	-49.572	0.263	0.163
-453.982	-170.319	0.244	0.011
-452.968	-188.639	-0.301	-0.005
-451.953	7.546	0.189	-0.184
-450.938	227.228	0.101	-0.215
-449.924	800.000	0.018	0.092
-448.909	129.036	-0.203	-0.338
-447.895	-67.711	0.113	0.057
-446.880	800.000	0.128	0.486
-445.865	-200.000	0.002	0.261
-444.851	117.496	0.204	0.328
-443.836	-84.754	0.498	-0.203
-442.822	-155.922	-0.288	-0.024
-441.807	228.795	0.176	-0.376
-440.792	-72.944	0.233	-0.111
-439.778	-59.147	-0.284	-0.159
-438.763	800.000	-0.032	-0.175
-437.749	7.729	-0.229	-0.223
-436.734	-55.923	-0.299	0.173
-435.719	44.373	0.005	-0.006
-434.705	-6.568	0.161	0.143
-433.690	-124.021	0.753	-0.153
-432.676	-34.776	-0.369	-0.262
-431.661	582.411	0.051	0.163
-430.646	-200.000	-0.045	0.486
-429.632	1.338	0.302	0.283
-428.617	-200.000	-0.120	0.747
-427.603	-48.122	-0.323	0.203
-426.588	-142.320	-0.257	0.033
-425.573	-120.623	-0.166	-0.036
-424.559	-126.161	-0.353	-0.068
-423.544	-14.301	-0.143	0.120
-422.530	63.829	0.189	-0.248
-421.515	-68.707	0.332	-0.167
-420.500	-200.000	0.006	0.255
-419.486	-6.083	-0.366	0.325
-418.471	800.000	-0.105	-0.404
-417.457	800.000	0.092	-0.435
-416.442	-139.229	-0.333	0.046
-415.428	800.000	0.045	-0.237
-414.413	-56.899	0.490	-0.281
-413.398	-64.932	0.095	-0.050
-412.384	-21.949	-0.097	-0.077
-411.369	53.793	0.166	0.207
-410.355	577.895	0.072	0.231
-409.340	-200.000	0.014	0.146
-408.325	-9.011	-0.243	-0.211
-407.311	155.954	0.136	0.244
-406.296	-200.000	0.038	0.770
-405.282	406.808	0.177	0.489
-404.267	800.000	0.048	-0.265
-403.252	-47.493	0.599	-0.378
-402.238	313.546	0.156	-0.384
-401.223	800.000	-0.066	0.321
-400.209	-16.368	0.178	0.147
-399.194	-200.000	-0.023	-0.438
-398.179	199.527	-0.154	0.309
-397.165	-33.250	0.063	-0.045
-396.150	-200.000	0.018	-0.599
-395.136	455.206	0.093	0.269
-394.121	128.086	-0.046	0.076
-393.106	-91.424	-0.082	0.030
-392.092	185.492	-0.037	-0.072
-391.077	-101.920	0.395	0.123
-390.063	38.097	0.042	-0.048
-389.048	0.981	0.066	-0.061
-388.033	23.147	0.318	0.339
-387.019	-144.474	0.377	0.045
-386.004	-11.014	-0.178	0.153
-384.990	203.059	-0.122	-0.246
-383.975	-23.396	0.203	0.159
-382.960	730.343	-0.084	0.294
-381.946	-29.962	0.253	0.187
-380.931	-80.173	0.147	0.064
-379.917	-19.039	0.260	0.210
-378.902	-63.535	-0.188	0.100
-377.888	-113.211	0.357	0.091
-376.873	59.502	0.138	0.178
-375.858	-30.281	0.436	0.321
-374.844	-86.366	0.345	0.137
-373.829	23.164	-0.196	-0.209
-372.815	-31.320	0.690	0.504
-371.800	-116.665	0.217	0.051
-370.785	-15.281	0.143	0.119
-369.771	357.434	-0.076	0.198
-368.756	383.426	-0.117	0.315
-367.742	-80.510	-0.085	-0.037
-366.727	-93.851	-0.071	0.025
-365.712	-117.029	0.221	-0.052
-364.698	800.000	0.040	0.178
-363.683	800.000	-0.070	-0.352
-362.669	-6.602	0.181	0.160
-361.654	55.274	0.117	0.147
-360.639	-127.333	0.228	0.043
-359.625	-40.658	-0.143	-0.096
-358.610	165.409	0.182	-0.335
-357.596	-143.839	-0.077	-0.009
-356.581	-66.816	0.105	-0.054
-355.566	165.707	-0.176	-0.325
-354.552	-89.351	0.189	-0.072
-353.537	123.904	-0.091	0.149
-352.523	-154.716	-0.286	0.024
-351.508	-200.000	-0.023	-0.300
-350.493	-95.800	-0.377	0.130
-349.479	-200.000	0.025	-0.729
-348.464	-200.000	-0.079	-0.485
-347.450	-33.503	0.138	0.099
-346.435	-112.030	0.309	0.080
-345.420	-54.167	0.225	-0.132
-344.406	-65.837	0.124	0.064
-343.391	138.665	0.138	-0.236
-342.377	-9.516	0.193	0.167
-341.362	129.604	0.132	0.219
-340.348	-117.910	-0.282	0.065
-339.333	-25.063	-0.258	0.199
-338.318	521.568	0.084	0.257
-337.304	-8.446	-0.132	0.115
-336.289	-30.929	-0.273	-0.200
-335.275	-141.125	-0.191	-0.025
-334.260	-169.989	-0.438	-0.020
-333.245	91.528	-0.500	-0.730
-332.231	-0.117	0.075	-0.069
-331.216	-88.970	-0.156	-0.060
-330.202	-28.092	0.036	0.027
-329.187	-89.826	0.372	0.140
-328.172	0.402	0.186	0.172
-327.158	26.216	-0.394	-0.427
-326.143	182.448	-0.330	0.633
-325.129	-38.441	0.329	0.225
-324.114	579.302	0.145	0.461
-323.099	280.438	0.068	-0.157
-322.085	29.992	-0.310	-0.343
-321.070	-63.094	-0.676	-0.361
-320.056	-69.073	-0.301	0.150
-319.041	-107.868	-0.672	-0.188
-318.026	26.234	-0.235	-0.254
-317.012	-200.000	0.013	0.320
-315.997	4.117	0.311	0.295
-314.983	-200.000	-0.022	0.149
-313.968	77.843	0.338	0.468
-312.953	201.693	-0.088	0.177
-311.939	-35.780	-0.472	-0.331
-310.924	397.970	-0.157	0.429
-309.910	-33.708	-0.097	-0.070
-308.895	-187.720	0.442	-0.007
-307.880	339.301	0.282	-0.717
-306.866	-112.305	-0.432	0.111
-305.851	125.118	0.149	0.244
-304.837	205.623	0.118	0.239
-303.822	-93.934	-0.136	0.048
-302.807	-156.011	0.265	0.021
-301.793	1.508	-0.057	-0.053
-300.778	-107.567	0.235	0.066
-299.764	800.000	-0.076	-0.359
-298.749	291.721	-0.171	0.405
-297.735	225.909	0.278	0.586
-296.720	-29.735	0.126	0.093
-295.705	-128.926	0.290	-0.052
-294.691	-19.058	-0.506	-0.407
-293.676	657.748	0.021	0.070
-292.662	272.985	-0.158	-0.364
-291.647	-200.000	0.060	-0.622
-290.632	262.783	0.114	-0.258
-289.618	68.784	-0.240	-0.319
-288.603	25.525	-0.115	0.124
-287.589	-84.675	-0.143	-0.058
-286.574	-27.641	0.129	0.097
-285.559	800.000	0.049	-0.241
-284.545	-100.017	-0.520	-0.167
-283.530	-98.384	-0.278	-0.092
-282.516	-200.000	-0.012	0.224
-281.501	88.923	0.107	0.154
-280.486	306.295	0.076	0.183
-279.472	-45.080	0.313	0.201
-278.457	488.874	0.037	0.111
-277.443	229.262	-0.138	0.292
-276.428	800.000	-0.058	0.242
-275.413	-200.000	-0.012	0.103
-274.399	295.804	-0.050	-0.119
-273.384	-19.045	0.316	-0.254
-272.370	-147.445	-0.162	0.018
-271.355	-200.000	-0.047	0.283
-270.340	181.794	-0.070	0.133
-269.326	-126.640	0.594	0.113
-268.311	270.703	0.045	0.103
-267.297	144.917	-0.091	-0.158
-266.282	-108.394	0.179	-0.050
-265.267	164.487	-0.029	-0.053
-264.253	-136.640	0.100	-0.015
-263.238	-200.000	-0.045	-0.349
-262.224	-129.786	0.103	-0.018
-261.209	136.446	0.197	0.334
-260.195	671.746	0.102	-0.343
-259.180	-19.427	-0.335	0.269
-258.165	-131.719	0.178	-0.030
-257.151	-39.426	0.086	0.058
-256.136	-49.553	0.180	-0.111
-255.122	540.938	-0.070	0.218
-254.107	67.157	-0.176	0.232
-253.092	-171.814	-0.167	-0.007
-252.078	-162.817	-0.277	-0.017
-251.063	473.484	0.046	0.135
-250.049	-49.749	-0.444	0.272
-249.034	29.579	-0.177	-0.194
-248.019	-200.000	0.043	0.277
-247.005	-144.183	0.085	0.010
-245.990	-184.777	-0.332	-0.007
-244.976	-40.704	0.260	0.174
-243.961	-118.913	-0.270	-0.061
-242.946	-175.853	-0.159	0.005
-241.932	-136.125	-0.248	-0.037
-240.917	15.691	-0.543	-0.552
-239.903	-51.911	-0.293	-0.176
-238.888	672.991	0.173	-0.583
-237.873	218.211	-0.120	0.249
-236.859	-55.861	-0.224	-0.129
-235.844	-28.088	-0.256	0.191
-234.830	-6.659	-0.175	-0.154
-233.815	-200.000	0.090	-0.653
-232.800	-95.283	-0.419	-0.145
-231.786	109.628	0.143	-0.222
-230.771	25.494	0.241	-0.259
-229.757	96.364	0.059	0.087
-228.742	800.000	-0.066	0.368
-227.727	165.566	-0.335	-0.613
-226.713	-200.000	0.033	-0.420
-225.698	-31.232	0.181	0.132
-224.684	-200.000	0.010	0.176
-223.669	777.636	0.151	-0.538
-222.655	-18.749	0.426	-0.342
-221.640	-22.466	0.347	-0.271
-220.625	-200.000	0.057	0.527
-219.611	800.000	-0.019	-0.077
-218.596	-64.285	-0.275	-0.144
-217.582	264.344	-0.091	0.204
-216.567	147.731	-0.032	-0.055
-215.552	-144.617	0.126	0.015
-214.538	-95.734	0.106	0.037
-213.523	29.264	0.492	-0.540
-212.509	-16.796	-0.228	0.186
-211.494	207.731	0.037	0.075
-210.479	730.709	-0.137	0.476
-209.465	286.381	0.184	0.431
-208.450	32.328	-0.310	-0.346
-207.436	-150.655	0.263	0.026
-206.421	-99.358	-0.147	0.047
-205.406	64.282	0.172	0.224
-204.392	-200.000	-0.000	0.062
-203.377	176.680	-0.056	-0.106
-202.363	25.575	-0.329	-0.353
-201.348	-153.733	0.234	0.020
-200.333	-114.679	0.521	0.128
-199.319	-32.713	0.383	0.274
-198.304	410.066	-0.098	0.271
-197.290	-137.518	-0.200	0.029
-196.275	56.043	0.271	-0.339
-195.260	319.139	0.223	-0.548
-194.246	112.932	-0.081	0.127
-193.231	-200.000	-0.011	0.300
-192.217	800.000	-0.054	0.273
-191.202	663.710	-0.113	-0.378
-190.187	5.439	-0.269	0.256
-189.173	-101.930	-0.555	0.172
-188.158	-24.173	-0.068	0.052
-187.144	302.326	0.034	0.082
-186.129	93.051	-0.259	0.378
-185.114	-7.510	-0.081	-0.071
-184.100	32.331	-0.385	0.429
-183.085	-41.805	0.536	-0.354
-182.071	-150.056	0.357	0.035
-181.056	17.792	0.441	0.453
-180.042	301.761	-0.036	-0.087
-179.027	136.942	0.222	-0.375
-178.012	81.522	0.148	0.207
-176.998	-35.617	-0.113	0.079
-175.983	41.572	-0.127	0.149
-174.969	-70.847	-0.206	0.100
-173.954	158.754	0.116	-0.208
-172.939	48.331	0.379	-0.458
-171.925	-92.310	0.057	-0.021
-170.910	151.036	-0.205	-0.361
-169.896	169.205	-0.137	0.252
-168.881	-38.891	-0.199	0.135
-167.866	238.217	0.075	-0.161
-166.852	-21.767	0.234	0.183
-165.837	-156.073	0.243	0.020
-164.823	800.000	-0.129	0.546
-163.808	9.446	-0.116	-0.113
-162.793	800.000	0.050	0.223
-161.779	-136.541	0.093	-0.014
-160.764	-200.000	0.012	-0.179
-159.750	-39.841	-0.493	0.331
-158.735	-200.000	0.015	-0.184
-157.720	230.357	-0.302	-0.639
-156.706	-109.648	-0.213	0.057
-155.691	4.035	-0.279	-0.263
-154.677	91.530	-0.113	0.165
-153.662	-23.291	0.380	-0.294
-152.647	-85.160	0.053	-0.021
-151.633	63.839	0.156	-0.202
-150.618	235.080	-0.048	-0.102
-149.604	-200.000	-0.001	-0.163
-148.589	-146.977	-0.102	-0.011
-147.574	88.574	-0.124	-0.178
-146.560	-200.000	-0.001	-0.156
-145.545	-122.892	0.561	0.116
-144.531	56.237	0.164	-0.205
-143.516	0.186	0.254	0.233
-142.502	-200.000	0.071	0.611
-141.487	-98.942	-0.407	-0.132
-140.472	211.776	0.220	-0.448
-139.458	-71.312	0.270	0.130
-138.443	-113.760	0.567	-0.141
-137.429	-144.785	-0.706	-0.083
-136.414	-36.609	-0.316	-0.218
-135.399	-200.000	0.026	-0.333
-134.385	-36.959	0.296	0.204
-133.370	-171.826	-0.271	-0.011
-132.356	800.000	0.024	0.096
-131.341	25.872	0.317	-0.340
-130.326	-124.960	-0.488	-0.096
-129.312	-102.260	-0.091	-0.028
-128.297	-132.054	0.644	0.107
-127.283	800.000	0.062	-0.312
-126.268	-75.174	-0.289	0.132
-125.253	-57.460	0.331	-0.186
-124.239	800.000	0.058	0.324
-123.224	-114.477	0.256	0.063
-122.210	-31.942	-0.116	-0.084
-121.195	800.000	0.033	-0.169
