DTS Sentinel unit serial number:	SN409020Multiplexer serial number:	ORYXHardware model number:	OX4-SRSoftware version number:	ORYX F/W v3.00 Oryx Data Collector v3.7.2.0data status	okinstallation	HaddamTimeLapsedifferential loss correction	single-endedforward channel	channel 3reverse channel	N/Adate	2011/06/21time	20:41:17forward acquisition time	30.00reverse acquisition time	0.00gamma	498.7831k internal	0.1773k external	0.1773temperature offset calibration	1.0074default loss term (dB/km)	0.3790temperature slope calibration	1.3530multiplexer offset coefficient	1.0000multiplexer slope coefficient	1.0000fibre end	0.00T internal ref (°C)	29.22T ext. ref 1 (°C)	21.45T ext. ref 2 (°C)	0.02length (m)	temperature (°C)	Stokes	anti-Stokes-747.200	-98.366	-0.473	-0.158
-746.185	30.439	0.148	0.166
-745.171	-69.966	-0.494	0.246
-744.156	291.793	-0.114	-0.273
-743.142	388.699	0.134	-0.367
-742.127	218.460	0.151	0.317
-741.112	-84.969	-0.079	0.032
-740.098	97.650	-0.143	0.216
-739.083	-116.018	0.101	0.025
-738.069	155.834	0.347	0.628
-737.054	-122.384	-0.402	0.085
-736.039	-200.000	0.045	-0.264
-735.025	74.568	-0.027	0.037
-734.010	-200.000	0.045	0.489
-732.996	0.596	0.263	0.247
-731.981	-141.355	0.282	0.037
-730.966	31.846	0.372	0.420
-729.952	521.689	-0.122	-0.379
-728.937	800.000	0.045	0.188
-727.923	535.847	-0.110	0.344
-726.908	-7.190	-0.222	-0.197
-725.894	10.776	0.337	0.337
-724.879	800.000	-0.052	-0.201
-723.864	639.935	0.019	0.063
-722.850	-67.537	-0.594	0.304
-721.835	-171.854	-0.284	-0.012
-720.821	-200.000	-0.006	-0.100
-719.806	42.908	-0.225	-0.269
-718.791	-105.176	0.250	-0.074
-717.777	-123.554	-0.296	0.061
-716.762	800.000	0.067	-0.356
-715.748	18.847	0.384	0.403
-714.733	-69.102	0.340	-0.171
-713.718	-18.847	0.081	-0.066
-712.704	-135.091	-0.327	-0.051
-711.689	-108.723	0.352	-0.098
-710.675	-25.574	-0.160	-0.123
-709.660	17.703	-0.177	-0.185
-708.645	71.712	0.006	0.008
-707.631	-24.913	-0.334	0.260
-706.616	-15.156	0.117	0.098
-705.602	76.562	0.130	0.181
-704.587	-67.027	0.413	0.213
-703.572	-200.000	-0.006	-0.211
-702.558	-173.635	0.211	0.008
-701.543	800.000	-0.008	-0.031
-700.529	-44.179	-0.387	0.254
-699.514	800.000	-0.061	-0.335
-698.499	-200.000	0.025	0.180
-697.485	-61.114	0.459	-0.253
-696.470	-200.000	0.031	0.341
-695.456	-57.971	-0.235	-0.134
-694.441	-200.000	-0.086	0.535
-693.426	-58.023	-0.162	-0.093
-692.412	-102.390	0.148	0.046
-691.397	-136.465	-0.477	0.072
-690.383	-200.000	0.039	0.238
-689.368	800.000	0.106	-0.453
-688.354	-11.659	0.105	-0.090
-687.339	-192.258	-0.308	-0.004
-686.324	32.941	-0.282	-0.319
-685.310	716.242	-0.088	0.308
-684.295	75.067	-0.061	-0.085
-683.281	800.000	-0.092	0.428
-682.266	168.381	-0.083	0.154
-681.251	285.803	0.094	-0.222
-680.237	-95.952	-0.244	-0.084
-679.222	800.000	0.088	0.336
-678.208	10.778	0.090	-0.090
-677.193	127.269	0.279	-0.465
-676.178	800.000	0.051	-0.274
-675.164	-155.514	-0.602	0.050
-674.149	-64.598	-0.389	-0.206
-673.135	-91.179	0.284	0.106
-672.120	800.000	-0.031	0.154
-671.105	-125.449	-0.348	-0.069
-670.091	-141.107	-0.188	0.025
-669.076	-132.973	0.333	-0.055
-668.062	-97.178	0.480	-0.163
-667.047	-200.000	-0.010	0.098
-666.032	-200.000	0.003	0.083
-665.018	280.041	0.258	0.606
-664.003	239.319	0.096	-0.210
-662.989	-96.025	-0.183	-0.063
-661.974	203.618	0.116	-0.236
-660.959	-70.194	-0.158	0.078
-659.945	-96.304	0.087	-0.030
-658.930	-163.277	0.420	0.026
-657.916	-34.199	0.261	0.187
-656.901	285.334	0.147	-0.348
-655.886	78.214	0.220	0.308
-654.872	-200.000	0.048	-0.311
-653.857	-200.000	-0.150	-0.000
-652.843	4.061	-0.074	0.071
-651.828	248.798	-0.191	-0.425
-650.814	800.000	-0.016	0.079
-649.799	-200.000	0.007	-0.230
-648.784	-200.000	0.018	-0.486
-647.770	-3.994	0.219	-0.199
-646.755	-91.614	0.048	0.018
-645.741	19.283	-0.448	-0.470
-644.726	-1.467	0.190	-0.175
-643.711	-102.483	-0.523	-0.163
-642.697	-1.675	-0.357	0.328
-641.682	62.807	-0.182	0.238
-640.668	-115.512	0.308	0.075
-639.653	65.326	0.148	0.196
-638.638	538.602	-0.134	-0.420
-637.624	-135.048	0.260	-0.040
-636.609	212.660	-0.101	0.209
-635.595	-81.631	-0.383	0.164
-634.580	-160.611	0.474	-0.033
-633.565	-200.000	0.015	-0.165
-632.551	127.562	-0.246	-0.408
-631.536	-109.313	-0.293	-0.080
-630.522	-49.581	0.253	-0.157
-629.507	-200.000	0.046	-0.504
-628.492	196.509	0.285	-0.570
-627.478	63.152	-0.219	-0.287
-626.463	717.047	0.063	0.221
-625.449	68.785	0.159	-0.213
-624.434	800.000	-0.043	0.245
-623.419	435.705	-0.012	-0.034
-622.405	615.423	-0.128	0.423
-621.390	383.356	0.081	0.220
-620.376	800.000	0.137	0.517
-619.361	163.632	-0.261	0.481
-618.346	-140.314	-0.347	-0.047
-617.332	-161.622	-0.094	-0.006
-616.317	36.591	0.296	-0.341
-615.303	-144.450	0.350	0.042
-614.288	-200.000	-0.002	0.093
-613.273	377.928	0.128	-0.344
-612.259	-10.080	0.330	-0.286
-611.244	-150.096	0.544	-0.054
-610.230	-200.000	0.013	0.189
-609.215	-81.329	-0.224	0.096
-608.201	217.471	0.150	-0.312
-607.186	-53.331	-0.489	-0.292
-606.171	-14.545	-0.030	-0.025
-605.157	24.975	-0.530	-0.574
-604.142	-96.931	-0.615	0.209
-603.128	-200.000	-0.016	0.139
-602.113	-176.277	-0.259	-0.009
-601.098	-200.000	-0.017	0.656
-600.084	100.628	-0.140	0.212
-599.069	-126.615	0.127	-0.024
-598.055	-102.618	0.335	-0.104
-597.040	230.147	-0.077	-0.166
-596.025	-167.941	-0.437	-0.022
-595.011	-97.168	-0.412	-0.140
-593.996	-96.107	-0.636	-0.219
-592.982	-134.442	0.277	0.044
-591.967	-107.145	0.352	0.101
-590.952	-140.790	-0.548	-0.073
-589.938	408.918	-0.180	-0.499
-588.923	-144.567	0.143	-0.017
-587.909	-119.190	-0.099	0.022
-586.894	-61.979	-0.474	-0.257
-585.879	-102.675	0.257	-0.079
-584.865	-200.000	-0.005	0.252
-583.850	486.390	-0.046	0.137
-582.836	-98.792	-0.040	0.013
-581.821	-58.952	-0.376	-0.211
-580.806	391.816	-0.138	0.375
-579.792	-106.809	0.262	0.075
-578.777	-69.365	0.314	-0.156
-577.763	121.561	0.101	-0.165
-576.748	59.728	-0.342	-0.441
-575.733	418.694	0.044	0.124
-574.719	-200.000	-0.013	0.119
-573.704	159.730	0.224	-0.408
-572.690	-94.397	0.357	0.126
-571.675	-124.841	-0.520	0.104
-570.661	-200.000	0.052	-0.373
-569.646	119.098	0.084	0.136
-568.631	-50.212	0.258	-0.159
-567.617	-20.246	0.055	-0.044
-566.602	278.925	0.066	-0.154
-565.588	-121.955	0.096	-0.020
-564.573	-4.555	0.189	-0.170
-563.558	-84.103	-0.299	0.123
-562.544	740.463	-0.036	0.127
-561.529	-4.929	-0.315	-0.282
-560.515	-164.871	0.266	-0.015
-559.500	-27.250	0.167	0.126
-558.485	776.408	-0.057	0.204
-557.471	200.995	0.213	0.428
-556.456	-200.000	0.000	-0.184
-555.442	-59.371	-0.358	-0.200
-554.427	-200.000	-0.007	-0.227
-553.412	-44.416	0.119	-0.077
-552.398	-153.307	-0.101	-0.009
-551.383	800.000	-0.046	0.261
-550.369	-17.738	-0.488	-0.398
-549.354	123.427	-0.095	-0.155
-548.339	146.493	-0.119	-0.208
-547.325	-68.285	0.112	0.057
-546.310	-200.000	-0.002	-0.592
-545.296	-200.000	0.014	-0.560
-544.281	404.392	0.159	-0.437
-543.266	-52.896	0.140	0.084
-542.252	-200.000	0.047	-0.417
-541.237	-96.666	-0.404	-0.138
-540.223	-93.299	-0.351	-0.126
-539.208	-200.000	0.056	0.330
-538.193	-200.000	-0.019	-0.444
-537.179	-101.280	0.401	-0.127
-536.164	33.846	-0.107	-0.121
-535.150	-200.000	-0.090	-0.582
-534.135	-54.953	0.103	0.060
-533.121	800.000	0.031	-0.171
-532.106	-128.345	0.484	0.089
-531.091	-75.166	-0.286	0.133
-530.077	425.282	-0.041	-0.114
-529.062	-200.000	0.005	-0.084
-528.048	-10.777	0.181	-0.156
-527.033	212.719	-0.157	0.323
-526.018	-189.278	-0.409	0.006
-525.004	-50.683	0.119	0.073
-523.989	68.360	-0.252	0.336
-522.975	-17.806	0.103	-0.084
-521.960	166.769	0.062	-0.115
-520.945	-52.034	0.315	-0.190
-519.931	-167.984	0.083	0.004
-518.916	800.000	-0.071	-0.313
-517.902	-137.513	0.782	0.114
-516.887	-34.194	0.240	-0.171
-515.872	266.015	0.108	0.246
-514.858	250.928	-0.152	-0.336
-513.843	460.747	0.140	0.409
-512.829	99.074	0.190	-0.286
-511.814	800.000	-0.145	-0.527
-510.799	-147.693	0.276	-0.030
-509.785	800.000	-0.113	-0.460
-508.770	800.000	0.108	-0.458
-507.756	800.000	-0.145	0.666
-506.741	27.422	0.113	-0.124
-505.726	-93.339	-0.123	-0.044
-504.712	180.276	0.107	-0.204
-503.697	310.031	-0.137	-0.334
-502.683	100.779	0.203	-0.307
-501.668	-73.172	-0.326	0.155
-500.653	219.096	0.153	-0.319
-499.639	-100.987	0.189	-0.060
-498.624	26.849	0.231	-0.251
-497.610	-119.007	-0.255	0.058
-496.595	37.410	-0.258	0.298
-495.581	-95.423	0.803	-0.279
-494.566	468.410	-0.060	0.176
-493.551	-149.399	-0.167	0.017
-492.537	37.737	-0.237	-0.273
-491.522	720.050	0.102	-0.353
-490.508	26.583	0.300	-0.326
-489.493	163.956	-0.264	0.484
-488.478	15.803	0.117	0.120
-487.464	-0.807	-0.299	0.275
-486.449	-137.625	-0.222	-0.032
-485.435	-72.433	0.456	0.218
-484.420	82.056	-0.086	0.122
-483.405	227.219	0.333	0.705
-482.391	-200.000	0.020	0.128
-481.376	800.000	-0.007	0.032
-480.362	-29.185	0.259	0.192
-479.347	-96.689	0.148	-0.050
-478.332	220.579	-0.056	-0.116
-477.318	800.000	-0.043	0.210
-476.303	9.626	0.250	-0.246
-475.289	74.845	0.142	0.194
-474.274	-20.069	-0.226	-0.181
-473.259	94.307	-0.304	0.449
-472.245	-47.842	0.144	0.090
-471.230	-200.000	-0.021	0.218
-470.216	-16.896	0.289	0.237
-469.201	555.010	0.160	0.503
-468.186	-38.712	-0.451	0.309
-467.172	65.806	-0.214	0.281
-466.157	-169.700	-0.272	0.013
-465.143	-30.616	0.183	0.134
-464.128	800.000	-0.037	0.201
-463.113	7.438	-0.206	0.200
-462.099	23.408	-0.183	0.195
-461.084	-127.164	-0.269	0.051
-460.070	-101.680	0.360	-0.112
-459.055	40.115	0.154	-0.180
-458.040	119.370	0.096	0.154
-457.026	-200.000	-0.010	0.166
-456.011	-191.694	0.285	-0.004
-454.997	-61.160	0.207	-0.113
-453.982	326.810	-0.132	0.329
-452.968	237.571	0.006	-0.012
-451.953	800.000	0.048	-0.267
-450.938	-78.742	-0.282	-0.124
-449.924	-164.350	0.255	-0.015
-448.909	-155.259	-0.355	-0.030
-447.895	-35.542	0.390	-0.274
-446.880	-45.343	0.117	-0.075
-445.865	335.284	-0.084	-0.213
-444.851	96.478	0.095	-0.141
-443.836	421.363	0.133	0.370
-442.822	-147.540	-0.246	0.027
-441.807	-112.052	0.472	-0.122
-440.792	-200.000	0.038	0.245
-439.778	16.269	-0.226	0.232
-438.763	93.097	0.180	0.265
-437.749	-90.013	-0.187	-0.070
-436.734	-45.286	0.204	-0.131
-435.719	-89.872	-0.097	0.036
-434.705	73.419	0.090	0.123
-433.690	504.727	0.108	-0.325
-432.676	-43.740	0.552	-0.360
-431.661	-112.669	0.220	-0.056
-430.646	84.839	-0.090	0.129
-429.632	800.000	-0.024	0.103
-428.617	-47.771	0.405	-0.254
-427.603	-200.000	0.000	0.343
-426.588	-200.000	0.004	0.135
-425.573	-200.000	-0.006	-0.395
-424.559	-79.901	-0.137	0.060
-423.544	165.794	0.191	-0.352
-422.530	120.867	-0.144	-0.232
-421.515	338.148	0.131	0.333
-420.500	-200.000	0.045	0.355
-419.486	-146.696	-0.421	0.047
-418.471	345.362	-0.224	-0.571
-417.457	13.133	-0.158	-0.159
-416.442	686.901	0.058	-0.198
-415.428	57.675	-0.071	0.090
-414.413	-200.000	0.023	-0.487
-413.398	65.385	0.140	-0.184
-412.384	-114.831	-0.524	-0.129
-411.369	-69.926	0.324	0.159
-410.355	-127.379	-0.262	0.049
-409.340	143.978	-0.347	-0.601
-408.325	800.000	-0.042	-0.177
-407.311	1.133	-0.212	0.197
-406.296	391.346	-0.075	0.203
-405.282	-38.230	0.394	0.270
-404.267	-200.000	0.007	-0.371
-403.252	-99.672	0.320	-0.103
-402.238	-119.346	-0.650	0.145
-401.223	800.000	0.114	-0.464
-400.209	-81.553	-0.338	-0.143
-399.194	-200.000	-0.027	0.340
-398.179	-11.242	-0.294	0.250
-397.165	-200.000	0.444	-0.000
-396.150	-200.000	-0.027	-0.562
-395.136	-97.564	-0.059	0.020
-394.121	-92.137	-0.265	0.096
-393.106	496.927	0.143	0.427
-392.092	161.761	0.126	0.228
-391.077	94.044	0.181	-0.266
-390.063	76.961	0.373	-0.513
-389.048	1.119	0.246	0.228
-388.033	341.087	0.043	-0.110
-387.019	-142.016	-0.647	-0.082
-386.004	-200.000	-0.026	0.407
-384.990	584.068	0.087	0.277
-383.975	-160.362	0.167	-0.011
-382.960	331.956	-0.039	-0.098
-381.946	-72.291	0.196	-0.094
-380.931	-46.976	-0.158	0.100
-379.917	-0.461	-0.241	0.221
-378.902	-56.523	-0.269	0.154
-377.888	55.762	-0.309	0.388
-376.873	791.766	-0.062	0.223
-375.858	-161.370	-0.308	0.020
-374.844	229.023	0.175	-0.370
-373.829	-200.000	-0.079	-0.455
-372.815	-68.665	0.352	0.175
-371.800	-18.250	-0.364	-0.294
-370.785	-1.821	0.113	-0.102
-369.771	-200.000	-0.017	-0.268
-368.756	562.866	0.218	0.685
-367.742	-34.073	0.212	-0.150
-366.727	-38.693	0.234	0.159
-365.712	800.000	0.012	0.062
-364.698	41.517	0.181	-0.212
-363.683	-200.000	-0.021	0.185
-362.669	251.662	0.186	0.411
-361.654	-67.084	0.265	0.135
-360.639	507.410	-0.041	0.123
-359.625	-135.938	0.340	0.051
-358.610	-132.252	-0.187	0.031
-357.596	-73.828	0.296	0.139
-356.581	-200.000	0.062	-0.630
-355.566	-0.340	-0.338	-0.310
-354.552	167.875	-0.179	0.329
-353.537	29.406	0.646	0.709
-352.523	-90.919	0.289	-0.107
-351.508	71.470	0.218	-0.293
-350.493	-57.618	-0.282	0.159
-349.479	659.362	0.004	0.012
-348.464	800.000	-0.061	-0.274
-347.450	-16.686	0.412	0.337
-346.435	120.623	0.102	0.163
-345.420	53.473	0.288	0.356
-344.406	24.220	-0.141	0.150
-343.391	-147.929	0.456	0.048
-342.377	-70.233	-0.093	-0.045
-341.362	-21.710	-0.321	0.252
-340.348	74.258	0.209	0.284
-339.333	-148.131	-0.450	-0.048
-338.318	115.541	-0.052	0.083
-337.304	-91.567	-0.199	0.073
-336.289	-51.206	-0.146	0.088
-335.275	20.741	-0.370	-0.387
-334.260	-153.090	0.173	0.016
-333.245	12.332	-0.347	-0.345
-332.231	-104.865	-0.445	0.131
-331.216	-122.685	-0.359	0.074
-330.202	-91.590	-0.189	-0.069
-329.187	7.297	0.162	-0.156
-328.172	280.575	-0.316	0.733
-327.158	45.356	0.353	0.421
-326.143	-139.866	0.369	-0.050
-325.129	-200.000	-0.003	-0.488
-324.114	-98.238	0.503	-0.166
-323.099	-42.659	0.551	-0.361
-322.085	-200.000	0.063	-0.623
-321.070	800.000	0.017	-0.081
-320.056	58.589	0.188	-0.238
-319.041	-50.554	0.230	-0.139
-318.026	-46.582	0.050	-0.032
-317.012	800.000	0.154	0.677
-315.997	-200.000	0.030	0.247
-314.983	110.550	0.174	-0.271
-313.968	-200.000	-0.010	0.174
-312.953	-200.000	0.041	0.336
-311.939	221.322	0.161	0.335
-310.924	800.000	-0.092	0.332
-309.910	-73.131	0.225	-0.106
-308.895	66.205	-0.288	0.378
-307.880	49.634	0.187	0.228
-306.866	128.207	0.123	0.202
-305.851	800.000	0.087	0.415
-304.837	800.000	0.073	-0.341
-303.822	800.000	-0.043	0.156
-302.807	-200.000	0.034	0.647
-301.793	293.923	0.116	0.275
-300.778	376.442	0.151	0.400
-299.764	800.000	-0.104	0.501
-298.749	14.348	0.250	-0.251
-297.735	-1.200	-0.051	0.047
-296.720	-112.421	0.144	0.037
-295.705	-127.530	0.123	0.023
-294.691	34.198	0.089	-0.100
-293.676	-117.165	-0.270	0.063
-292.662	-200.000	0.025	-0.345
-291.647	122.859	-0.198	0.320
-290.632	-82.072	-0.387	0.162
-289.618	46.091	0.310	0.370
-288.603	5.741	0.392	-0.373
-287.589	-40.231	-0.510	-0.341
-286.574	153.534	0.073	0.129
-285.559	-61.275	-0.304	-0.164
-284.545	121.833	0.136	-0.219
-283.530	-113.052	-0.532	0.134
-282.516	800.000	-0.150	0.581
-281.501	-200.000	-0.027	-0.276
-280.486	470.944	0.096	0.279
-279.472	173.957	-0.108	-0.201
-278.457	-111.737	-0.235	0.061
-277.443	107.308	-0.173	0.265
-276.428	52.411	-0.172	0.211
-275.413	140.052	0.158	0.269
-274.399	-180.457	-0.155	-0.004
-273.384	395.658	-0.061	-0.165
-272.370	74.904	0.275	-0.374
-271.355	-147.662	-0.037	0.004
-270.340	-154.801	0.476	0.040
-269.326	-86.255	-0.197	-0.078
-268.311	56.925	-0.061	-0.077
-267.297	-200.000	0.012	-0.211
-266.282	-69.638	-0.177	-0.087
-265.267	98.562	0.151	0.224
-264.253	800.000	0.044	0.167
-263.238	-28.628	0.098	-0.073
-262.224	-200.000	-0.045	0.263
-261.209	-104.770	-0.229	0.067
-260.195	301.532	0.274	0.656
-259.180	-103.991	-0.441	0.132
-258.165	-130.292	-0.286	-0.050
-257.151	800.000	-0.018	-0.081
-256.136	-38.557	0.103	0.070
-255.122	800.000	-0.030	-0.106
-254.107	310.213	-0.119	0.287
-253.092	207.533	-0.192	0.387
-252.078	-200.000	0.055	-0.336
-251.063	515.355	0.101	-0.304
-250.049	18.585	-0.331	-0.340
-249.034	-143.840	-0.640	-0.077
-248.019	-96.620	0.190	0.064
-247.005	33.943	0.166	0.186
-245.990	243.754	0.186	0.402
-244.976	10.269	-0.126	-0.123
-243.961	43.883	-0.188	-0.221
-242.946	307.471	0.145	0.350
-241.932	-65.552	-0.297	0.153
-240.917	5.248	0.120	-0.114
-239.903	8.285	-0.267	-0.258
-238.888	-87.862	0.334	-0.129
-237.873	556.250	-0.189	0.590
-236.859	-76.621	0.073	0.033
-235.844	-129.287	0.174	0.031
-234.830	-200.000	-0.016	0.299
-233.815	111.943	-0.346	0.538
-232.800	198.791	0.083	0.164
-231.786	181.738	0.184	-0.350
-230.771	42.893	0.434	-0.509
-229.757	-179.117	-0.445	0.013
-228.742	547.200	-0.163	-0.505
-227.727	559.915	0.057	0.178
-226.713	-87.236	0.155	0.060
-225.698	-200.000	0.047	0.406
-224.684	159.960	-0.027	-0.049
-223.669	-18.437	0.261	-0.209
-222.655	-200.000	0.002	-0.118
-221.640	346.425	0.020	0.050
-220.625	85.199	-0.086	-0.121
-219.611	242.203	-0.136	-0.294
-218.596	-21.058	-0.200	-0.157
-217.582	-109.460	-0.078	-0.021
-216.567	381.334	-0.338	0.896
-215.552	-142.742	0.293	-0.036
-214.538	238.156	0.037	-0.080
-213.523	-132.428	0.045	-0.007
-212.509	-200.000	-0.011	0.229
-211.494	-145.390	-0.412	0.047
-210.479	-79.636	-0.536	0.231
-209.465	-145.355	-0.467	-0.053
-208.450	-72.335	-0.677	-0.321
-207.436	-102.801	-0.059	0.018
-206.421	4.334	0.123	-0.116
-205.406	38.545	0.276	0.316
-204.392	-26.568	-0.100	0.075
-203.377	321.412	0.099	0.242
-202.363	45.091	-0.117	-0.138
-201.348	-103.167	0.125	0.038
-200.333	800.000	0.035	-0.178
-199.319	0.135	-0.237	0.217
-198.304	534.571	-0.032	0.097
-197.290	377.411	-0.150	0.395
-196.275	28.094	-0.089	-0.097
-195.260	800.000	-0.009	-0.051
-194.246	-74.845	0.207	0.095
-193.231	-200.000	0.065	-0.473
-192.217	-129.163	0.229	-0.041
-191.202	800.000	0.096	-0.355
-190.187	800.000	0.087	-0.494
-189.173	-103.778	0.384	-0.115
-188.158	800.000	-0.123	0.556
-187.144	-31.302	0.398	0.287
-186.129	101.997	-0.139	0.209
-185.114	-91.818	0.270	0.098
-184.100	-99.956	0.303	0.097
-183.085	-77.846	0.331	-0.146
-182.071	-118.482	-0.307	-0.069
-181.056	-22.970	-0.074	-0.057
-180.042	800.000	-0.031	0.153
-179.027	-136.420	0.524	-0.077
-178.012	-200.000	-0.025	0.222
-176.998	23.741	-0.153	0.161
-175.983	-193.703	-0.088	-0.001
-174.969	-123.421	0.397	-0.080
-173.954	-200.000	0.061	0.455
-172.939	-6.470	-0.372	0.325
-171.925	-178.521	0.405	-0.012
-170.910	-200.000	-0.031	0.588
-169.896	185.937	-0.076	0.145
-168.881	94.787	-0.160	-0.234
-167.866	47.333	0.151	-0.180
-166.852	-65.764	0.471	0.241
-165.837	68.992	0.168	0.221
-164.823	-108.645	-0.116	-0.032
-163.808	-163.243	-0.926	-0.056
-162.793	-21.569	0.188	-0.147
-161.779	-2.707	0.078	-0.070
-160.764	-131.658	-0.145	0.024
-159.750	-169.281	0.093	0.004
-158.735	118.230	0.061	0.097
-157.720	-198.639	0.251	-0.002
-156.706	-112.167	0.348	-0.089
-155.691	-129.300	-0.305	0.054
-154.677	-78.374	0.212	-0.093
-153.662	335.158	0.191	-0.477
-152.647	481.739	0.200	-0.584
-151.633	-170.146	-0.274	0.012
-150.618	-16.018	-0.465	0.379
-149.604	-77.723	-0.179	0.079
-148.589	677.545	-0.111	0.373
-147.574	-177.418	0.573	-0.018
-146.560	-46.552	0.202	0.127
-145.545	455.411	0.106	0.302
-144.531	184.831	-0.251	-0.479
-143.516	24.602	0.214	-0.227
-142.502	-98.544	-0.485	0.158
-141.487	-200.000	-0.045	0.392
-140.472	34.081	-0.169	0.189
-139.458	-110.796	0.204	-0.053
-138.443	-200.000	-0.031	-0.624
-137.429	-100.515	0.277	-0.087
-136.414	-145.583	0.246	0.028
-135.399	-125.220	0.184	0.036
-134.385	-31.778	0.222	0.159
-133.370	-200.000	0.046	-0.394
-132.356	-48.838	-0.476	-0.291
-131.341	800.000	-0.094	0.339
-130.326	577.558	-0.174	-0.549
-129.312	-42.480	-0.169	-0.110
-128.297	800.000	0.147	-0.611
-127.283	-86.658	0.381	-0.149
-126.268	237.430	0.046	-0.098
-125.253	37.988	0.356	-0.405
-124.239	-150.157	0.462	0.045
-123.224	64.175	-0.349	-0.450
-122.210	-200.000	-0.012	0.201
-121.195	92.209	0.088	-0.128
