DTS Sentinel unit serial number:	SN409020Multiplexer serial number:	ORYXHardware model number:	OX4-SRSoftware version number:	ORYX F/W v3.00 Oryx Data Collector v3.7.2.0data status	okinstallation	HaddamTimeLapsedifferential loss correction	single-endedforward channel	channel 3reverse channel	N/Adate	2011/06/22time	08:41:17forward acquisition time	30.00reverse acquisition time	0.00gamma	498.7831k internal	0.1788k external	0.1788temperature offset calibration	1.0074default loss term (dB/km)	0.3790temperature slope calibration	1.3530multiplexer offset coefficient	1.0000multiplexer slope coefficient	1.0000fibre end	0.00T internal ref (°C)	26.47T ext. ref 1 (°C)	24.18T ext. ref 2 (°C)	0.17length (m)	temperature (°C)	Stokes	anti-Stokes-747.200	-25.041	-0.200	-0.154
-746.185	480.879	-0.058	-0.173
-745.171	39.739	-0.279	0.326
-744.156	-200.000	0.089	0.510
-743.142	-142.367	-0.253	0.032
-742.127	86.992	0.147	-0.212
-741.112	220.521	0.067	-0.141
-740.098	203.940	0.128	0.259
-739.083	-43.714	-0.110	-0.072
-738.069	24.557	0.220	-0.237
-737.054	163.570	0.096	0.177
-736.039	-91.303	-0.386	0.143
-735.025	800.000	-0.039	0.185
-734.010	747.152	0.035	-0.125
-732.996	-79.670	-0.213	-0.093
-731.981	65.806	0.147	-0.195
-730.966	133.026	0.089	0.149
-729.952	659.773	0.133	-0.447
-728.937	446.306	0.130	-0.372
-727.923	-137.087	0.302	-0.044
-726.908	-22.546	0.315	-0.247
-725.894	-13.823	-0.109	-0.092
-724.879	-93.446	-0.298	0.107
-723.864	-200.000	-0.024	-0.258
-722.850	284.951	-0.067	0.158
-721.835	-86.841	-0.299	0.118
-720.821	-17.800	-0.101	-0.083
-719.806	14.803	-0.043	0.044
-718.791	-200.000	0.002	0.261
-717.777	-172.657	-0.471	0.019
-716.762	102.492	0.198	-0.301
-715.748	778.573	0.145	0.518
-714.733	-110.424	-0.409	-0.109
-713.718	-200.000	-0.081	-0.490
-712.704	-124.840	-0.150	-0.030
-711.689	297.967	-0.156	-0.375
-710.675	-8.537	0.178	-0.155
-709.660	800.000	0.072	0.372
-708.645	42.159	-0.212	-0.250
-707.631	-168.163	0.282	0.014
-706.616	-79.742	-0.148	-0.064
-705.602	-157.941	-0.313	0.024
-704.587	800.000	-0.053	-0.208
-703.572	-56.578	-0.295	0.169
-702.558	515.925	-0.210	-0.641
-701.543	173.888	0.053	-0.100
-700.529	-200.000	-0.028	-0.390
-699.514	-46.309	-0.330	0.210
-698.499	-102.295	0.232	-0.072
-697.485	-153.733	0.213	0.019
-696.470	-105.970	0.372	-0.108
-695.456	-91.693	0.563	0.207
-694.441	-173.523	-0.427	-0.016
-693.426	-110.141	-0.203	-0.055
-692.412	423.205	0.073	0.205
-691.397	54.784	-0.266	-0.334
-690.383	440.793	-0.117	-0.334
-689.368	12.275	0.399	0.399
-688.354	-57.061	0.042	-0.024
-687.339	386.650	-0.250	-0.672
-686.324	-200.000	0.002	-0.227
-685.310	-48.049	-0.058	0.037
-684.295	-100.946	0.223	0.071
-683.281	-65.431	-0.339	-0.176
-682.266	-31.797	-0.125	-0.091
-681.251	10.013	0.062	0.061
-680.237	-83.178	0.111	0.046
-679.222	-31.061	0.384	0.281
-678.208	314.657	0.156	0.383
-677.193	69.398	0.031	-0.041
-676.178	800.000	0.080	0.297
-675.164	12.313	-0.240	-0.240
-674.149	-96.765	-0.219	0.074
-673.135	-75.842	0.107	-0.049
-672.120	-73.546	0.203	-0.096
-671.105	21.396	-0.235	0.248
-670.091	-39.357	-0.622	0.422
-669.076	-47.005	-0.245	-0.155
-668.062	-166.262	-0.185	0.010
-667.047	-84.591	0.812	0.330
-666.032	800.000	-0.064	-0.243
-665.018	30.623	0.284	-0.315
-664.003	-45.549	-0.280	-0.180
-662.989	800.000	0.161	-0.630
-661.974	-42.062	-0.289	-0.191
-660.959	-46.888	-0.184	-0.116
-659.945	-58.793	-0.224	0.125
-658.930	16.406	0.161	-0.164
-657.916	-170.371	0.315	-0.014
-656.901	29.842	-0.220	-0.243
-655.886	-166.004	0.292	0.016
-654.872	-5.263	-0.144	0.128
-653.857	-108.822	0.268	-0.074
-652.843	3.762	-0.275	0.261
-651.828	800.000	-0.091	-0.419
-650.814	-200.000	-0.027	-0.552
-649.799	-108.446	0.466	0.129
-648.784	-94.762	-0.309	-0.108
-647.770	-156.956	-0.365	0.029
-646.755	12.772	0.097	0.097
-645.741	-134.708	0.079	-0.012
-644.726	105.475	0.140	0.215
-643.711	800.000	0.080	-0.336
-642.697	79.003	-0.188	-0.261
-641.682	-184.637	-0.415	0.008
-640.668	-200.000	-0.042	0.563
-639.653	800.000	0.089	0.442
-638.638	391.889	-0.113	0.306
-637.624	800.000	0.059	0.319
-636.609	-4.752	-0.403	0.360
-635.595	-130.139	-0.521	-0.091
-634.580	-146.987	-0.376	0.041
-633.565	-134.037	0.382	0.061
-632.551	-102.517	0.281	0.086
-631.536	-200.000	0.031	0.192
-630.522	-8.160	0.418	0.364
-629.507	686.964	0.122	-0.416
-628.492	-12.514	0.083	-0.070
-627.478	800.000	-0.070	-0.306
-626.463	-41.269	0.018	-0.012
-625.449	143.701	-0.090	0.156
-624.434	-200.000	0.052	0.402
-623.419	-45.462	0.335	-0.215
-622.405	-200.000	-0.050	0.479
-621.390	24.443	-0.198	0.212
-620.376	38.117	-0.014	-0.016
-619.361	-174.905	-0.810	0.029
-618.346	800.000	-0.115	-0.458
-617.332	-200.000	-0.000	-0.449
-616.317	-200.000	-0.009	-0.190
-615.303	119.853	-0.089	0.144
-614.288	-21.903	0.091	-0.071
-613.273	0.937	-0.203	0.188
-612.259	-73.199	0.292	-0.138
-611.244	-38.368	0.281	-0.192
-610.230	212.180	-0.163	-0.335
-609.215	-108.682	0.488	0.134
-608.201	151.339	-0.154	-0.272
-607.186	-125.055	-0.479	0.094
-606.171	25.228	0.280	-0.301
-605.157	159.498	0.231	-0.417
-604.142	-58.361	-0.290	-0.163
-603.128	800.000	0.077	-0.294
-602.113	-132.787	0.367	0.060
-601.098	348.053	-0.205	0.526
-600.084	315.078	-0.127	0.310
-599.069	-86.208	-0.370	-0.147
-598.055	-111.181	0.202	0.053
-597.040	-66.276	-0.086	0.044
-596.025	24.220	0.289	0.308
-595.011	-27.735	-0.319	0.239
-593.996	2.942	-0.032	0.030
-592.982	128.713	-0.153	-0.252
-591.967	126.026	-0.089	-0.146
-590.952	-121.350	-0.131	-0.028
-589.938	-133.039	0.426	-0.069
-588.923	800.000	0.082	-0.301
-587.909	39.453	-0.377	0.437
-586.894	-200.000	0.009	0.403
-585.879	65.125	-0.204	-0.266
-584.865	-200.000	0.016	-0.528
-583.850	-120.683	-0.314	0.068
-582.836	241.881	-0.095	0.205
-581.821	-52.058	0.377	-0.226
-580.806	19.414	0.318	0.330
-579.792	-183.873	0.171	-0.004
-578.777	464.719	-0.097	0.281
-577.763	302.459	-0.019	-0.045
-576.748	-200.000	-0.022	0.602
-575.733	-151.017	0.516	-0.050
-574.719	-54.291	0.057	-0.033
-573.704	551.958	-0.125	-0.391
-572.690	-89.524	-0.145	0.055
-571.675	95.381	-0.065	-0.095
-570.661	-146.772	0.407	-0.045
-569.646	800.000	-0.083	0.307
-568.631	-106.788	0.097	0.028
-567.617	21.152	0.063	0.066
-566.602	475.785	0.062	-0.183
-565.588	800.000	0.112	-0.587
-564.573	-42.064	0.370	-0.244
-563.558	52.808	-0.343	-0.424
-562.544	98.437	0.120	0.179
-561.529	-106.769	0.309	0.088
-560.515	-200.000	0.029	0.208
-559.500	800.000	0.097	0.350
-558.485	0.703	0.305	0.282
-557.471	16.385	-0.538	-0.548
-556.456	800.000	0.088	-0.315
-555.442	-142.031	0.279	-0.035
-554.427	-164.725	0.231	0.013
-553.412	800.000	-0.134	0.492
-552.398	381.726	-0.049	-0.132
-551.383	-63.632	-0.279	0.147
-550.369	-74.027	-0.157	-0.073
-549.354	-105.367	-0.454	-0.133
-548.339	43.579	0.136	-0.160
-547.325	-35.846	0.294	0.205
-546.310	-200.000	-0.000	-0.424
-545.296	-13.111	0.158	-0.132
-544.281	66.677	-0.039	-0.051
-543.266	-81.710	-0.166	0.070
-542.252	-65.029	0.437	0.227
-541.237	800.000	-0.044	-0.200
-540.223	-60.604	0.091	-0.050
-539.208	-200.000	-0.047	0.528
-538.193	298.522	0.150	0.358
-537.179	303.519	-0.108	0.259
-536.164	-200.000	0.058	0.472
-535.150	-101.544	-0.130	-0.040
-534.135	-82.567	-0.451	0.188
-533.121	-171.971	-0.292	-0.012
-532.106	20.247	-0.301	-0.313
-531.091	-116.804	0.521	0.122
-530.077	-113.746	0.398	0.099
-529.062	-97.373	0.109	0.037
-528.048	-156.091	-0.439	-0.035
-527.033	-45.993	0.114	-0.072
-526.018	-74.891	-0.133	0.061
-525.004	-49.092	0.088	-0.054
-523.989	-96.908	0.227	0.076
-522.975	-73.684	-0.117	-0.055
-521.960	-8.449	-0.073	-0.063
-520.945	97.139	-0.195	0.289
-519.931	208.193	-0.181	-0.367
-518.916	-84.168	-0.060	-0.025
-517.902	-123.171	0.404	0.083
-516.887	-104.111	-0.166	-0.050
-515.872	-132.755	-0.148	0.024
-514.858	-34.419	0.165	-0.116
-513.843	109.405	0.217	0.336
-512.829	-143.215	-0.088	-0.011
-511.814	-193.911	0.384	0.004
-510.799	409.566	-0.067	0.183
-509.785	-200.000	0.006	-0.879
-508.770	800.000	0.034	-0.132
-507.756	626.795	-0.086	0.282
-506.741	800.000	0.055	-0.292
-505.726	800.000	-0.104	-0.452
-504.712	672.022	-0.073	0.246
-503.697	-78.426	-0.257	0.113
-502.683	800.000	-0.035	0.133
-501.668	800.000	-0.104	0.431
-500.653	-33.473	0.324	0.230
-499.639	800.000	-0.029	-0.140
-498.624	-120.724	0.415	-0.090
-497.610	3.252	0.227	-0.212
-496.595	-12.869	0.259	0.217
-495.581	-133.654	0.323	-0.051
-494.566	156.943	0.211	-0.376
-493.551	69.335	0.064	0.085
-492.537	1.846	-0.177	-0.165
-491.522	-27.029	0.069	0.052
-490.508	-200.000	-0.002	-0.270
-489.493	800.000	0.082	-0.415
-488.478	-179.311	-0.225	-0.006
-487.464	263.659	-0.074	-0.166
-486.449	-118.212	-0.413	-0.094
-485.435	-93.057	0.054	-0.019
-484.420	73.479	0.114	-0.154
-483.405	211.984	-0.154	-0.313
-482.391	800.000	0.074	0.295
-481.376	-5.178	0.222	-0.197
-480.362	-57.900	-0.278	0.156
-479.347	-44.548	-0.387	-0.248
-478.332	-94.090	-0.348	-0.122
-477.318	-43.227	0.382	0.248
-476.303	-11.388	0.049	0.041
-475.289	220.617	-0.037	0.077
-474.274	-56.691	-0.223	0.127
-473.259	77.454	-0.221	0.303
-472.245	624.108	0.150	0.489
-471.230	-200.000	-0.033	0.291
-470.216	4.990	-0.161	-0.153
-469.201	-184.925	0.442	-0.009
-468.186	-25.346	0.152	-0.116
-467.172	-157.354	-0.214	-0.016
-466.157	223.699	-0.257	-0.536
-465.143	-90.371	-0.276	0.103
-464.128	-52.823	0.411	0.243
-463.113	277.912	-0.052	0.119
-462.099	800.000	-0.052	-0.205
-461.084	-54.366	0.224	-0.130
-460.070	16.136	0.340	0.344
-459.055	-148.297	0.205	0.021
-458.040	-171.574	0.282	0.012
-457.026	258.470	0.106	0.235
-456.011	418.943	-0.161	0.446
-454.997	131.905	0.145	-0.241
-453.982	66.432	-0.156	-0.204
-452.968	73.916	0.203	-0.274
-451.953	-81.078	-0.132	-0.056
-450.938	-200.000	0.045	0.343
-449.924	-75.903	-0.344	-0.156
-448.909	26.203	-0.042	0.045
-447.895	75.160	-0.044	-0.060
-446.880	-41.435	0.229	0.151
-445.865	-77.400	0.217	-0.096
-444.851	81.523	0.290	-0.403
-443.836	67.796	0.382	0.502
-442.822	-34.863	-0.336	-0.235
-441.807	32.999	-0.174	0.194
-440.792	-45.160	-0.201	0.128
-439.778	-90.079	-0.094	0.035
-438.763	55.650	0.381	-0.475
-437.749	-54.341	0.407	0.236
-436.734	32.115	-0.095	0.106
-435.719	-13.733	0.057	-0.047
-434.705	-118.642	-0.361	0.081
-433.690	-200.000	-0.013	0.321
-432.676	-87.647	-0.071	-0.027
-431.661	-200.000	-0.027	-0.587
-430.646	-185.088	-0.263	-0.005
-429.632	-64.839	0.210	-0.109
-428.617	-143.817	0.216	0.026
-427.603	-74.544	-0.465	-0.214
-426.588	-7.817	-0.184	0.160
-425.573	-26.853	0.115	0.086
-424.559	-84.783	0.267	-0.107
-423.544	-11.525	0.412	0.348
-422.530	13.632	0.222	-0.221
-421.515	-145.464	0.061	-0.007
-420.500	75.516	-0.342	-0.464
-419.486	21.452	-0.256	-0.267
-418.471	-126.893	0.176	-0.033
-417.457	-13.888	-0.367	0.304
-416.442	-200.000	-0.016	0.524
-415.428	44.667	-0.070	0.083
-414.413	-156.233	0.429	0.034
-413.398	-25.575	-0.033	0.025
-412.384	-4.151	0.147	-0.131
-411.369	-102.735	-0.006	0.002
-410.355	510.010	0.086	0.257
-409.340	33.056	-0.329	0.366
-408.325	-153.377	-0.281	-0.025
-407.311	-92.917	0.124	-0.044
-406.296	261.411	0.090	0.202
-405.282	800.000	-0.045	0.225
-404.267	-56.638	-0.273	-0.155
-403.252	-13.791	-0.365	-0.302
-402.238	-200.000	0.004	-0.251
-401.223	-189.862	0.465	-0.007
-400.209	163.672	0.104	-0.189
-399.194	-181.825	0.129	0.003
-398.179	-71.483	-0.556	0.266
-397.165	117.227	0.157	0.248
-396.150	-115.632	0.188	0.045
-395.136	1.287	0.250	0.230
-394.121	1.941	0.204	0.189
-393.106	19.277	-0.162	-0.167
-392.092	-5.627	0.223	-0.196
-391.077	3.352	-0.081	0.076
-390.063	288.564	0.074	0.172
-389.048	-60.477	-0.268	-0.146
-388.033	-115.690	-0.180	0.043
-387.019	-51.691	-0.214	-0.128
-386.004	-162.749	0.220	-0.014
-384.990	-200.000	0.005	0.125
-383.975	436.932	0.117	-0.329
-382.960	-82.355	0.390	0.162
-381.946	-200.000	0.044	0.296
-380.931	114.066	0.105	-0.164
-379.917	-102.321	-0.382	0.117
-378.902	-163.230	-0.356	-0.022
-377.888	174.883	0.036	-0.067
-376.873	122.557	0.172	-0.277
-375.858	104.512	0.248	-0.375
-374.844	208.417	0.131	0.264
-373.829	-43.025	0.383	0.248
-372.815	93.632	-0.053	0.077
-371.800	-144.843	0.311	0.036
-370.785	-129.169	0.159	0.028
-369.771	-154.617	-0.130	-0.011
-368.756	-135.191	0.288	-0.044
-367.742	-50.343	0.131	-0.079
-366.727	-68.369	0.214	0.106
-365.712	27.125	-0.210	-0.226
-364.698	12.603	0.426	-0.422
-363.683	10.841	0.156	0.152
-362.669	-98.474	-0.439	-0.143
-361.654	366.259	0.025	0.064
-360.639	-152.736	0.407	-0.037
-359.625	-138.069	0.257	0.036
-358.610	45.835	0.193	0.229
-357.596	-52.636	-0.437	-0.258
-356.581	146.271	-0.096	0.166
-355.566	-160.181	-0.331	0.023
-354.552	16.814	-0.163	-0.166
-353.537	-178.677	0.403	0.012
-352.523	-71.746	-0.353	0.168
-351.508	130.059	-0.133	-0.219
-350.493	-64.622	0.359	0.186
-349.479	-66.956	-0.154	-0.077
-348.464	93.425	-0.150	-0.217
-347.450	96.040	0.101	0.148
-346.435	-200.000	0.027	-0.218
-345.420	-144.565	0.157	0.018
-344.406	-89.827	0.364	0.136
-343.391	-58.584	-0.229	-0.127
-342.377	91.457	-0.246	0.354
-341.362	-91.128	-0.357	0.130
-340.348	-44.584	0.225	0.143
-339.333	-66.866	-0.320	0.161
-338.318	-200.000	0.008	-0.191
-337.304	63.012	-0.213	-0.273
-336.289	403.388	0.088	0.238
-335.275	-36.192	0.220	0.152
-334.260	162.846	-0.259	-0.466
-333.245	-47.735	-0.398	-0.246
-332.231	-68.132	-0.192	0.095
-331.216	-145.227	-0.186	-0.021
-330.202	547.314	0.117	0.360
-329.187	115.314	0.274	-0.430
-328.172	20.846	-0.131	0.136
-327.158	177.953	-0.284	-0.532
-326.143	-200.000	-0.047	-0.357
-325.129	755.495	-0.061	0.211
-324.114	-70.437	-0.218	-0.105
-323.099	-142.577	0.063	0.008
-322.085	-125.308	-0.435	-0.084
-321.070	800.000	-0.024	-0.135
-320.056	-120.617	-0.419	0.090
-319.041	67.218	-0.103	-0.135
-318.026	-124.656	0.421	-0.083
-317.012	800.000	-0.038	-0.195
-315.997	-63.997	-0.115	0.060
-314.983	10.125	0.256	0.249
-313.968	-56.606	-0.206	0.116
-312.953	70.915	-0.105	0.139
-311.939	12.534	0.139	0.137
-310.924	-71.319	-0.219	-0.104
-309.910	-78.999	-0.261	0.113
-308.895	-44.420	0.142	0.091
-307.880	-200.000	-0.007	-0.051
-306.866	460.620	0.129	0.368
-305.851	-16.429	0.130	0.106
-304.837	-137.993	-0.222	0.031
-303.822	-40.530	-0.328	-0.217
-302.807	-23.112	-0.097	0.075
-301.793	-200.000	-0.018	0.227
-300.778	181.311	-0.309	0.582
-299.764	-200.000	-0.032	-0.305
-298.749	-110.265	-0.168	0.044
-297.735	-123.882	0.386	0.077
-296.720	800.000	0.045	-0.212
-295.705	113.205	0.104	0.162
-294.691	-200.000	-0.039	0.418
-293.676	206.889	-0.138	0.276
-292.662	-147.487	-0.120	0.013
-291.647	-63.429	0.723	0.379
-290.632	208.098	0.245	0.491
-289.618	42.648	-0.042	0.049
-288.603	1.298	0.454	-0.417
-287.589	8.559	-0.172	-0.166
-286.574	800.000	-0.059	-0.257
-285.559	-77.741	-0.479	-0.211
-284.545	788.327	-0.037	0.129
-283.530	396.668	0.038	0.103
-282.516	162.789	-0.051	0.092
-281.501	-161.927	0.461	-0.029
-280.486	-102.784	-0.273	-0.083
-279.472	366.048	0.096	0.249
-278.457	-11.946	-0.330	0.276
-277.443	-118.511	-0.194	0.044
-276.428	-65.856	-0.280	0.143
-275.413	109.121	0.166	-0.254
-274.399	-128.555	-0.201	-0.036
-273.384	597.171	0.020	0.065
-272.370	-99.761	-0.342	-0.109
-271.355	-53.285	0.261	0.153
-270.340	-30.609	0.295	-0.213
-269.326	-12.176	-0.111	-0.093
-268.311	-119.785	-0.185	0.040
-267.297	-103.673	-0.255	0.076
-266.282	71.891	-0.132	-0.175
-265.267	-123.508	-0.385	-0.077
-264.253	-130.427	0.005	0.001
-263.238	-175.854	-0.402	0.013
-262.224	766.102	-0.074	-0.259
-261.209	-116.458	-0.711	-0.166
-260.195	-112.784	0.422	-0.106
-259.180	438.958	-0.198	-0.555
-258.165	32.967	-0.367	-0.406
-257.151	59.110	-0.227	-0.285
-256.136	3.779	-0.482	0.449
-255.122	800.000	-0.029	0.143
-254.107	-51.836	0.343	0.203
-253.092	-184.432	0.055	0.001
-252.078	-89.155	-0.274	-0.103
-251.063	-27.473	0.167	0.124
-250.049	-200.000	-0.033	0.325
-249.034	309.117	0.155	-0.372
-248.019	-120.090	-0.548	0.119
-247.005	-170.614	-0.440	-0.019
-245.990	27.692	0.327	0.351
-244.976	-61.898	-0.495	-0.263
-243.961	-9.824	-0.195	-0.166
-242.946	-96.791	-0.047	-0.016
-241.932	-63.840	0.248	0.129
-240.917	-10.649	-0.456	-0.384
-239.903	-57.469	-0.459	0.256
-238.888	-200.000	0.027	0.182
-237.873	-30.781	0.323	-0.233
-236.859	-71.172	-0.271	0.129
-235.844	-69.626	0.224	0.109
-234.830	-200.000	-0.066	-0.445
-233.815	6.437	0.193	-0.183
-232.800	800.000	-0.065	-0.340
-231.786	273.245	0.040	-0.091
-230.771	74.395	0.263	0.353
-229.757	203.025	0.127	0.251
-228.742	-179.327	0.596	-0.017
-227.727	125.614	-0.161	-0.260
-226.713	119.656	0.261	-0.413
-225.698	-136.827	-0.393	0.057
-224.684	330.079	-0.176	-0.433
-223.669	-44.612	0.127	0.081
-222.655	-200.000	0.011	0.074
-221.640	240.598	-0.067	0.143
-220.625	206.917	-0.145	0.290
-219.611	-131.610	0.548	-0.091
-218.596	-100.168	0.601	0.189
-217.582	-86.037	0.025	-0.010
-216.567	-97.528	0.162	-0.053
-215.552	-2.727	0.207	0.184
-214.538	129.325	0.063	0.103
-213.523	-200.000	-0.034	0.383
-212.509	-76.581	-0.491	0.219
-211.494	-200.000	-0.013	-0.391
-210.479	-200.000	0.013	0.102
-209.465	596.358	0.067	-0.211
-208.450	199.615	-0.249	0.489
-207.436	76.275	0.081	0.109
-206.421	-51.783	-0.165	-0.097
-205.406	-16.565	-0.164	-0.132
-204.392	-87.013	0.460	-0.178
-203.377	800.000	0.041	-0.191
-202.363	-146.562	-0.221	0.024
-201.348	-130.581	0.395	0.067
-200.333	501.491	0.195	-0.575
-199.319	-18.264	0.235	0.187
-198.304	53.500	-0.172	-0.211
-197.290	90.155	-0.265	-0.378
-196.275	-102.642	-0.096	-0.029
-195.260	-21.633	0.076	-0.059
-194.246	800.000	0.108	-0.590
-193.231	-158.886	-0.112	-0.008
-192.217	-200.000	-0.071	0.419
-191.202	-115.332	-0.410	-0.098
-190.187	-200.000	-0.074	-0.696
-189.173	-152.093	0.430	-0.039
-188.158	85.889	0.381	-0.535
-187.144	-163.772	-0.214	-0.013
-186.129	-36.196	0.319	-0.219
-185.114	-76.735	0.428	0.190
-184.100	-27.615	0.382	0.282
-183.085	-200.000	0.018	0.103
-182.071	22.037	-0.265	0.276
-181.056	331.878	0.124	0.306
-180.042	-8.877	-0.353	0.301
-179.027	-89.062	-0.371	0.139
-178.012	-116.626	0.118	-0.027
-176.998	-31.274	0.259	-0.186
-175.983	32.963	0.083	-0.092
-174.969	-68.123	-0.214	0.106
-173.954	-113.680	-0.352	0.087
-172.939	-17.640	0.085	-0.068
-171.925	-17.189	0.507	-0.406
-170.910	-126.406	0.205	-0.038
-169.896	-121.906	-0.069	-0.014
-168.881	-85.523	-0.410	-0.161
-167.866	-62.749	0.131	-0.069
-166.852	287.376	-0.076	0.175
-165.837	-47.716	0.424	-0.261
-164.823	23.073	0.293	-0.305
-163.808	-179.433	0.743	0.020
-162.793	-175.643	0.608	-0.021
-161.779	-33.116	0.198	0.139
-160.764	-15.541	0.086	0.070
-159.750	95.278	-0.280	0.406
-158.735	43.175	0.178	0.207
-157.720	-67.367	0.383	0.191
-156.706	-85.352	-0.126	0.050
-155.691	21.889	-0.065	0.067
-154.677	-21.424	-0.102	0.079
-153.662	80.668	0.071	0.097
-152.647	64.167	-0.234	0.299
-151.633	2.185	0.127	-0.116
-150.618	-9.201	-0.397	0.337
-149.604	-151.259	-0.608	-0.057
-148.589	34.816	-0.263	0.293
-147.574	446.933	-0.090	0.252
-146.560	-103.472	0.166	-0.049
-145.545	-80.509	-0.146	0.062
-144.531	-200.000	-0.036	-0.265
-143.516	-72.849	-0.153	-0.071
-142.502	-176.686	-0.385	-0.012
-141.487	-44.986	0.212	-0.134
-140.472	-98.393	-0.184	0.059
-139.458	49.114	0.147	0.176
-138.443	518.202	-0.148	-0.441
-137.429	521.779	0.160	0.480
-136.414	-36.064	0.272	-0.186
-135.399	231.967	-0.132	-0.276
-134.385	383.074	0.193	0.506
-133.370	-16.895	0.307	0.246
-132.356	-200.000	-0.069	0.435
-131.341	43.166	-0.202	-0.234
-130.326	-200.000	0.010	-0.336
-129.312	-130.860	0.445	-0.075
-128.297	-200.000	-0.024	0.189
-127.283	65.280	-0.213	-0.273
-126.268	85.727	0.193	0.270
-125.253	-73.490	0.147	-0.068
-124.239	91.069	0.136	-0.193
-123.224	-200.000	0.051	-0.301
-122.210	51.629	0.361	-0.436
-121.195	-108.389	-0.432	0.117
