DTS Sentinel unit serial number:	SN409020Multiplexer serial number:	ORYXHardware model number:	OX4-SRSoftware version number:	ORYX F/W v3.00 Oryx Data Collector v3.7.2.0data status	okinstallation	HaddamTimeLapsedifferential loss correction	single-endedforward channel	channel 3reverse channel	N/Adate	2011/06/21time	22:31:17forward acquisition time	30.00reverse acquisition time	0.00gamma	498.7831k internal	0.1755k external	0.1755temperature offset calibration	1.0074default loss term (dB/km)	0.3790temperature slope calibration	1.3530multiplexer offset coefficient	1.0000multiplexer slope coefficient	1.0000fibre end	0.00T internal ref (°C)	24.03T ext. ref 1 (°C)	18.75T ext. ref 2 (°C)	0.05length (m)	temperature (°C)	Stokes	anti-Stokes-747.200	800.000	0.065	-0.265
-746.185	53.791	-0.237	0.301
-745.171	-148.959	-0.771	0.081
-744.156	438.619	-0.245	0.711
-743.142	-58.393	0.357	-0.205
-742.127	-103.551	-0.398	0.123
-741.112	-79.765	0.093	-0.041
-740.098	613.813	0.061	0.204
-739.083	-48.632	0.150	-0.095
-738.069	800.000	-0.044	0.245
-737.054	800.000	0.094	0.453
-736.039	232.009	0.117	0.255
-735.025	54.863	0.117	-0.150
-734.010	-200.000	0.101	-0.782
-732.996	800.000	0.081	-0.392
-731.981	216.328	0.161	-0.340
-730.966	-62.793	-0.427	-0.234
-729.952	51.103	0.190	0.239
-728.937	800.000	-0.108	-0.460
-727.923	-66.502	-0.056	-0.029
-726.908	-54.827	-0.145	-0.086
-725.894	-200.000	0.022	-0.360
-724.879	-58.304	-0.399	0.229
-723.864	25.552	-0.081	-0.089
-722.850	92.016	-0.194	-0.290
-721.835	-200.000	0.029	-0.676
-720.821	-158.017	0.494	-0.038
-719.806	-178.360	-0.474	-0.014
-718.791	14.106	0.104	0.107
-717.777	-75.908	-0.190	-0.088
-716.762	473.114	-0.030	-0.090
-715.748	-6.517	0.130	-0.117
-714.733	-19.849	-0.252	-0.205
-713.718	799.820	0.081	-0.299
-712.704	-200.000	0.006	0.092
-711.689	800.000	0.149	0.750
-710.675	-164.919	0.564	-0.033
-709.660	49.092	0.107	0.134
-708.645	-139.068	0.423	0.060
-707.631	-33.346	-0.181	0.133
-706.616	155.841	-0.155	-0.283
-705.602	-3.878	0.219	0.201
-704.587	-197.563	-0.129	0.001
-703.572	63.676	-0.288	-0.383
-702.558	-200.000	-0.055	-0.452
-701.543	73.939	-0.046	-0.064
-700.529	-170.205	-0.491	0.023
-699.514	78.809	-0.360	-0.511
-698.499	173.207	-0.199	-0.381
-697.485	-172.580	-0.228	0.009
-696.470	-133.876	0.254	-0.041
-695.456	154.938	-0.261	-0.476
-694.441	-122.824	0.264	-0.056
-693.426	109.032	-0.271	-0.430
-692.412	-200.000	0.012	-0.097
-691.397	-200.000	0.013	0.372
-690.383	-124.298	0.420	-0.086
-689.368	-84.101	0.377	0.158
-688.354	-87.687	0.487	0.193
-687.339	-200.000	-0.058	-0.366
-686.324	-60.768	-0.158	-0.088
-685.310	48.417	-0.287	0.356
-684.295	-30.565	0.489	0.365
-683.281	147.127	0.168	-0.300
-682.266	62.619	-0.214	-0.283
-681.251	216.800	-0.253	-0.535
-680.237	-162.545	0.425	-0.027
-679.222	-200.000	0.013	0.170
-678.208	-77.456	-0.404	0.184
-677.193	-200.000	0.010	0.317
-676.178	70.866	-0.130	-0.178
-675.164	-146.970	-0.815	0.091
-674.149	-200.000	0.026	-0.263
-673.135	89.082	0.251	0.370
-672.120	-51.964	0.021	-0.013
-671.105	-24.584	0.173	0.136
-670.091	-137.679	0.541	0.080
-669.076	62.203	0.079	0.104
-668.062	72.778	0.025	0.035
-667.047	187.314	-0.029	0.058
-666.032	783.963	0.073	-0.267
-665.018	-115.399	-0.423	-0.105
-664.003	-125.448	0.166	-0.033
-662.989	9.852	0.064	-0.064
-661.974	-39.628	-0.420	0.290
-660.959	-62.264	0.220	0.121
-659.945	-133.643	0.546	0.089
-658.930	43.581	-0.358	-0.432
-657.916	143.222	-0.366	-0.644
-656.901	800.000	0.134	0.567
-655.886	-55.351	-0.469	0.277
-654.872	-32.781	-0.251	0.184
-653.857	-93.583	0.474	0.172
-652.843	-200.000	-0.024	-0.381
-651.828	800.000	-0.097	-0.538
-650.814	-165.320	-0.391	0.022
-649.799	-191.147	-0.733	0.010
-648.784	800.000	0.024	0.108
-647.770	141.033	0.328	-0.574
-646.755	451.926	0.174	-0.509
-645.741	-11.417	-0.604	-0.524
-644.726	-102.071	0.094	-0.030
-643.711	800.000	-0.156	-0.613
-642.697	54.858	-0.252	-0.321
-641.682	228.034	0.066	0.142
-640.668	16.778	0.257	-0.268
-639.653	229.145	0.051	-0.110
-638.638	-17.960	-0.445	0.367
-637.624	-126.765	-0.539	-0.104
-636.609	-34.950	0.153	-0.110
-635.595	-200.000	0.012	-0.154
-634.580	-53.390	-0.199	-0.120
-633.565	-55.474	-0.080	-0.047
-632.551	7.228	-0.071	0.069
-631.536	-33.610	0.312	-0.227
-630.522	-33.693	-0.111	-0.081
-629.507	-200.000	0.066	-0.437
-628.492	39.469	0.120	0.142
-627.478	-200.000	-0.002	-0.437
-626.463	800.000	-0.025	-0.107
-625.449	10.734	-0.189	-0.190
-624.434	800.000	-0.090	-0.369
-623.419	-69.781	0.369	0.185
-622.405	57.113	-0.310	0.400
-621.390	-54.989	0.061	-0.036
-620.376	-200.000	0.037	0.221
-619.361	-109.511	0.096	-0.027
-618.346	-89.008	-0.094	-0.037
-617.332	750.944	-0.178	-0.639
-616.317	35.376	0.177	-0.205
-615.303	-106.975	-0.241	-0.070
-614.288	-43.793	-0.349	0.231
-613.273	-85.963	-0.307	-0.124
-612.259	-67.607	0.405	-0.209
-611.244	-152.596	-0.425	0.040
-610.230	14.315	0.270	0.278
-609.215	-71.522	-0.212	-0.104
-608.201	102.743	-0.138	0.213
-607.186	-33.906	0.187	0.135
-606.171	-16.278	-0.394	0.330
-605.157	-113.751	-0.289	-0.074
-604.142	-90.474	-0.388	0.147
-603.128	28.615	0.233	-0.259
-602.113	201.487	0.142	-0.289
-601.098	9.372	-0.176	0.175
-600.084	-98.024	-0.301	0.102
-599.069	-122.381	-0.354	-0.075
-598.055	-99.103	-0.038	0.013
-597.040	595.719	0.076	0.248
-596.025	-93.367	0.208	-0.075
-595.011	-88.782	0.089	-0.035
-593.996	-118.798	0.330	0.076
-592.982	376.807	0.099	-0.267
-591.967	800.000	0.138	-0.505
-590.952	26.558	-0.107	0.118
-589.938	-200.000	0.065	0.469
-588.923	-95.196	0.316	0.111
-587.909	-200.000	0.014	0.291
-586.894	-141.755	0.342	-0.045
-585.879	78.842	0.243	0.342
-584.865	127.391	-0.141	-0.236
-583.850	-192.166	-0.626	0.008
-582.836	800.000	0.065	-0.328
-581.821	-104.581	0.369	0.111
-580.806	-96.240	-0.163	0.057
-579.792	92.658	-0.160	0.238
-578.777	-96.990	-0.295	-0.101
-577.763	-10.911	-0.213	0.185
-576.748	-70.780	-0.102	0.051
-575.733	123.407	-0.088	-0.146
-574.719	-116.710	-0.249	-0.060
-573.704	-154.788	-0.350	0.030
-572.690	800.000	-0.077	0.359
-571.675	-200.000	0.028	-0.280
-570.661	81.586	0.028	-0.040
-569.646	-200.000	0.022	-0.284
-568.631	-109.770	0.098	0.027
-567.617	-19.512	0.387	0.315
-566.602	45.001	-0.318	0.385
-565.588	800.000	0.055	0.296
-564.573	40.124	0.078	0.093
-563.558	-200.000	0.005	-0.473
-562.544	-2.198	0.096	-0.089
-561.529	-43.491	-0.167	-0.111
-560.515	-68.969	-0.254	0.128
-559.500	-57.745	-0.255	-0.146
-558.485	133.147	-0.165	0.282
-557.471	-147.833	0.424	0.046
-556.456	-0.875	0.379	-0.353
-555.442	720.010	0.054	-0.189
-554.427	-92.604	-0.527	0.193
-553.412	-104.778	-0.268	0.080
-552.398	31.124	0.351	0.396
-551.383	61.680	-0.201	-0.263
-550.369	140.440	-0.180	0.313
-549.354	-200.000	0.010	0.099
-548.339	282.814	-0.028	-0.065
-547.325	-12.967	0.179	0.153
-546.310	78.852	0.332	0.468
-545.296	-200.000	-0.000	0.174
-544.281	-158.706	-0.268	0.020
-543.266	36.303	-0.145	-0.168
-542.252	-98.370	0.285	0.095
-541.237	800.000	-0.041	0.159
-540.223	800.000	0.025	0.098
-539.208	-4.537	-0.163	0.148
-538.193	-108.385	-0.385	-0.108
-537.179	647.136	0.063	-0.211
-536.164	-14.734	0.325	-0.274
-535.150	-135.802	0.147	-0.023
-534.135	-107.474	-0.354	-0.101
-533.121	105.736	-0.119	-0.185
-532.106	-168.489	-0.535	-0.026
-531.091	19.037	0.367	0.387
-530.077	-154.339	-0.378	0.033
-529.062	-200.000	0.006	0.203
-528.048	800.000	0.092	0.510
-527.033	88.240	-0.096	0.140
-526.018	-74.011	-0.359	-0.170
-525.004	-78.497	-0.361	-0.162
-523.989	-101.805	-0.202	-0.064
-522.975	-185.818	0.272	0.005
-521.960	50.771	-0.208	0.259
-520.945	-200.000	0.015	0.411
-519.931	-200.000	0.011	0.280
-518.916	-110.790	0.347	0.093
-517.902	138.165	-0.080	-0.138
-516.887	-30.701	-0.208	-0.154
-515.872	800.000	0.027	-0.152
-514.858	800.000	0.066	-0.320
-513.843	-89.218	0.458	-0.177
-512.829	800.000	-0.071	-0.312
-511.814	-156.279	-0.274	0.022
-510.799	-105.169	0.201	0.060
-509.785	547.214	0.093	-0.293
-508.770	349.711	-0.055	0.143
-507.756	-19.533	0.212	0.172
-506.741	99.195	-0.153	0.233
-505.726	-182.887	-0.333	-0.008
-504.712	-170.887	-0.208	0.009
-503.697	-115.323	-0.376	0.093
-502.683	-97.154	0.279	0.095
-501.668	-200.000	-0.029	0.627
-500.653	-112.839	-0.091	0.024
-499.639	-80.044	0.209	0.091
-498.624	1.375	-0.146	0.137
-497.610	-33.547	0.365	0.264
-496.595	-119.937	0.362	-0.081
-495.581	-96.418	-0.466	-0.161
-494.566	21.927	-0.092	-0.098
-493.551	-200.000	-0.026	0.390
-492.537	800.000	-0.050	-0.254
-491.522	-150.218	0.370	0.037
-490.508	-101.282	0.375	0.120
-489.493	-200.000	0.004	0.074
-488.478	-167.813	-0.300	0.015
-487.464	-104.083	-0.401	-0.122
-486.449	239.079	-0.080	0.175
-485.435	-172.130	-0.459	-0.019
-484.420	87.986	-0.114	0.166
-483.405	-135.633	0.570	0.088
-482.391	132.869	-0.098	0.166
-481.376	43.230	0.204	-0.245
-480.362	-133.056	0.305	-0.050
-479.347	323.687	0.087	-0.219
-478.332	29.359	-0.386	-0.430
-477.318	701.012	-0.094	0.327
-476.303	57.666	0.309	-0.396
-475.289	775.822	-0.111	0.399
-474.274	-10.185	0.112	0.097
-473.259	101.908	-0.069	-0.106
-472.245	-60.177	-0.116	0.064
-471.230	-126.915	-0.290	0.056
-470.216	132.718	-0.191	-0.323
-469.201	343.572	0.085	0.221
-468.186	114.704	0.205	-0.328
-467.172	-63.774	0.260	-0.139
-466.157	-200.000	-0.017	0.178
-465.143	-92.561	0.573	0.210
-464.128	-64.700	-0.371	0.197
-463.113	-87.815	0.292	0.115
-462.099	-73.960	-0.214	-0.102
-461.084	32.479	0.151	-0.171
-460.070	-200.000	0.014	-0.283
-459.055	-9.010	0.393	0.344
-458.040	233.938	0.039	0.085
-457.026	-69.893	-0.239	0.119
-456.011	-75.379	0.101	0.047
-454.997	-92.927	0.293	-0.107
-453.982	800.000	0.101	-0.391
-452.968	-122.542	0.177	0.037
-451.953	-200.000	-0.006	-0.058
-450.938	800.000	0.075	0.322
-449.924	800.000	0.109	-0.515
-448.909	521.501	-0.029	0.091
-447.895	-35.258	0.292	-0.207
-446.880	49.852	0.161	-0.199
-445.865	2.445	0.466	0.442
-444.851	-53.090	0.269	0.161
-443.836	757.187	0.082	0.293
-442.822	52.124	0.426	0.532
-441.807	-115.946	0.393	0.095
-440.792	17.027	0.076	0.079
-439.778	59.432	-0.011	-0.014
-438.763	800.000	0.092	0.394
-437.749	800.000	-0.027	-0.105
-436.734	-7.473	-0.080	0.071
-435.719	-8.678	-0.030	-0.026
-434.705	709.229	-0.133	0.463
-433.690	337.805	-0.144	0.368
-432.676	395.842	0.144	0.396
-431.661	-132.027	0.298	-0.050
-430.646	-183.724	-0.186	-0.004
-429.632	258.784	-0.116	0.262
-428.617	-70.707	-0.198	0.098
-427.603	800.000	0.118	0.485
-426.588	-105.243	-0.356	-0.106
-425.573	800.000	-0.060	-0.241
-424.559	91.908	-0.177	-0.261
-423.544	-21.147	-0.516	-0.412
-422.530	-200.000	0.011	-0.228
-421.515	96.182	-0.199	0.298
-420.500	-104.120	-0.249	0.075
-419.486	521.322	-0.059	-0.182
-418.471	-94.668	0.319	-0.113
-417.457	162.553	0.151	0.278
-416.442	-184.872	-0.204	0.004
-415.428	263.345	-0.015	-0.035
-414.413	37.437	-0.192	-0.223
-413.398	47.227	0.276	-0.337
-412.384	-113.730	-0.365	0.092
-411.369	800.000	0.031	0.114
-410.355	-73.073	-0.143	-0.068
-409.340	4.901	-0.340	0.326
-408.325	-143.544	0.182	0.022
-407.311	105.971	0.026	0.040
-406.296	-119.363	0.550	0.124
-405.282	264.102	0.285	-0.651
-404.267	51.202	0.192	0.238
-403.252	-51.362	-0.323	0.197
-402.238	-71.052	-0.317	-0.155
-401.223	-108.983	0.860	0.238
-400.209	103.953	-0.036	0.056
-399.194	-154.089	-0.187	-0.016
-398.179	63.579	-0.314	0.413
-397.165	-135.059	-0.300	-0.047
-396.150	-200.000	0.007	-0.200
-395.136	110.210	0.214	0.337
-394.121	800.000	0.033	-0.169
-393.106	-45.003	0.448	0.291
-392.092	-76.862	0.464	0.211
-391.077	800.000	0.059	0.309
-390.063	-51.274	0.158	-0.097
-389.048	-111.063	-0.126	0.034
-388.033	800.000	0.045	0.173
-387.019	-67.124	0.423	0.217
-386.004	24.430	0.221	-0.238
-384.990	-200.000	0.017	-0.216
-383.975	165.004	0.284	-0.526
-382.960	800.000	-0.038	0.146
-381.946	254.834	0.142	-0.320
-380.931	-200.000	0.027	-0.180
-379.917	40.960	-0.300	0.354
-378.902	9.567	-0.356	0.352
-377.888	-200.000	-0.255	-0.001
-376.873	-57.514	-0.339	0.193
-375.858	134.603	-0.222	-0.376
-374.844	-83.180	-0.241	0.101
-373.829	-164.462	0.456	0.027
-372.815	-119.232	0.110	-0.025
-371.800	311.819	0.073	0.181
-370.785	800.000	0.045	-0.194
-369.771	-65.433	-0.052	-0.027
-368.756	-5.432	-0.194	0.173
-367.742	-51.870	-0.121	0.073
-366.727	4.854	0.155	-0.149
-365.712	-105.019	0.323	-0.096
-364.698	-4.501	0.205	0.185
-363.683	-155.973	0.540	0.044
-362.669	-134.703	-0.145	0.023
-361.654	-131.536	-0.165	0.028
-360.639	51.723	0.242	-0.301
-359.625	23.455	0.171	0.184
-358.610	306.462	-0.292	0.713
-357.596	-190.037	0.643	-0.009
-356.581	-93.801	0.330	-0.118
-355.566	-127.816	-0.641	0.119
-354.552	95.543	-0.136	0.203
-353.537	-200.000	-0.023	0.511
-352.523	-97.679	0.283	-0.095
-351.508	-200.000	0.029	0.441
-350.493	129.462	0.274	-0.458
-349.479	-144.057	0.089	0.011
-348.464	557.739	-0.167	0.530
-347.450	662.038	0.094	0.316
-346.435	-110.149	-0.299	-0.081
-345.420	-124.489	-0.243	0.049
-344.406	-200.000	-0.024	0.215
-343.391	-24.833	0.217	0.168
-342.377	26.523	-0.128	-0.139
-341.362	311.784	0.028	-0.068
-340.348	-200.000	-0.011	-0.152
-339.333	110.624	-0.271	-0.427
-338.318	55.861	0.150	-0.190
-337.304	2.019	-0.348	-0.328
-336.289	-200.000	-0.010	0.221
-335.275	-100.399	0.170	-0.055
-334.260	-51.863	0.262	-0.158
-333.245	-132.980	0.257	0.042
-332.231	68.592	0.246	0.330
-331.216	313.638	-0.088	-0.216
-330.202	-101.104	0.224	0.071
-329.187	-40.474	-0.221	-0.149
-328.172	-4.144	-0.235	0.212
-327.158	800.000	-0.115	0.425
-326.143	109.278	-0.178	-0.278
-325.129	-107.339	-0.240	0.068
-324.114	-105.093	-0.420	0.124
-323.099	-23.384	0.088	-0.069
-322.085	-24.348	-0.290	-0.225
-321.070	-143.015	0.196	-0.025
-320.056	-157.166	0.139	0.011
-319.041	17.399	-0.202	-0.209
-318.026	-44.205	-0.564	-0.368
-317.012	366.450	0.156	-0.413
-315.997	190.788	0.056	-0.110
-314.983	-106.302	-0.644	0.187
-313.968	-16.984	-0.129	0.106
-312.953	-163.599	-0.468	0.028
-311.939	154.666	0.188	-0.338
-310.924	-200.000	-0.025	-0.226
-309.910	89.909	0.151	-0.220
-308.895	-94.275	-0.188	-0.067
-307.880	-199.180	-0.249	-0.002
-306.866	-26.499	0.313	0.238
-305.851	800.000	0.032	-0.123
-304.837	-200.000	-0.042	0.560
-303.822	800.000	-0.063	-0.362
-302.807	-43.423	-0.157	0.103
-301.793	-174.378	0.372	-0.014
-300.778	-89.927	0.346	-0.131
-299.764	96.068	-0.114	0.169
-298.749	-108.878	0.487	-0.135
-297.735	221.869	0.174	0.365
-296.720	0.900	0.171	-0.159
-295.705	-107.358	-0.159	-0.045
-294.691	-154.049	-0.330	-0.029
-293.676	-123.924	0.738	0.150
-292.662	-116.079	0.234	-0.056
-291.647	78.579	-0.451	-0.628
-290.632	-4.581	-0.173	-0.156
-289.618	456.609	0.145	-0.422
-288.603	57.921	-0.261	0.333
-287.589	28.386	0.345	0.380
-286.574	-11.793	-0.204	-0.174
-285.559	-57.019	-0.599	0.343
-284.545	-45.217	0.386	-0.249
-283.530	-144.437	0.480	0.057
-282.516	184.850	-0.152	-0.293
-281.501	-147.923	-0.180	-0.019
-280.486	-116.941	-0.721	0.170
-279.472	-200.000	-0.904	-0.002
-278.457	-64.314	0.304	0.160
-277.443	357.104	-0.123	0.320
-276.428	800.000	-0.114	-0.487
-275.413	-30.770	-0.041	0.030
-274.399	-131.874	0.359	-0.060
-273.384	-200.000	-0.010	-0.080
-272.370	48.899	0.175	0.213
-271.355	-144.711	-0.445	0.053
-270.340	-200.000	0.062	0.589
-269.326	81.287	-0.095	-0.134
-268.311	-60.647	0.100	0.055
-267.297	102.235	-0.409	0.623
-266.282	221.085	0.075	0.157
-265.267	800.000	0.107	0.442
-264.253	28.110	0.196	-0.215
-263.238	368.385	-0.121	0.321
-262.224	475.801	0.094	-0.279
-261.209	-109.706	-0.628	-0.171
-260.195	-144.850	0.168	-0.020
-259.180	-7.576	-0.512	0.450
-258.165	-168.210	-0.258	-0.013
-257.151	800.000	0.064	-0.231
-256.136	55.561	0.167	-0.211
-255.122	324.731	-0.119	-0.296
-254.107	-200.000	-0.036	0.305
-253.092	-21.863	0.048	0.038
-252.078	-200.000	-0.007	-0.103
-251.063	-81.023	-0.235	-0.101
-250.049	20.673	0.508	0.535
-249.034	-113.744	0.194	0.049
-248.019	342.208	0.242	-0.617
-247.005	-64.712	0.456	0.239
-245.990	-116.584	0.345	-0.082
-244.976	48.643	-0.080	0.097
-243.961	-164.054	0.232	-0.014
-242.946	124.458	0.040	-0.065
-241.932	294.421	-0.095	-0.227
-240.917	14.237	-0.118	-0.119
-239.903	335.784	0.184	-0.466
-238.888	-81.210	0.272	-0.116
-237.873	-37.315	-0.191	-0.132
-236.859	-86.074	-0.118	0.047
-235.844	-46.238	-0.372	-0.237
-234.830	695.187	-0.193	-0.662
-233.815	-200.000	0.074	-0.000
-232.800	-111.364	0.327	-0.086
-231.786	-200.000	-0.000	-0.162
-230.771	-10.798	0.191	-0.164
-229.757	177.652	-0.122	-0.231
-228.742	-112.353	0.473	0.122
-227.727	204.771	0.287	-0.580
-226.713	-111.567	0.336	-0.088
-225.698	800.000	0.010	0.047
-224.684	334.653	-0.052	0.130
-223.669	-200.000	-0.014	-0.098
-222.655	124.877	-0.195	0.320
-221.640	-27.849	0.433	0.325
-220.625	110.387	0.063	0.098
-219.611	-200.000	0.015	0.212
-218.596	-85.699	0.057	0.023
-217.582	-37.366	0.158	-0.109
-216.567	19.598	-0.119	-0.124
-215.552	-200.000	0.110	0.629
-214.538	-38.332	0.419	0.287
-213.523	-200.000	0.006	0.712
-212.509	30.278	-0.113	0.125
-211.494	-184.024	0.370	-0.008
-210.479	-138.321	0.226	0.032
-209.465	-110.084	0.246	-0.066
-208.450	-200.000	-0.010	-0.376
-207.436	602.676	0.059	-0.192
-206.421	199.086	-0.133	-0.265
-205.406	-118.480	-0.431	0.098
-204.392	5.267	0.283	0.271
-203.377	626.517	0.087	-0.288
-202.363	-27.085	0.098	-0.074
-201.348	-155.773	-0.457	0.037
-200.333	-82.968	0.200	0.083
-199.319	484.646	0.165	0.489
-198.304	375.582	-0.087	-0.231
-197.290	800.000	-0.113	-0.485
-196.275	-200.000	0.260	-0.001
-195.260	800.000	-0.036	-0.178
-194.246	25.586	0.357	-0.385
-193.231	174.384	-0.188	0.354
-192.217	138.269	0.199	-0.340
-191.202	-109.935	0.185	0.050
-190.187	203.457	-0.218	-0.438
-189.173	-167.289	0.221	0.011
-188.158	525.033	-0.171	-0.523
-187.144	-183.431	0.435	0.010
-186.129	-148.784	0.742	0.077
-185.114	-83.988	0.585	-0.240
-184.100	800.000	-0.042	-0.175
-183.085	29.581	0.147	-0.162
-182.071	-47.996	-0.234	0.146
-181.056	-155.942	-0.386	0.031
-180.042	73.562	0.234	0.319
-179.027	154.012	0.089	0.158
-178.012	-200.000	-0.047	0.473
-176.998	126.467	-0.205	0.337
-175.983	-120.260	-0.021	0.005
-174.969	274.379	-0.091	-0.209
-173.954	-200.000	0.058	-0.484
-172.939	-200.000	-0.077	0.478
-171.925	-70.166	0.509	0.249
-170.910	-110.791	0.372	-0.099
-169.896	-146.168	-0.274	-0.031
-168.881	-200.000	-0.004	-0.438
-167.866	800.000	-0.037	-0.146
-166.852	597.039	-0.134	-0.434
-165.837	-200.000	-0.001	0.097
-164.823	-200.000	-0.004	0.239
-163.808	137.141	0.177	-0.300
-162.793	82.671	0.212	-0.299
-161.779	-144.354	-0.085	0.010
-160.764	-45.757	0.240	-0.153
-159.750	438.142	-0.142	-0.404
-158.735	-200.000	-0.048	0.341
-157.720	-66.255	0.078	0.040
-156.706	800.000	0.044	0.202
-155.691	-86.037	-0.381	-0.152
-154.677	82.752	-0.316	-0.445
-153.662	399.008	0.156	-0.424
-152.647	-151.444	-0.196	-0.019
-151.633	156.203	-0.218	0.391
-150.618	-200.000	-0.028	0.449
-149.604	-34.394	-0.198	0.140
-148.589	-104.987	-0.376	-0.111
-147.574	25.498	-0.127	0.137
-146.560	-106.462	-0.227	0.065
-145.545	-50.325	-0.157	0.095
-144.531	-62.147	-0.122	0.066
-143.516	-157.916	-0.197	-0.015
-142.502	119.796	0.077	0.124
-141.487	-53.954	0.083	0.049
-140.472	48.818	-0.109	-0.133
-139.458	-35.696	0.299	0.209
-138.443	-126.198	-0.209	0.040
-137.429	-162.844	0.554	-0.034
-136.414	700.589	-0.051	0.175
-135.399	-91.327	0.461	-0.170
-134.385	800.000	-0.038	-0.143
-133.370	73.567	-0.172	-0.233
-132.356	662.977	0.101	0.340
-131.341	375.828	-0.040	0.107
-130.326	141.176	-0.261	0.448
-129.312	61.029	0.285	0.366
-128.297	-84.301	0.212	0.087
-127.283	349.320	0.207	-0.530
-126.268	471.899	-0.047	0.137
-125.253	-127.425	-0.293	-0.055
-124.239	59.364	0.137	0.174
-123.224	-94.945	-0.317	-0.110
-122.210	474.076	0.044	-0.129
