DTS Sentinel unit serial number:	SN409020Multiplexer serial number:	ORYXHardware model number:	OX4-SRSoftware version number:	ORYX F/W v3.00 Oryx Data Collector v3.7.2.0data status	okinstallation	HaddamTimeLapsedifferential loss correction	single-endedforward channel	channel 3reverse channel	N/Adate	2011/06/22time	06:11:17forward acquisition time	30.00reverse acquisition time	0.00gamma	498.7831k internal	0.1751k external	0.1751temperature offset calibration	1.0074default loss term (dB/km)	0.3790temperature slope calibration	1.3530multiplexer offset coefficient	1.0000multiplexer slope coefficient	1.0000fibre end	0.00T internal ref (°C)	22.59T ext. ref 1 (°C)	18.23T ext. ref 2 (°C)	0.18length (m)	temperature (°C)	Stokes	anti-Stokes-747.200	145.484	-0.077	-0.138
-746.185	800.000	-0.138	0.660
-745.171	-200.000	-0.007	-0.065
-744.156	521.721	0.132	-0.414
-743.142	-56.759	-0.526	-0.308
-742.127	-159.056	0.169	-0.013
-741.112	-157.297	0.424	-0.034
-740.098	-200.000	0.108	0.799
-739.083	-19.992	0.252	0.206
-738.069	260.307	-0.087	0.201
-737.054	220.091	0.201	0.430
-736.039	-200.000	0.007	-0.401
-735.025	-32.675	0.375	0.276
-734.010	-187.997	0.598	0.010
-732.996	137.635	0.183	-0.319
-731.981	-200.000	0.025	-0.393
-730.966	15.533	-0.329	0.343
-729.952	154.475	-0.134	0.244
-728.937	-103.911	0.241	0.074
-727.923	-200.000	0.031	0.351
-726.908	-109.763	0.465	0.129
-725.894	467.602	-0.163	-0.487
-724.879	-15.327	-0.102	-0.086
-723.864	119.047	0.187	-0.307
-722.850	-60.462	0.384	0.216
-721.835	-131.810	0.189	0.032
-720.821	-200.000	-0.025	0.242
-719.806	699.923	-0.204	-0.716
-718.791	-19.324	-0.363	0.298
-717.777	-3.971	0.424	0.389
-716.762	734.593	-0.018	-0.066
-715.748	27.017	0.371	-0.413
-714.733	-140.151	-0.255	-0.035
-713.718	-149.566	-0.291	-0.030
-712.704	151.533	0.090	-0.163
-711.689	-38.025	-0.118	0.083
-710.675	-200.000	-0.019	0.232
-709.660	-86.027	0.167	-0.068
-708.645	532.413	0.118	0.374
-707.631	-99.801	-0.349	0.115
-706.616	-161.791	0.193	0.013
-705.602	86.966	-0.176	-0.258
-704.587	-200.000	-0.049	0.556
-703.572	122.028	0.224	-0.371
-702.558	800.000	-0.045	-0.185
-701.543	-38.796	-0.132	-0.092
-700.529	174.625	-0.357	-0.687
-699.514	6.975	0.204	-0.202
-698.499	800.000	-0.111	0.518
-697.485	-139.131	-0.504	-0.071
-696.470	-191.575	0.178	0.002
-695.456	80.412	0.235	0.336
-694.441	-127.646	-0.269	0.051
-693.426	-110.138	-0.421	-0.116
-692.412	-136.218	0.026	-0.004
-691.397	-22.999	-0.595	0.475
-690.383	0.409	0.304	0.287
-689.368	73.619	-0.261	-0.363
-688.354	-197.601	-0.021	-0.000
-687.339	-28.057	-0.221	0.169
-686.324	-120.647	-0.293	-0.065
-685.310	-162.839	0.256	0.016
-684.295	-29.767	-0.576	-0.435
-683.281	-23.165	-0.430	-0.343
-682.266	-200.000	0.000	0.169
-681.251	243.543	-0.188	-0.420
-680.237	-188.531	0.970	-0.016
-679.222	-200.000	-0.024	0.224
-678.208	19.136	0.458	0.487
-677.193	26.165	-0.167	-0.185
-676.178	22.400	-0.196	0.212
-675.164	-139.239	-0.295	-0.042
-674.149	-200.000	0.004	-0.172
-673.135	46.927	-0.247	-0.304
-672.120	-200.000	-0.397	0.002
-671.105	-200.000	-0.019	0.296
-670.091	219.938	-0.047	0.099
-669.076	-127.471	-0.451	0.086
-668.062	-200.000	0.000	-0.549
-667.047	32.019	0.047	0.054
-666.032	-146.040	-0.470	0.054
-665.018	305.113	-0.135	-0.333
-664.003	24.441	0.072	0.079
-662.989	-82.787	-0.140	-0.060
-661.974	-200.000	-0.042	-0.357
-660.959	-33.263	0.312	-0.228
-659.945	-145.315	-0.149	-0.018
-658.930	183.962	0.229	0.450
-657.916	-200.000	0.004	-0.066
-656.901	-30.891	0.324	-0.242
-655.886	679.377	-0.062	-0.216
-654.872	-147.455	-0.190	0.021
-653.857	-25.727	-0.100	0.078
-652.843	5.268	0.155	-0.151
-651.828	-17.076	0.342	0.285
-650.814	-92.994	-0.161	-0.059
-649.799	-74.818	-0.235	-0.111
-648.784	-125.723	0.344	-0.068
-647.770	-25.391	-0.225	0.176
-646.755	279.634	-0.052	-0.124
-645.741	-81.557	0.285	0.124
-644.726	37.405	0.214	0.251
-643.711	99.177	-0.162	0.248
-642.697	-63.498	0.167	0.090
-641.682	-154.920	-0.243	-0.021
-640.668	800.000	-0.052	-0.215
-639.653	-200.000	0.054	-0.394
-638.638	41.833	0.297	-0.357
-637.624	-108.623	0.472	-0.133
-636.609	-74.604	0.240	0.114
-635.595	-103.194	-0.209	0.065
-634.580	128.232	-0.316	0.532
-633.565	18.283	-0.414	-0.437
-632.551	-200.000	0.012	-0.431
-631.536	-163.096	-0.230	0.014
-630.522	142.878	-0.147	-0.258
-629.507	342.291	-0.092	-0.240
-628.492	592.610	-0.123	-0.404
-627.478	-101.515	0.119	0.038
-626.463	108.430	0.063	0.100
-625.449	-200.000	-0.044	0.564
-624.434	553.136	0.159	0.509
-623.419	132.001	-0.202	0.345
-622.405	-200.000	0.065	0.446
-621.390	-22.745	0.638	0.509
-620.376	184.367	0.082	0.161
-619.361	-188.391	0.315	-0.005
-618.346	250.781	-0.230	-0.518
-617.332	120.239	-0.100	-0.164
-616.317	33.441	-0.169	0.194
-615.303	37.209	-0.062	0.073
-614.288	-48.654	0.259	0.164
-613.273	211.590	-0.169	-0.353
-612.259	-101.737	0.374	-0.119
-611.244	292.274	-0.077	0.186
-610.230	89.261	-0.167	0.246
-609.215	-26.882	-0.530	-0.409
-608.201	240.155	-0.251	-0.554
-607.186	3.267	0.314	-0.301
-606.171	228.756	-0.030	-0.064
-605.157	-200.000	0.011	-0.330
-604.142	800.000	0.026	-0.131
-603.128	-200.000	0.032	-0.306
-602.113	-118.894	-0.339	0.078
-601.098	-200.000	-0.004	0.462
-600.084	-73.782	0.351	0.168
-599.069	-126.820	0.454	0.088
-598.055	8.785	0.217	0.215
-597.040	246.443	0.072	-0.161
-596.025	58.263	0.294	-0.381
-595.011	-120.892	-0.179	0.040
-593.996	97.280	-0.203	-0.309
-592.982	248.249	0.090	0.203
-591.967	-18.995	0.391	-0.320
-590.952	-110.654	0.368	-0.100
-589.938	-71.536	-0.316	-0.155
-588.923	157.216	0.055	-0.100
-587.909	-63.870	0.480	0.258
-586.894	48.881	-0.094	-0.116
-585.879	366.984	-0.013	-0.035
-584.865	-92.549	-0.216	-0.080
-583.850	-168.250	0.170	0.009
-582.836	152.595	0.111	-0.200
-581.821	-200.000	0.038	0.368
-580.806	-137.943	0.314	0.046
-579.792	-70.842	0.273	0.135
-578.777	375.466	-0.067	0.180
-577.763	-31.552	0.458	0.339
-576.748	-49.459	0.465	0.292
-575.733	14.223	0.339	-0.349
-574.719	-44.178	-0.244	-0.161
-573.704	670.102	-0.161	0.553
-572.690	59.259	0.219	0.285
-571.675	145.763	0.064	-0.113
-570.661	-75.572	-0.200	-0.094
-569.646	237.837	-0.248	0.545
-568.631	-50.041	0.206	0.128
-567.617	-139.415	0.311	-0.043
-566.602	-167.752	-0.199	0.010
-565.588	-108.917	0.079	-0.022
-564.573	201.173	0.206	-0.420
-563.558	-200.000	-0.030	-0.266
-562.544	800.000	-0.017	0.086
-561.529	-200.000	0.026	-0.190
-560.515	-65.789	-0.113	0.060
-559.500	-7.994	0.180	-0.160
-558.485	102.259	-0.051	0.079
-557.471	-112.492	-0.371	-0.097
-556.456	-14.538	-0.449	-0.380
-555.442	496.007	-0.150	0.458
-554.427	-200.000	0.008	-0.057
-553.412	-141.093	-0.456	-0.061
-552.398	747.738	-0.062	-0.220
-551.383	-97.492	-0.169	0.058
-550.369	-45.814	0.315	-0.204
-549.354	-102.261	0.636	-0.200
-548.339	-88.769	-0.065	0.025
-547.325	-54.493	0.115	0.068
-546.310	47.562	-0.198	0.243
-545.296	-78.475	-0.367	0.165
-544.281	-114.736	-0.249	0.062
-543.266	443.718	-0.159	0.463
-542.252	300.904	-0.172	-0.419
-541.237	104.242	0.315	0.490
-540.223	-45.990	-0.111	-0.072
-539.208	800.000	-0.098	-0.465
-538.193	-3.779	0.348	-0.318
-537.179	-35.534	-0.176	-0.125
-536.164	-200.000	-0.005	0.659
-535.150	-125.571	-0.209	0.041
-534.135	402.672	-0.125	-0.347
-533.121	-9.491	0.382	-0.336
-532.106	-49.303	0.468	-0.293
-531.091	-26.295	-0.273	0.210
-530.077	223.529	-0.207	0.441
-529.062	-47.603	-0.054	-0.035
-528.048	-117.773	-0.197	0.046
-527.033	-200.000	-0.004	-0.536
-526.018	-124.068	-0.068	0.014
-525.004	81.336	-0.135	-0.193
-523.989	-29.515	-0.227	0.171
-522.975	800.000	0.060	0.341
-521.960	191.025	0.042	0.083
-520.945	-200.000	0.030	0.324
-519.931	-58.505	-0.075	0.043
-518.916	78.921	0.147	-0.207
-517.902	-11.474	-0.269	0.232
-516.887	-197.815	-0.827	0.006
-515.872	-81.862	-0.851	0.365
-514.858	-163.300	0.162	0.010
-513.843	-200.000	0.013	0.333
-512.829	-200.000	-0.028	-0.252
-511.814	-83.300	-0.292	0.123
-510.799	-109.850	-0.181	-0.050
-509.785	281.290	0.142	0.335
-508.770	278.289	0.227	0.533
-507.756	203.907	-0.172	-0.352
-506.741	-200.000	-0.030	-0.323
-505.726	-200.000	-0.050	-0.448
-504.712	800.000	0.098	0.394
-503.697	222.309	0.125	-0.266
-502.683	16.337	0.227	0.235
-501.668	800.000	0.066	-0.308
-500.653	-77.311	-0.380	0.173
-499.639	29.033	-0.079	-0.088
-498.624	-90.487	-0.318	0.121
-497.610	-31.302	0.079	-0.059
-496.595	290.423	-0.058	-0.140
-495.581	359.245	0.210	-0.556
-494.566	-112.170	-0.234	-0.061
-493.551	-131.117	0.053	0.009
-492.537	14.775	-0.408	0.419
-491.522	20.980	-0.300	-0.320
-490.508	70.469	0.082	0.112
-489.493	2.778	0.376	-0.359
-488.478	800.000	0.104	0.454
-487.464	-127.353	0.475	0.090
-486.449	-99.833	-0.505	-0.165
-485.435	-163.352	-0.109	-0.007
-484.420	-119.440	-0.425	-0.096
-483.405	-95.885	-0.274	0.095
-482.391	51.559	-0.082	-0.102
-481.376	-70.570	0.220	-0.109
-480.362	-92.585	-0.454	-0.166
-479.347	-109.659	-0.363	0.100
-478.332	-200.000	0.006	-0.425
-477.318	-145.741	-0.509	-0.059
-476.303	20.035	-0.211	-0.224
-475.289	152.604	-0.174	-0.314
-474.274	352.791	0.126	-0.330
-473.259	-28.491	-0.118	0.090
-472.245	-93.621	-0.413	-0.149
-471.230	-46.880	-0.209	0.134
-470.216	-126.009	-0.047	-0.009
-469.201	-80.635	-0.482	-0.210
-468.186	-200.000	-0.016	0.397
-467.172	-93.532	0.281	0.101
-466.157	-99.932	-0.074	0.024
-465.143	-48.635	-0.186	-0.117
-464.128	-154.474	0.057	0.005
-463.113	-118.046	0.206	-0.048
-462.099	-51.251	0.356	0.218
-461.084	-75.219	0.415	0.194
-460.070	800.000	-0.111	0.431
-459.055	28.868	-0.279	-0.311
-458.040	-93.678	-0.440	-0.158
-457.026	26.382	0.224	-0.246
-456.011	10.297	0.229	0.229
-454.997	-120.350	0.051	-0.011
-453.982	-198.981	-0.097	-0.001
-452.968	64.761	0.114	0.151
-451.953	-169.692	0.818	-0.038
-450.938	-90.374	-0.331	-0.126
-449.924	14.649	-0.230	-0.235
-448.909	103.516	0.119	0.184
-447.895	45.634	0.452	-0.548
-446.880	-158.746	0.466	0.035
-445.865	-200.000	0.255	-0.001
-444.851	-40.332	-0.112	0.076
-443.836	-81.853	0.197	0.084
-442.822	33.494	-0.119	0.136
-441.807	-200.000	0.018	0.544
-440.792	-21.457	-0.241	0.193
-439.778	-164.024	-0.343	0.021
-438.763	800.000	0.056	-0.238
-437.749	-84.311	0.295	-0.122
-436.734	800.000	-0.041	-0.184
-435.719	800.000	0.083	-0.315
-434.705	-200.000	-0.015	0.145
-433.690	4.497	0.046	0.044
-432.676	-105.066	0.289	-0.086
-431.661	-92.415	-0.113	0.041
-430.646	-21.335	-0.508	0.406
-429.632	481.370	-0.143	0.428
-428.617	-200.000	-0.057	0.449
-427.603	800.000	0.092	0.361
-426.588	754.096	0.014	0.050
-425.573	-120.436	0.673	-0.149
-424.559	-173.137	0.216	0.009
-423.544	7.215	0.133	-0.130
-422.530	-88.703	0.784	0.304
-421.515	616.137	0.065	0.217
-420.500	-200.000	-0.022	0.145
-419.486	489.203	-0.085	-0.256
-418.471	-53.137	0.336	-0.202
-417.457	73.666	0.225	-0.310
-416.442	-200.000	-0.017	-0.397
-415.428	-19.421	0.221	-0.180
-414.413	-128.943	0.258	-0.047
-413.398	120.419	-0.235	-0.384
-412.384	-200.000	0.010	0.227
-411.369	-200.000	0.086	-0.656
-410.355	800.000	0.132	0.485
-409.340	-75.653	0.067	0.031
-408.325	130.800	-0.157	-0.265
-407.311	-114.250	-0.047	0.012
-406.296	-200.000	-0.052	-0.355
-405.282	19.790	0.203	0.215
-404.267	15.545	-0.173	-0.178
-403.252	-200.000	0.030	-0.251
-402.238	-35.903	-0.047	-0.034
-401.223	77.526	-0.352	-0.492
-400.209	-16.183	0.170	-0.141
-399.194	800.000	0.150	-0.558
-398.179	-150.302	-0.211	0.021
-397.165	491.637	-0.116	-0.351
-396.150	506.767	-0.063	-0.193
-395.136	-49.953	0.452	-0.280
-394.121	207.894	0.105	-0.216
-393.106	800.000	0.040	-0.166
-392.092	-200.000	-0.003	0.155
-391.077	-40.121	-0.181	0.123
-390.063	-86.435	0.258	-0.103
-389.048	-200.000	0.026	0.403
-388.033	61.700	0.257	0.335
-387.019	-11.460	-0.016	0.014
-386.004	-84.402	-0.091	0.038
-384.990	800.000	-0.092	-0.341
-383.975	-153.988	0.387	-0.034
-382.960	42.358	-0.123	-0.146
-381.946	13.312	0.242	-0.245
-380.931	-123.327	0.378	-0.078
-379.917	-71.538	0.572	-0.279
-378.902	-200.000	0.025	0.358
-377.888	122.352	-0.157	0.257
-376.873	-200.000	0.007	-0.127
-375.858	122.601	-0.297	0.487
-374.844	238.472	-0.130	0.283
-373.829	-200.000	-0.022	0.333
-372.815	219.370	0.177	0.372
-371.800	-83.764	-0.116	-0.048
-370.785	-85.892	-0.285	-0.115
-369.771	-150.341	0.240	-0.024
-368.756	143.467	-0.057	-0.100
-367.742	-78.669	0.266	-0.118
-366.727	-141.850	-0.123	-0.016
-365.712	59.392	-0.221	-0.286
-364.698	2.712	-0.174	0.165
-363.683	-68.600	-0.403	-0.203
-362.669	-55.282	-0.225	0.132
-361.654	-174.678	0.433	-0.016
-360.639	-64.324	-0.112	-0.059
-359.625	-34.048	0.646	-0.464
-358.610	725.848	0.177	0.621
-357.596	-103.595	0.227	0.069
-356.581	800.000	0.047	-0.175
-355.566	146.149	0.208	0.367
-354.552	-34.395	-0.468	0.335
-353.537	146.122	-0.122	0.214
-352.523	261.096	-0.172	0.391
-351.508	36.509	-0.149	0.172
-350.493	-88.975	-0.176	0.068
-349.479	8.944	-0.100	-0.099
-348.464	-40.791	-0.342	-0.231
-347.450	22.662	-0.298	0.319
-346.435	-100.009	-0.594	-0.192
-345.420	60.367	0.165	0.214
-344.406	-189.688	-0.122	0.002
-343.391	-140.900	-0.375	-0.050
-342.377	20.848	0.193	0.204
-341.362	-70.040	-0.278	-0.138
-340.348	-200.000	0.009	0.159
-339.333	-149.395	-0.329	-0.034
-338.318	-156.266	-0.455	0.037
-337.304	-97.347	0.450	0.152
-336.289	85.983	-0.180	0.259
-335.275	-200.000	0.034	-0.212
-334.260	309.320	-0.097	0.237
-333.245	-38.307	0.130	0.090
-332.231	-200.000	-0.017	0.100
-331.216	800.000	-0.090	-0.471
-330.202	800.000	-0.064	0.348
-329.187	-200.000	0.003	0.545
-328.172	33.886	-0.112	-0.127
-327.158	-123.955	0.233	0.047
-326.143	-200.000	-0.021	0.148
-325.129	234.097	0.110	0.237
-324.114	-24.040	0.468	0.365
-323.099	214.081	-0.191	0.396
-322.085	800.000	-0.105	-0.390
-321.070	-109.626	0.437	0.120
-320.056	84.029	0.101	-0.144
-319.041	45.481	-0.319	0.384
-318.026	-200.000	0.093	0.665
-317.012	-25.319	-0.080	0.062
-315.997	-200.000	0.003	-0.204
-314.983	-56.503	-0.274	0.158
-313.968	393.745	-0.155	-0.422
-312.953	-200.000	0.037	-0.336
-311.939	-45.245	-0.506	-0.327
-310.924	31.257	-0.125	0.140
-309.910	-8.908	-0.091	-0.079
-308.895	-140.548	0.654	0.088
-307.880	800.000	-0.048	-0.203
-306.866	-49.408	-0.214	-0.133
-305.851	-62.615	-0.206	-0.111
-304.837	-145.080	-0.443	-0.052
-303.822	128.845	0.124	-0.207
-302.807	-37.313	0.218	0.152
-301.793	-158.575	0.326	0.024
-300.778	800.000	0.213	0.995
-299.764	-171.235	-0.572	-0.025
-298.749	284.835	-0.061	0.145
-297.735	164.407	-0.161	-0.298
-296.720	54.320	0.150	0.189
-295.705	29.780	-0.175	0.194
-294.691	-94.215	0.273	0.097
-293.676	19.614	0.117	0.123
-292.662	-145.281	-0.294	-0.034
-291.647	-55.994	-0.285	0.165
-290.632	-199.601	-0.251	0.002
-289.618	103.874	-0.194	-0.299
-288.603	181.251	-0.127	0.244
-287.589	-127.120	-0.259	-0.049
-286.574	176.500	-0.249	0.473
-285.559	633.554	-0.107	0.357
-284.545	284.721	-0.191	0.451
-283.530	45.133	-0.156	0.188
-282.516	728.347	-0.109	0.382
-281.501	-44.811	0.473	0.307
-280.486	18.947	-0.309	-0.323
-279.472	517.105	-0.108	0.331
-278.457	15.507	-0.307	0.314
-277.443	-94.367	0.450	-0.159
-276.428	-73.281	-0.237	-0.112
-275.413	-80.274	0.270	-0.117
-274.399	-109.005	0.230	0.063
-273.384	-81.910	0.083	0.035
-272.370	-57.638	0.209	-0.119
-271.355	122.418	0.154	0.252
-270.340	-200.000	-0.002	0.023
-269.326	58.658	0.229	0.293
-268.311	166.810	0.129	0.240
-267.297	800.000	-0.077	-0.435
-266.282	-200.000	-0.001	-0.281
-265.267	-148.349	-0.616	0.065
-264.253	79.443	-0.224	-0.313
-263.238	8.475	0.310	-0.304
-262.224	800.000	-0.058	-0.300
-261.209	-132.412	0.129	0.021
-260.195	-86.542	0.035	0.014
-259.180	-68.049	0.302	0.153
-258.165	139.326	-0.040	0.069
-257.151	-59.456	0.462	0.258
-256.136	167.123	0.143	0.266
-255.122	-36.479	-0.106	-0.074
-254.107	-200.000	0.010	0.069
-253.092	-117.252	0.639	-0.150
-252.078	-139.407	0.404	-0.056
-251.063	-93.289	0.285	-0.103
-250.049	-200.000	0.042	-0.345
-249.034	800.000	-0.085	-0.322
-248.019	-200.000	0.023	-0.480
-247.005	-82.545	-0.402	0.169
-245.990	451.366	0.145	-0.418
-244.976	800.000	0.088	-0.319
-243.961	45.404	-0.301	0.362
-242.946	-130.938	-0.140	-0.024
-241.932	-59.922	0.160	-0.089
-240.917	-50.201	-0.235	-0.144
-239.903	363.170	-0.077	0.201
-238.888	-144.068	0.282	0.034
-237.873	-200.000	0.081	0.559
-236.859	-24.013	0.209	-0.162
-235.844	193.203	0.113	0.222
-234.830	-53.472	0.389	0.231
-233.815	126.921	0.289	0.478
-232.800	-154.857	-0.326	0.028
-231.786	174.951	-0.180	0.339
-230.771	417.411	0.128	0.356
-229.757	-134.443	-0.069	-0.011
-228.742	-95.027	0.274	-0.096
-227.727	800.000	-0.028	0.133
-226.713	-45.559	-0.308	0.198
-225.698	-40.567	0.585	-0.394
-224.684	-134.490	0.158	0.025
-223.669	-91.073	0.016	-0.006
-222.655	32.649	0.222	0.250
-221.640	800.000	0.030	0.152
-220.625	124.192	0.233	0.382
-219.611	-90.652	0.152	0.057
-218.596	-35.000	-0.167	-0.118
-217.582	800.000	-0.021	0.114
-216.567	-110.831	-0.056	-0.015
-215.552	-96.960	-0.171	0.058
-214.538	-146.050	0.292	-0.033
-213.523	-54.463	0.339	-0.199
-212.509	-114.386	-0.446	-0.111
-211.494	-31.887	0.187	0.136
-210.479	98.601	0.134	0.201
-209.465	-95.063	0.342	-0.120
-208.450	-5.507	0.191	0.170
-207.436	-40.548	-0.200	0.135
-206.421	-101.336	0.258	0.081
-205.406	140.698	-0.284	0.489
-204.392	482.248	-0.003	0.010
-203.377	-200.000	-0.021	0.237
-202.363	298.498	-0.010	-0.025
-201.348	-142.803	0.014	0.002
-200.333	-43.834	-0.129	-0.084
-199.319	-100.159	0.212	0.068
-198.304	21.005	0.117	-0.124
-197.290	564.695	-0.129	-0.410
-196.275	-138.561	-0.258	0.036
-195.260	52.146	-0.141	-0.175
-194.246	-70.658	0.158	0.077
-193.231	-200.000	-0.013	0.109
-192.217	-200.000	-0.012	0.279
-191.202	193.838	-0.125	-0.247
-190.187	-109.597	0.136	0.037
-189.173	-180.880	0.530	0.014
-188.158	-6.492	0.161	-0.142
-187.144	157.667	-0.204	0.367
-186.129	184.025	0.128	0.246
-185.114	94.698	-0.267	-0.395
-184.100	-69.147	-0.393	-0.196
-183.085	380.947	-0.160	0.430
-182.071	-200.000	0.007	0.159
-181.056	12.358	-0.337	0.338
-180.042	-200.000	0.009	0.098
-179.027	-88.433	0.079	-0.030
-178.012	182.782	0.174	-0.335
-176.998	22.273	-0.218	-0.231
-175.983	800.000	0.077	-0.280
-174.969	105.059	0.364	-0.559
-173.954	-60.877	0.384	-0.210
-172.939	-30.512	-0.408	-0.300
-171.925	-22.606	-0.219	-0.172
-170.910	800.000	-0.053	0.266
-169.896	-158.669	-0.307	-0.023
-168.881	-102.389	-0.327	-0.101
-167.866	-97.638	0.278	-0.093
-166.852	-112.571	0.483	-0.124
-165.837	665.060	-0.053	0.180
-164.823	-200.000	0.039	-0.248
-163.808	-71.271	0.213	0.103
-162.793	418.685	0.246	-0.686
-161.779	-137.606	0.523	0.076
-160.764	-22.857	0.216	-0.169
-159.750	-200.000	-0.018	-0.316
-158.735	438.060	-0.082	-0.233
-157.720	81.409	-0.284	-0.399
-156.706	-200.000	-0.068	-0.587
-155.691	33.146	-0.323	-0.364
-154.677	439.614	-0.147	-0.420
-153.662	504.213	0.020	0.061
-152.647	-200.000	-0.014	-0.479
-151.633	-123.910	-0.317	-0.064
-150.618	-9.573	0.391	0.338
-149.604	-5.644	0.563	-0.500
-148.589	-200.000	-0.023	-0.292
-147.574	-34.731	-0.117	0.083
-146.560	-66.233	-0.216	-0.111
-145.545	205.323	-0.099	-0.201
-144.531	16.575	0.179	0.184
-143.516	-81.664	-0.389	-0.165
-142.502	-200.000	-0.032	0.332
-141.487	-151.589	0.790	-0.075
-140.472	83.195	-0.071	0.100
-139.458	0.194	-0.110	0.102
-138.443	-141.991	-0.247	0.032
-137.429	-81.041	0.145	-0.062
-136.414	-200.000	-0.083	0.576
-135.399	-2.576	0.164	-0.149
-134.385	-96.877	-0.248	-0.084
-133.370	-186.219	-0.392	0.007
-132.356	-86.978	0.301	0.118
-131.341	37.244	-0.181	0.208
-130.326	514.682	-0.058	0.176
-129.312	-200.000	-0.008	0.276
-128.297	-139.951	0.241	-0.033
-127.283	800.000	-0.094	-0.423
-126.268	222.370	-0.328	-0.687
-125.253	-120.678	0.219	0.048
-124.239	415.722	-0.122	-0.339
-123.224	448.359	-0.124	-0.357
