DTS Sentinel unit serial number:	SN409020Multiplexer serial number:	ORYXHardware model number:	OX4-SRSoftware version number:	ORYX F/W v3.00 Oryx Data Collector v3.7.2.0data status	okinstallation	HaddamTimeLapsedifferential loss correction	single-endedforward channel	channel 3reverse channel	N/Adate	2011/06/21time	23:31:17forward acquisition time	30.00reverse acquisition time	0.00gamma	498.7831k internal	0.1753k external	0.1753temperature offset calibration	1.0074default loss term (dB/km)	0.3790temperature slope calibration	1.3530multiplexer offset coefficient	1.0000multiplexer slope coefficient	1.0000fibre end	0.00T internal ref (°C)	23.22T ext. ref 1 (°C)	18.55T ext. ref 2 (°C)	0.05length (m)	temperature (°C)	Stokes	anti-Stokes-747.200	651.004	-0.086	-0.295
-746.185	41.850	0.329	0.396
-745.171	202.952	-0.152	0.313
-744.156	-89.685	0.439	0.170
-743.142	-88.990	-0.160	-0.063
-742.127	-40.777	0.105	-0.072
-741.112	5.120	-0.153	-0.150
-740.098	800.000	-0.130	0.633
-739.083	24.346	-0.202	0.221
-738.069	3.489	0.409	0.395
-737.054	-200.000	-0.378	0.001
-736.039	-55.879	-0.223	0.132
-735.025	-180.721	-0.264	-0.007
-734.010	-81.499	-0.161	0.070
-732.996	-200.000	-0.056	-0.417
-731.981	800.000	-0.084	-0.397
-730.966	-41.826	-0.141	0.096
-729.952	-115.591	-0.212	-0.052
-728.937	-128.177	-0.355	-0.067
-727.923	-2.974	-0.414	-0.382
-726.908	-187.142	-0.302	-0.005
-725.894	-107.875	-0.530	0.152
-724.879	-200.000	0.017	-0.344
-723.864	-11.710	0.318	-0.277
-722.850	-32.865	0.043	0.032
-721.835	67.151	0.656	-0.887
-720.821	193.725	0.033	0.067
-719.806	-168.213	-0.143	0.007
-718.791	-26.119	-0.519	-0.403
-717.777	24.847	0.202	-0.222
-716.762	12.216	-0.050	-0.051
-715.748	-71.908	0.107	0.052
-714.733	-115.061	0.391	-0.098
-713.718	158.913	-0.093	0.171
-712.704	177.987	0.113	0.220
-711.689	15.210	-0.241	0.251
-710.675	-200.000	0.035	-0.326
-709.660	-200.000	0.020	0.329
-708.645	0.623	-0.149	0.141
-707.631	-159.301	0.425	0.031
-706.616	-91.168	0.309	-0.117
-705.602	659.303	-0.045	-0.154
-704.587	-158.585	-0.257	0.019
-703.572	550.106	0.184	-0.587
-702.558	-200.000	0.015	-0.213
-701.543	73.576	-0.040	-0.056
-700.529	-132.611	-0.252	0.042
-699.514	35.532	0.226	0.263
-698.499	-121.623	-0.251	0.055
-697.485	-88.824	0.025	0.010
-696.470	-22.825	-0.084	-0.067
-695.456	-200.000	-0.009	0.620
-694.441	-82.984	-0.274	0.116
-693.426	236.730	-0.028	0.063
-692.412	151.409	0.082	-0.149
-691.397	-158.212	-0.403	0.031
-690.383	-33.911	-0.257	0.187
-689.368	46.403	0.060	0.074
-688.354	-116.622	-0.611	-0.148
-687.339	-200.000	-0.020	0.556
-686.324	-34.964	0.026	-0.019
-685.310	-113.390	0.344	-0.089
-684.295	-200.000	0.030	-0.538
-683.281	114.103	-0.186	0.300
-682.266	-2.327	0.185	-0.172
-681.251	-95.512	0.376	-0.133
-680.237	35.148	-0.288	-0.335
-679.222	82.474	-0.161	-0.231
-678.208	89.800	0.106	-0.157
-677.193	34.179	-0.262	0.302
-676.178	-200.000	0.018	0.258
-675.164	20.572	0.332	0.356
-674.149	-136.139	0.302	-0.046
-673.135	-65.283	0.281	0.149
-672.120	241.365	0.047	0.105
-671.105	-105.016	-0.090	0.027
-670.091	76.398	-0.398	0.558
-669.076	800.000	0.011	-0.056
-668.062	448.677	-0.112	-0.327
-667.047	-54.370	0.370	-0.221
-666.032	-20.607	-0.020	-0.016
-665.018	-158.113	-0.327	0.025
-664.003	-108.532	-0.696	-0.197
-662.989	-123.377	-0.119	0.025
-661.974	-10.225	0.027	0.023
-660.959	113.219	-0.275	-0.442
-659.945	55.562	0.111	0.142
-658.930	357.874	0.134	0.356
-657.916	-200.000	0.033	0.567
-656.901	800.000	-0.071	-0.269
-655.886	-84.493	0.335	0.139
-654.872	430.733	0.206	-0.594
-653.857	34.387	0.114	0.132
-652.843	37.711	0.089	0.105
-651.828	-131.555	-0.393	-0.068
-650.814	127.463	0.261	-0.439
-649.799	465.888	-0.104	-0.309
-648.784	121.696	0.066	-0.110
-647.770	-156.551	0.243	0.020
-646.755	115.506	-0.176	0.285
-645.741	25.322	-0.096	-0.105
-644.726	-200.000	-0.001	0.647
-643.711	212.687	-0.104	0.218
-642.697	566.184	-0.206	-0.663
-641.682	10.187	0.276	-0.277
-640.668	-8.743	-0.185	-0.164
-639.653	800.000	-0.149	0.562
-638.638	-67.376	-0.629	0.325
-637.624	-89.282	-0.139	-0.054
-636.609	-74.736	-0.194	-0.092
-635.595	800.000	0.035	-0.176
-634.580	-133.286	-0.252	-0.042
-633.565	800.000	-0.033	0.124
-632.551	-146.240	-0.517	-0.059
-631.536	376.153	-0.057	0.155
-630.522	-22.433	-0.390	-0.311
-629.507	-30.534	0.618	-0.462
-628.492	-168.162	-0.392	-0.020
-627.478	-101.427	-0.351	0.112
-626.463	-159.852	-0.318	0.023
-625.449	11.512	-0.427	0.432
-624.434	139.188	-0.050	0.087
-623.419	800.000	-0.033	0.142
-622.405	667.041	-0.103	0.354
-621.390	48.812	-0.045	-0.055
-620.376	306.926	0.117	-0.288
-619.361	-156.583	-0.154	0.012
-618.346	-114.644	-0.254	0.064
-617.332	-51.020	0.480	0.296
-616.317	-39.446	-0.347	0.239
-615.303	55.159	-0.155	0.197
-614.288	116.484	-0.146	-0.236
-613.273	-200.000	-0.013	-0.192
-612.259	-74.652	0.172	-0.082
-611.244	-38.222	0.307	-0.215
-610.230	-110.696	0.244	0.066
-609.215	31.151	-0.215	-0.244
-608.201	-134.161	-0.110	0.018
-607.186	-33.653	0.210	-0.152
-606.171	-140.252	0.118	-0.016
-605.157	-2.222	-0.069	0.063
-604.142	-88.388	0.343	0.134
-603.128	-200.000	0.001	0.462
-602.113	-60.149	0.089	-0.050
-601.098	-47.554	-0.168	0.108
-600.084	-51.714	-0.181	-0.111
-599.069	-7.856	0.280	-0.249
-598.055	-76.565	0.595	0.274
-597.040	4.038	0.092	0.089
-596.025	-200.000	-0.022	-0.421
-595.011	-200.000	0.021	-0.125
-593.996	-72.958	0.289	0.140
-592.982	-82.526	0.431	-0.183
-591.967	-88.978	0.248	0.097
-590.952	-144.061	-0.118	0.014
-589.938	800.000	-0.092	0.438
-588.923	-70.483	-0.333	0.165
-587.909	-167.002	0.192	0.010
-586.894	-168.785	0.591	-0.029
-585.879	127.230	0.186	0.312
-584.865	800.000	0.077	-0.304
-583.850	800.000	-0.072	0.344
-582.836	800.000	-0.019	-0.093
-581.821	471.463	0.052	-0.156
-580.806	800.000	-0.044	-0.207
-579.792	800.000	0.056	0.302
-578.777	-52.313	0.067	0.041
-577.763	-27.953	-0.208	0.158
-576.748	45.193	-0.167	0.203
-575.733	-69.500	-0.231	-0.116
-574.719	-167.641	-0.232	-0.012
-573.704	784.181	-0.161	-0.585
-572.690	-46.647	0.149	0.096
-571.675	378.624	-0.193	-0.523
-570.661	-200.000	0.076	-0.514
-569.646	-9.697	0.348	-0.305
-568.631	800.000	0.091	-0.389
-567.617	139.898	0.160	-0.279
-566.602	-53.806	-0.296	-0.177
-565.588	81.415	-0.165	0.236
-564.573	-84.827	-0.574	0.236
-563.558	-200.000	-0.023	0.247
-562.544	15.062	-0.382	0.394
-561.529	62.566	-0.268	0.353
-560.515	-154.688	0.493	0.043
-559.500	-200.000	-0.029	0.391
-558.485	-81.684	0.453	-0.195
-557.471	31.789	-0.227	-0.257
-556.456	-59.092	-0.338	-0.191
-555.442	-80.136	0.210	0.092
-554.427	159.117	0.203	0.372
-553.412	64.470	-0.259	0.343
-552.398	-189.140	0.135	-0.002
-551.383	-172.998	0.441	-0.018
-550.369	-115.051	0.552	-0.137
-549.354	-15.885	-0.281	0.235
-548.339	0.203	0.115	0.108
-547.325	-194.751	0.294	0.003
-546.310	259.006	-0.214	-0.487
-545.296	601.912	0.129	-0.424
-544.281	-200.000	-0.015	0.128
-543.266	-77.262	0.206	0.094
-542.252	-11.556	0.244	0.211
-541.237	90.095	0.267	0.393
-540.223	-127.969	0.113	0.021
-539.208	-96.994	0.116	-0.040
-538.193	-200.000	-0.023	-0.317
-537.179	-52.203	0.264	-0.161
-536.164	-154.947	0.384	-0.033
-535.150	-18.194	0.340	0.280
-534.135	-149.510	-0.210	0.022
-533.121	18.680	0.153	-0.161
-532.106	261.015	-0.139	-0.318
-531.091	-47.998	0.050	-0.032
-530.077	-91.064	-0.281	0.105
-529.062	33.246	0.259	0.296
-528.048	-24.404	-0.164	-0.129
-527.033	-61.177	0.304	-0.168
-526.018	-23.217	-0.396	-0.313
-525.004	86.162	-0.283	0.411
-523.989	800.000	-0.070	-0.268
-522.975	800.000	-0.104	-0.410
-521.960	94.503	-0.227	0.340
-520.945	-63.477	0.372	-0.200
-519.931	-122.356	0.440	-0.093
-518.916	-67.345	0.510	0.263
-517.902	-147.100	-0.189	0.021
-516.887	-200.000	-0.011	-0.394
-515.872	232.186	0.050	-0.109
-514.858	58.920	-0.064	0.083
-513.843	46.942	0.160	0.196
-512.829	-71.270	-0.098	-0.048
-511.814	-2.192	-0.243	-0.224
-510.799	-135.276	0.277	-0.043
-509.785	91.806	-0.349	0.517
-508.770	-28.268	0.211	0.160
-507.756	339.558	0.139	-0.357
-506.741	14.896	0.138	0.142
-505.726	-118.197	0.340	0.079
-504.712	21.460	-0.313	-0.335
-503.697	-57.105	-0.195	0.113
-502.683	800.000	0.150	0.580
-501.668	209.934	0.255	0.527
-500.653	-29.027	0.230	-0.173
-499.639	-185.039	0.598	0.012
-498.624	-14.447	-0.409	-0.345
-497.610	-32.212	-0.289	-0.212
-496.595	15.075	-0.168	-0.172
-495.581	-90.631	-0.199	0.075
-494.566	-174.397	-0.314	0.012
-493.551	-1.133	-0.016	0.015
-492.537	278.484	0.035	-0.083
-491.522	-200.000	0.006	0.542
-490.508	-200.000	-0.006	-0.175
-489.493	175.778	-0.279	0.533
-488.478	-157.710	0.783	0.060
-487.464	-139.925	-0.287	-0.039
-486.449	-70.657	0.190	-0.094
-485.435	-1.383	-0.345	-0.320
-484.420	-57.631	-0.268	-0.154
-483.405	46.182	-0.151	-0.184
-482.391	-134.432	0.069	0.011
-481.376	-96.092	-0.494	-0.171
-480.362	800.000	-0.049	0.249
-479.347	531.251	0.118	0.369
-478.332	-82.751	-0.371	-0.157
-477.318	56.905	0.344	-0.440
-476.303	-110.751	0.156	-0.042
-475.289	-92.205	0.251	-0.092
-474.274	655.779	-0.164	0.557
-473.259	-76.737	0.257	0.118
-472.245	-200.000	-0.010	0.104
-471.230	-86.934	0.192	0.076
-470.216	-87.929	-0.800	0.314
-469.201	144.377	0.029	0.052
-468.186	-93.352	-0.133	-0.048
-467.172	-200.000	0.010	-0.095
-466.157	144.573	0.123	0.217
-465.143	126.194	0.163	-0.272
-464.128	-200.000	0.051	0.362
-463.113	-29.756	-0.562	0.420
-462.099	-165.229	0.560	0.032
-461.084	-154.538	0.475	-0.041
-460.070	-171.127	0.369	0.016
-459.055	16.682	-0.376	-0.390
-458.040	292.803	-0.159	-0.381
-457.026	-200.000	-0.070	0.497
-456.011	-53.291	-0.432	0.259
-454.997	-94.520	-0.589	-0.209
-453.982	-88.320	-0.410	-0.160
-452.968	-56.977	-0.575	-0.331
-451.953	-94.632	0.200	0.071
-450.938	-101.265	0.306	-0.097
-449.924	-200.000	0.014	-0.097
-448.909	-160.787	-0.251	0.017
-447.895	33.341	0.368	0.419
-446.880	800.000	-0.051	0.286
-445.865	625.367	0.054	-0.178
-444.851	-34.151	0.483	-0.347
-443.836	-87.564	0.264	0.104
-442.822	-100.990	0.585	0.187
-441.807	55.829	-0.221	-0.281
-440.792	129.392	0.196	0.328
-439.778	-112.224	-0.194	-0.051
-438.763	-76.948	-0.427	-0.194
-437.749	229.544	0.090	-0.193
-436.734	-63.133	-0.489	-0.263
-435.719	-93.907	0.041	-0.015
-434.705	800.000	-0.054	0.268
-433.690	-4.581	-0.510	0.462
-432.676	-96.776	-0.499	-0.171
-431.661	-200.000	0.029	-0.323
-430.646	52.890	-0.486	0.609
-429.632	-52.336	0.173	-0.105
-428.617	-89.761	-0.334	0.128
-427.603	141.507	0.436	-0.758
-426.588	-99.248	0.177	0.058
-425.573	800.000	0.082	0.347
-424.559	194.508	-0.064	0.128
-423.544	123.389	-0.252	-0.414
-422.530	-23.858	0.102	0.080
-421.515	800.000	-0.076	0.315
-420.500	-169.809	-0.328	0.015
-419.486	-129.632	-0.689	0.124
-418.471	-95.903	0.372	-0.129
-417.457	264.840	0.023	-0.053
-416.442	800.000	-0.109	-0.539
-415.428	-69.271	-0.078	0.039
-414.413	-123.132	-0.397	0.083
-413.398	-121.454	-0.127	-0.027
-412.384	394.242	0.157	-0.430
-411.369	-200.000	-0.060	-0.395
-410.355	-87.022	0.355	-0.141
-409.340	33.293	-0.254	0.288
-408.325	4.085	0.274	0.262
-407.311	-48.788	-0.403	-0.253
-406.296	26.190	0.029	-0.031
-405.282	-100.544	-0.164	0.053
-404.267	0.695	-0.044	-0.041
-403.252	-107.912	-0.252	-0.071
-402.238	-15.614	-0.212	0.176
-401.223	10.238	-0.266	0.264
-400.209	-150.175	-0.216	0.022
-399.194	-111.050	-0.400	-0.107
-398.179	305.897	0.196	-0.480
-397.165	-200.000	-0.014	-0.223
-396.150	800.000	-0.025	0.126
-395.136	-34.422	0.262	0.187
-394.121	360.665	0.077	-0.203
-393.106	722.505	-0.180	-0.631
-392.092	-119.832	0.284	0.063
-391.077	85.454	-0.240	-0.346
-390.063	-177.480	-0.370	-0.012
-389.048	800.000	-0.081	-0.412
-388.033	-102.130	0.391	0.122
-387.019	-26.459	0.457	-0.350
-386.004	-200.000	-0.054	-0.583
-384.990	800.000	0.040	-0.210
-383.975	-29.017	0.312	0.233
-382.960	264.781	0.192	0.439
-381.946	14.334	-0.183	0.186
-380.931	-200.000	-0.013	0.187
-379.917	16.193	-0.016	-0.017
-378.902	-1.546	0.352	-0.324
-377.888	69.549	-0.172	0.231
-376.873	-7.830	0.224	0.197
-375.858	-96.322	-0.021	-0.007
-374.844	-200.000	0.051	-0.469
-373.829	461.275	0.040	0.117
-372.815	-64.719	-0.252	-0.133
-371.800	-76.770	0.275	0.125
-370.785	-81.302	0.248	0.107
-369.771	-37.525	-0.153	0.107
-368.756	-133.365	0.259	-0.042
-367.742	-200.000	0.005	0.138
-366.727	73.436	0.154	0.211
-365.712	-7.666	0.278	0.245
-364.698	-149.875	0.350	0.035
-363.683	-177.526	0.087	-0.003
-362.669	288.201	-0.184	-0.437
-361.654	800.000	0.032	-0.121
-360.639	-140.556	0.426	-0.057
-359.625	800.000	-0.062	0.290
-358.610	47.417	-0.322	-0.393
-357.596	-140.794	-0.207	0.028
-356.581	79.422	0.345	-0.485
-355.566	-79.442	0.303	0.133
-354.552	-59.467	0.371	0.207
-353.537	-133.270	0.540	0.088
-352.523	568.276	0.028	0.091
-351.508	173.760	0.143	0.271
-350.493	-200.000	0.088	0.526
-349.479	-66.538	-0.089	-0.046
-348.464	800.000	-0.050	-0.211
-347.450	112.062	-0.058	0.091
-346.435	48.904	0.350	0.429
-345.420	52.276	-0.204	0.255
-344.406	-160.499	-0.244	-0.017
-343.391	-63.039	-0.249	0.134
-342.377	-200.000	-0.013	-0.225
-341.362	-19.210	0.405	-0.328
-340.348	68.786	0.194	0.260
-339.333	218.786	-0.226	0.472
-338.318	654.700	0.102	0.343
-337.304	800.000	0.072	0.363
-336.289	585.940	-0.117	0.378
-335.275	-118.476	0.148	-0.034
-334.260	305.107	0.152	0.371
-333.245	610.109	0.055	0.180
-332.231	-51.405	0.558	-0.339
-331.216	-178.486	-0.064	-0.002
-330.202	-4.127	-0.288	-0.260
-329.187	723.673	-0.206	0.722
-328.172	-109.460	-0.272	-0.075
-327.158	-173.222	0.036	-0.001
-326.143	-113.709	-0.415	0.105
-325.129	800.000	0.152	0.642
-324.114	-126.759	0.292	-0.056
-323.099	-20.951	0.303	-0.242
-322.085	167.409	-0.046	0.086
-321.070	132.326	0.213	-0.359
-320.056	-188.835	0.465	0.007
-319.041	-118.872	0.401	0.091
-318.026	-14.623	-0.264	0.221
-317.012	510.506	-0.100	-0.304
-315.997	-2.778	0.077	0.070
-314.983	-15.550	-0.274	-0.228
-313.968	-133.868	0.263	0.042
-312.953	800.000	0.052	-0.202
-311.939	-106.734	-0.360	0.104
-310.924	-31.851	0.339	0.247
-309.910	-36.183	-0.254	-0.179
-308.895	-66.245	0.291	0.151
-307.880	800.000	0.090	-0.359
-306.866	192.088	0.147	-0.290
-305.851	137.729	-0.066	0.113
-304.837	800.000	-0.083	0.446
-303.822	47.684	-0.148	0.180
-302.807	327.915	0.125	-0.314
-301.793	-119.444	0.181	-0.041
-300.778	-98.077	0.244	-0.081
-299.764	80.504	0.278	0.392
-298.749	-200.000	0.015	0.261
-297.735	-125.152	-0.312	0.062
-296.720	185.812	0.248	0.482
-295.705	-74.448	0.246	-0.115
-294.691	278.809	-0.155	-0.362
-293.676	27.103	0.185	-0.203
-292.662	282.086	-0.066	0.156
-291.647	454.132	0.008	0.024
-290.632	-41.588	-0.380	0.254
-289.618	-133.707	-0.269	0.043
-288.603	-85.337	0.174	-0.070
-287.589	37.320	0.174	-0.201
-286.574	28.456	0.312	0.344
-285.559	-200.000	0.006	-0.110
-284.545	-159.903	-0.113	0.008
-283.530	-145.035	0.314	0.037
-282.516	800.000	-0.045	-0.177
-281.501	-93.969	0.240	0.085
-280.486	39.194	0.105	-0.123
-279.472	-200.000	-0.008	0.311
-278.457	266.885	-0.071	-0.163
-277.443	344.803	-0.084	-0.216
-276.428	-115.632	-0.482	0.117
-275.413	-200.000	-0.032	0.202
-274.399	6.514	-0.121	-0.117
-273.384	638.831	-0.080	0.268
-272.370	52.693	0.130	0.162
-271.355	-128.453	-0.276	-0.051
-270.340	95.018	-0.227	-0.336
-269.326	291.811	0.182	0.433
-268.311	-31.164	-0.481	0.352
-267.297	230.122	-0.256	0.547
-266.282	-64.292	0.444	0.235
-265.267	-46.980	0.462	-0.293
-264.253	-51.015	0.024	-0.015
-263.238	-83.757	-0.257	0.106
-262.224	40.110	0.114	-0.134
-261.209	61.051	0.579	0.748
-260.195	-111.011	0.265	-0.070
-259.180	-61.182	0.217	0.119
-258.165	-103.359	0.295	0.090
-257.151	-125.418	-0.245	-0.048
-256.136	144.390	-0.171	-0.299
-255.122	800.000	0.060	-0.233
-254.107	-81.950	-0.290	-0.123
-253.092	-64.927	0.397	0.208
-252.078	-147.494	0.277	0.030
-251.063	69.089	-0.196	-0.262
-250.049	242.153	0.169	-0.370
-249.034	-162.450	-0.205	0.013
-248.019	800.000	0.056	-0.299
-247.005	-15.306	0.396	0.329
-245.990	28.449	0.298	0.328
-244.976	-126.178	-0.455	-0.088
-243.961	8.894	-0.378	-0.370
-242.946	-52.647	-0.327	-0.196
-241.932	-36.168	-0.245	-0.172
-240.917	-103.124	-0.465	-0.142
-239.903	-98.028	0.558	0.186
-238.888	-13.761	0.143	0.120
-237.873	-59.459	-0.361	-0.201
-236.859	279.677	-0.282	-0.659
-235.844	-200.000	-0.060	-0.569
-234.830	-44.063	0.193	-0.126
-233.815	14.504	-0.344	-0.350
-232.800	-200.000	0.009	-0.152
-231.786	-200.000	0.038	-0.397
-230.771	-36.066	0.174	-0.122
-229.757	-200.000	0.024	-0.490
-228.742	313.394	-0.098	-0.240
-227.727	-39.101	0.265	0.181
-226.713	-91.635	0.420	-0.155
-225.698	138.675	-0.156	0.266
-224.684	718.599	0.151	-0.524
-223.669	-65.716	-0.299	0.155
-222.655	247.375	0.223	0.491
-221.640	8.428	0.344	-0.336
-220.625	-145.131	-0.319	0.037
-219.611	551.660	0.064	0.200
-218.596	-200.000	-0.002	0.349
-217.582	-74.391	0.268	-0.125
-216.567	231.327	0.249	-0.531
-215.552	64.625	-0.485	0.636
-214.538	187.251	-0.077	0.150
-213.523	800.000	-0.091	-0.407
-212.509	621.990	0.018	0.058
-211.494	800.000	0.058	-0.281
-210.479	-122.236	-0.119	-0.025
-209.465	-200.000	-0.030	-0.263
-208.450	94.042	-0.130	-0.192
-207.436	-14.704	0.295	-0.246
-206.421	-75.932	0.408	0.187
-205.406	591.494	0.125	0.403
-204.392	-144.702	-0.567	-0.067
-203.377	0.044	0.356	-0.330
-202.363	-200.000	-0.030	0.380
-201.348	-179.074	-0.096	-0.003
-200.333	190.096	-0.235	-0.459
-199.319	296.056	0.153	-0.367
-198.304	-63.417	-0.431	0.229
-197.290	-200.000	-0.106	-0.778
-196.275	-139.896	0.246	-0.033
-195.260	130.380	-0.247	0.412
-194.246	800.000	-0.071	0.327
-193.231	-117.862	-0.685	-0.158
-192.217	-137.845	0.452	0.065
-191.202	11.606	0.361	0.359
-190.187	-183.708	0.220	-0.005
-189.173	-200.000	0.008	0.149
-188.158	132.771	0.030	-0.050
-187.144	-13.200	-0.322	0.272
-186.129	55.350	0.212	0.266
-185.114	35.496	0.257	0.293
-184.100	-200.000	-0.034	0.210
-183.085	-62.973	-0.194	0.104
-182.071	59.689	-0.022	-0.028
-181.056	30.490	-0.132	-0.147
-180.042	253.012	-0.114	-0.253
-179.027	-109.378	0.494	0.135
-178.012	-99.311	0.183	0.060
-176.998	-200.000	0.037	0.347
-175.983	-200.000	0.067	-0.535
-174.969	-163.787	0.185	0.011
-173.954	-129.435	-0.137	0.024
-172.939	-59.171	0.153	0.085
-171.925	800.000	-0.033	-0.135
-170.910	-89.544	0.219	0.083
-169.896	-84.030	-0.029	-0.012
-168.881	-52.591	-0.157	0.094
-167.866	-127.053	-0.308	-0.058
-166.852	-140.409	0.270	-0.036
-165.837	3.663	-0.154	0.146
-164.823	4.601	0.179	-0.170
-163.808	161.012	0.277	-0.503
-162.793	800.000	0.024	0.128
-161.779	327.721	-0.168	0.419
-160.764	-128.000	-0.219	0.040
-159.750	342.870	0.078	0.199
-158.735	-116.748	-0.369	-0.087
-157.720	-61.270	-0.314	-0.171
-156.706	-167.590	-0.355	0.018
-155.691	89.596	-0.186	-0.269
-154.677	-129.526	-0.514	0.091
-153.662	800.000	0.035	0.130
-152.647	139.890	-0.227	-0.388
-151.633	60.804	-0.069	0.089
-150.618	-200.000	0.008	-0.240
-149.604	-69.727	0.163	-0.080
-148.589	-120.363	0.123	-0.027
-147.574	-13.497	-0.201	-0.169
-146.560	-29.916	0.188	-0.138
-145.545	178.927	0.116	-0.221
-144.531	11.592	-0.330	-0.328
-143.516	124.703	-0.208	-0.341
-142.502	66.496	0.334	0.440
-141.487	-70.773	0.148	0.072
-140.472	-70.271	-0.415	0.203
-139.458	107.272	-0.091	0.140
-138.443	-200.000	0.030	-0.236
-137.429	324.581	-0.087	-0.216
-136.414	17.108	-0.066	0.068
-135.399	-115.514	0.236	0.057
-134.385	800.000	0.048	-0.237
-133.370	775.982	-0.056	0.200
-132.356	13.258	-0.247	0.248
-131.341	13.137	0.322	-0.322
-130.326	141.305	-0.059	-0.101
-129.312	-90.851	-0.434	0.161
-128.297	-200.000	0.013	0.277
-127.283	-98.844	-0.650	0.213
-126.268	-74.970	0.234	-0.108
-125.253	-150.976	0.338	-0.033
-124.239	-148.369	0.752	-0.079
-123.224	-0.963	0.194	-0.177
-122.210	-35.592	-0.549	-0.385
-121.195	800.000	-0.043	-0.216
