DTS Sentinel unit serial number:	SN409020Multiplexer serial number:	ORYXHardware model number:	OX4-SRSoftware version number:	ORYX F/W v3.00 Oryx Data Collector v3.7.2.0data status	okinstallation	HaddamTimeLapsedifferential loss correction	single-endedforward channel	channel 3reverse channel	N/Adate	2011/06/22time	04:31:16forward acquisition time	30.00reverse acquisition time	0.00gamma	498.7831k internal	0.1753k external	0.1753temperature offset calibration	1.0074default loss term (dB/km)	0.3790temperature slope calibration	1.3530multiplexer offset coefficient	1.0000multiplexer slope coefficient	1.0000fibre end	0.00T internal ref (°C)	22.69T ext. ref 1 (°C)	18.16T ext. ref 2 (°C)	0.14length (m)	temperature (°C)	Stokes	anti-Stokes-747.200	119.072	-0.216	-0.355
-746.185	-43.622	0.072	0.048
-745.171	-200.000	0.042	0.643
-744.156	30.606	-0.171	0.194
-743.142	-13.700	0.216	-0.185
-742.127	-111.464	0.336	0.090
-741.112	480.901	-0.162	-0.490
-740.098	113.888	-0.344	0.556
-739.083	-104.170	-0.273	-0.084
-738.069	480.001	0.027	0.081
-737.054	-200.000	0.012	0.073
-736.039	38.314	-0.160	-0.190
-735.025	106.648	-0.200	-0.316
-734.010	114.159	-0.413	-0.668
-732.996	144.269	-0.164	-0.290
-731.981	800.000	0.118	-0.576
-730.966	-82.210	-0.370	-0.159
-729.952	-200.000	-0.024	-0.217
-728.937	-79.998	-0.641	-0.284
-727.923	-56.139	-0.474	-0.279
-726.908	-45.641	-0.159	0.104
-725.894	-130.470	-0.242	0.043
-724.879	-200.000	0.034	0.198
-723.864	96.118	0.113	0.171
-722.850	-93.114	0.306	-0.112
-721.835	120.862	0.255	-0.422
-720.821	330.545	-0.109	-0.278
-719.806	-97.610	-0.080	0.027
-718.791	800.000	0.071	-0.297
-717.777	-5.845	-0.051	0.046
-716.762	-108.683	-0.256	0.072
-715.748	-127.385	0.301	-0.058
-714.733	-200.000	0.032	0.231
-713.718	147.370	0.129	0.230
-712.704	-200.000	-0.005	-0.132
-711.689	483.653	0.053	-0.161
-710.675	-28.971	-0.303	0.230
-709.660	-99.487	0.264	0.088
-708.645	-64.515	0.108	-0.058
-707.631	10.688	0.169	0.170
-706.616	-200.000	0.024	0.209
-705.602	-89.500	0.223	0.086
-704.587	-113.245	0.088	-0.023
-703.572	-42.176	-0.691	-0.467
-702.558	194.570	-0.146	0.295
-701.543	-200.000	-0.006	0.269
-700.529	-200.000	0.004	0.260
-699.514	-112.096	0.121	0.032
-698.499	-200.000	-0.634	-0.003
-697.485	37.177	-0.261	0.307
-696.470	413.201	0.115	-0.324
-695.456	450.704	0.033	0.096
-694.441	-171.970	0.551	-0.023
-693.426	-36.243	0.161	-0.115
-692.412	407.339	0.089	0.250
-691.397	-200.000	-0.005	-0.107
-690.383	-73.472	0.260	-0.125
-689.368	-105.403	-0.133	-0.040
-688.354	370.190	-0.205	-0.554
-687.339	-113.014	0.394	0.102
-686.324	227.507	-0.076	-0.164
-685.310	787.322	0.006	-0.022
-684.295	-63.686	-0.377	-0.204
-683.281	-65.168	-0.024	-0.013
-682.266	363.078	-0.054	-0.144
-681.251	-200.000	0.025	-0.223
-680.237	-106.279	-0.424	-0.125
-679.222	-154.177	-0.423	-0.037
-678.208	60.353	-0.464	-0.608
-677.193	-95.045	0.078	0.028
-676.178	-97.815	-0.353	-0.120
-675.164	-137.208	0.360	-0.054
-674.149	-175.107	0.427	-0.015
-673.135	-42.744	0.085	-0.057
-672.120	-200.000	0.009	-0.244
-671.105	-200.000	-0.008	0.076
-670.091	43.552	-0.186	0.225
-669.076	97.130	-0.132	-0.201
-668.062	-128.024	-0.134	0.025
-667.047	-194.396	0.586	-0.006
-666.032	-200.000	-0.037	0.308
-665.018	-30.657	-0.186	-0.139
-664.003	-24.842	0.449	-0.352
-662.989	-151.892	-0.239	-0.023
-661.974	-36.972	0.317	-0.224
-660.959	309.385	0.093	-0.231
-659.945	131.313	-0.116	-0.197
-658.930	-101.939	0.660	0.210
-657.916	-172.051	0.193	0.008
-656.901	-20.847	0.270	-0.219
-655.886	-39.590	0.529	0.366
-654.872	2.038	-0.254	-0.242
-653.857	-102.269	0.120	0.038
-652.843	188.071	-0.257	0.509
-651.828	573.105	-0.186	-0.604
-650.814	-124.379	-0.584	0.119
-649.799	800.000	0.050	0.199
-648.784	-103.399	0.088	-0.027
-647.770	108.133	-0.096	-0.152
-646.755	-156.439	-0.730	-0.059
-645.741	146.308	-0.164	-0.291
-644.726	389.153	0.122	-0.336
-643.711	246.477	-0.178	0.398
-642.697	-53.089	-0.212	0.128
-641.682	748.350	0.154	0.551
-640.668	-140.932	0.105	0.014
-639.653	-116.872	-0.668	-0.160
-638.638	-78.098	-0.282	-0.128
-637.624	133.704	-0.130	0.222
-636.609	149.183	-0.333	-0.598
-635.595	162.029	0.282	-0.524
-634.580	-72.687	0.024	-0.012
-633.565	209.877	0.080	0.166
-632.551	23.986	-0.301	-0.328
-631.536	-200.000	-0.028	0.223
-630.522	-58.286	0.438	-0.251
-629.507	-200.000	-0.010	0.083
-628.492	-29.291	0.350	-0.264
-627.478	-79.176	-0.076	-0.034
-626.463	66.828	0.168	0.226
-625.449	-43.917	-0.432	0.286
-624.434	-83.124	-0.286	-0.121
-623.419	-86.049	-0.288	-0.117
-622.405	-113.204	-0.456	0.118
-621.390	-72.529	-0.150	-0.073
-620.376	-15.295	0.255	-0.215
-619.361	-200.000	-0.006	0.349
-618.346	169.887	-0.127	0.240
-617.332	295.542	-0.063	-0.154
-616.317	57.646	-0.015	-0.020
-615.303	13.118	-0.317	0.324
-614.288	-182.648	0.349	0.008
-613.273	-38.236	0.368	-0.257
-612.259	469.294	-0.159	0.475
-611.244	-72.705	0.156	0.075
-610.230	84.669	-0.180	-0.261
-609.215	-54.821	0.344	0.204
-608.201	800.000	-0.066	0.345
-607.186	-200.000	-0.096	-0.000
-606.171	-10.959	0.148	0.129
-605.157	700.494	0.121	0.424
-604.142	-130.126	-0.150	-0.027
-603.128	11.354	0.108	-0.109
-602.113	287.263	-0.129	-0.309
-601.098	-80.107	-0.285	0.125
-600.084	800.000	-0.133	-0.665
-599.069	7.298	-0.228	0.225
-598.055	-64.735	0.463	-0.247
-597.040	652.153	0.162	0.551
-596.025	-82.282	-0.228	-0.097
-595.011	312.659	0.124	-0.309
-593.996	414.650	-0.073	-0.205
-592.982	-80.904	-0.560	0.244
-591.967	-25.587	-0.352	0.274
-590.952	172.554	-0.106	-0.201
-589.938	-12.649	0.117	-0.101
-588.923	3.550	0.129	0.124
-587.909	-119.875	-0.767	-0.173
-586.894	-76.735	-0.257	-0.118
-585.879	-121.163	0.364	-0.080
-584.865	-200.000	-0.002	-0.286
-583.850	408.780	-0.177	0.497
-582.836	42.487	0.362	0.435
-581.821	-134.581	0.566	-0.090
-580.806	-60.436	-0.324	0.181
-579.792	-90.462	0.069	-0.026
-578.777	509.802	-0.052	0.160
-577.763	21.826	0.066	0.071
-576.748	800.000	-0.126	-0.718
-575.733	-134.543	0.069	0.011
-574.719	-61.898	0.184	-0.101
-573.704	-51.696	-0.312	0.191
-572.690	9.349	0.179	0.178
-571.675	-165.256	-0.081	0.005
-570.661	-141.432	0.308	-0.041
-569.646	332.445	0.078	0.198
-568.631	603.887	-0.103	-0.341
-567.617	63.497	-0.055	0.072
-566.602	-154.227	0.404	0.035
-565.588	588.571	-0.159	-0.518
-564.573	800.000	0.049	0.247
-563.558	-161.607	0.304	0.020
-562.544	-87.672	0.306	-0.121
-561.529	-23.080	0.111	-0.088
-560.515	-74.146	-0.565	-0.268
-559.500	239.649	0.064	0.141
-558.485	-29.699	0.141	0.106
-557.471	27.657	0.084	-0.093
-556.456	-200.000	-0.062	-0.423
-555.442	-62.886	-0.360	-0.196
-554.427	16.355	-0.255	0.265
-553.412	-196.667	0.250	0.002
-552.398	225.713	-0.208	0.445
-551.383	71.839	-0.367	0.503
-550.369	800.000	-0.057	-0.235
-549.354	800.000	-0.073	0.278
-548.339	-20.571	0.385	-0.311
-547.325	-95.370	0.674	-0.237
-546.310	-172.241	-0.610	-0.025
-545.296	-136.316	0.257	0.039
-544.281	800.000	0.031	-0.120
-543.266	-125.691	0.171	0.034
-542.252	314.903	0.205	0.510
-541.237	-40.051	-0.142	0.097
-540.223	-200.000	0.010	0.173
-539.208	-95.766	0.349	0.122
-538.193	51.327	0.099	0.124
-537.179	3.935	0.358	0.344
-536.164	0.690	0.260	0.244
-535.150	1.342	0.429	0.405
-534.135	-69.785	0.306	-0.153
-533.121	74.662	-0.106	-0.147
-532.106	-200.000	-0.016	-0.295
-531.091	-103.622	-0.915	0.281
-530.077	-200.000	0.040	0.535
-529.062	-200.000	0.015	0.112
-528.048	-126.485	0.300	0.058
-527.033	-124.726	-0.735	0.148
-526.018	-200.000	-0.001	-0.076
-525.004	-148.799	-0.383	-0.040
-523.989	-163.041	0.472	-0.030
-522.975	211.485	0.143	-0.296
-521.960	-108.741	-0.059	-0.016
-520.945	-200.000	-0.030	-0.207
-519.931	11.308	-0.148	0.149
-518.916	-51.075	0.504	-0.310
-517.902	-126.537	-0.416	0.081
-516.887	-37.808	-0.334	0.233
-515.872	80.550	0.168	0.238
-514.858	17.576	-0.023	-0.024
-513.843	-170.085	-0.170	0.008
-512.829	-49.140	0.168	0.105
-511.814	-200.000	0.012	0.472
-510.799	-200.000	0.005	0.177
-509.785	52.988	0.100	-0.125
-508.770	-112.310	0.214	0.056
-507.756	-120.948	0.274	0.060
-506.741	-200.000	0.004	0.131
-505.726	547.334	0.062	-0.197
-504.712	760.674	0.108	0.387
-503.697	238.785	-0.082	0.180
-502.683	-82.928	0.291	0.123
-501.668	-60.510	-0.143	-0.080
-500.653	26.398	-0.079	0.087
-499.639	294.927	0.066	-0.160
-498.624	664.247	0.109	-0.373
-497.610	193.065	-0.022	0.044
-496.595	-78.162	0.387	-0.174
-495.581	259.575	0.077	-0.174
-494.566	-129.944	0.331	0.059
-493.551	-114.358	0.312	0.078
-492.537	12.375	0.527	0.533
-491.522	52.361	0.124	0.155
-490.508	-73.905	0.239	0.114
-489.493	46.155	0.051	0.062
-488.478	101.453	0.130	-0.199
-487.464	167.165	0.071	-0.133
-486.449	-71.286	0.110	-0.054
-485.435	119.183	-0.130	0.212
-484.420	0.120	-0.402	-0.376
-483.405	9.625	0.203	-0.202
-482.391	-200.000	-0.011	-0.315
-481.376	1.960	0.108	0.102
-480.362	-11.234	-0.559	0.483
-479.347	-88.659	-0.342	-0.133
-478.332	52.891	-0.098	0.123
-477.318	-6.396	0.243	0.218
-476.303	254.717	0.072	0.161
-475.289	341.638	-0.091	0.235
-474.274	-48.107	0.493	0.312
-473.259	-98.906	0.629	0.209
-472.245	-62.363	-0.167	0.091
-471.230	-84.573	0.322	0.133
-470.216	-5.918	0.185	0.166
-469.201	800.000	0.104	0.540
-468.186	58.325	0.310	-0.399
-467.172	800.000	-0.092	-0.445
-466.157	55.689	0.373	0.474
-465.143	5.977	0.183	0.178
-464.128	-99.007	0.716	-0.237
-463.113	-108.701	-0.034	0.009
-462.099	-56.179	-0.346	-0.201
-461.084	-200.000	0.078	0.616
-460.070	-41.742	-0.286	0.192
-459.055	-25.153	0.197	-0.153
-458.040	234.770	0.147	-0.320
-457.026	800.000	0.037	-0.195
-456.011	466.962	-0.022	-0.066
-454.997	-46.645	0.075	-0.048
-453.982	162.487	-0.174	0.321
-452.968	279.195	0.208	-0.488
-451.953	705.973	0.029	-0.102
-450.938	800.000	0.120	0.556
-449.924	139.173	-0.130	-0.225
-448.909	800.000	0.047	0.172
-447.895	227.907	-0.137	-0.294
-446.880	-58.883	0.250	0.141
-445.865	-200.000	-0.024	0.180
-444.851	-200.000	0.002	0.194
-443.836	57.012	-0.087	0.112
-442.822	-78.115	-0.313	-0.141
-441.807	-40.805	-0.096	0.065
-440.792	-80.981	0.365	0.158
-439.778	-34.184	0.321	0.231
-438.763	224.948	0.196	-0.418
-437.749	24.081	0.268	0.290
-436.734	-124.929	-0.399	-0.080
-435.719	-131.394	-0.227	-0.039
-434.705	-40.597	0.368	0.249
-433.690	-11.946	0.181	0.155
-432.676	-200.000	-0.028	-0.221
-431.661	195.929	-0.162	-0.324
-430.646	-171.979	-0.140	-0.006
-429.632	634.642	0.090	-0.300
-428.617	-105.459	0.499	-0.148
-427.603	275.188	-0.046	-0.107
-426.588	309.438	0.267	-0.656
-425.573	-63.092	0.231	-0.125
-424.559	800.000	-0.115	0.424
-423.544	-97.501	0.460	-0.156
-422.530	222.323	-0.061	-0.130
-421.515	-182.626	0.140	-0.003
-420.500	-200.000	-0.036	0.513
-419.486	-200.000	0.028	0.602
-418.471	-8.965	0.146	-0.128
-417.457	-30.369	-0.200	-0.148
-416.442	166.773	-0.180	0.335
-415.428	146.342	0.072	-0.127
-414.413	-130.222	0.377	-0.067
-413.398	-42.735	0.229	0.152
-412.384	-14.038	0.479	-0.405
-411.369	-55.330	-0.163	0.096
-410.355	-56.534	0.121	-0.070
-409.340	-101.277	0.200	0.064
-408.325	15.540	-0.214	0.220
-407.311	-53.968	0.217	-0.129
-406.296	-150.072	0.278	-0.028
-405.282	61.443	0.148	-0.194
-404.267	40.266	-0.373	0.439
-403.252	-119.043	0.393	-0.089
-402.238	-7.133	-0.349	-0.310
-401.223	800.000	-0.110	-0.431
-400.209	523.869	0.118	-0.365
-399.194	-200.000	0.004	0.318
-398.179	104.446	-0.264	-0.407
-397.165	-200.000	0.050	0.479
-396.150	417.295	0.057	0.161
-395.136	-125.265	0.318	0.063
-394.121	-54.869	0.086	-0.051
-393.106	-19.634	-0.378	0.306
-392.092	-170.366	0.198	0.009
-391.077	-85.768	-0.337	0.136
-390.063	-200.000	0.060	0.430
-389.048	465.344	0.139	-0.408
-388.033	-121.462	-0.142	0.031
-387.019	165.431	-0.177	0.329
-386.004	113.427	0.077	-0.123
-384.990	-8.722	-0.309	0.271
-383.975	322.448	0.117	0.294
-382.960	-171.081	0.857	0.037
-381.946	-119.068	-0.305	-0.069
-380.931	-172.793	0.193	0.008
-379.917	304.955	0.133	0.324
-378.902	-35.770	-0.153	0.108
-377.888	-57.098	-0.202	-0.116
-376.873	-181.002	0.326	-0.008
-375.858	-165.011	-0.317	0.018
-374.844	9.422	-0.466	-0.461
-373.829	-20.362	-0.419	-0.337
-372.815	-200.000	0.021	0.175
-371.800	-44.794	0.298	-0.194
-370.785	-49.085	-0.040	0.025
-369.771	-129.864	0.061	0.011
-368.756	-121.096	-0.356	-0.077
-367.742	-110.485	-0.530	0.143
-366.727	-34.152	-0.171	-0.123
-365.712	-111.427	-0.029	0.008
-364.698	106.385	0.208	0.322
-363.683	-80.435	-0.281	-0.122
-362.669	-144.310	0.081	0.010
-361.654	761.866	0.034	0.123
-360.639	-98.146	0.295	-0.099
-359.625	114.608	0.111	-0.177
-358.610	-66.872	0.210	-0.108
-357.596	-176.322	0.292	0.010
-356.581	-166.182	0.248	-0.014
-355.566	-16.596	-0.206	-0.170
-354.552	354.865	0.116	0.302
-353.537	9.216	-0.333	-0.329
-352.523	-104.099	0.330	-0.100
-351.508	-161.637	-0.209	-0.014
-350.493	237.471	-0.242	0.527
-349.479	800.000	0.106	-0.510
-348.464	-158.420	0.353	0.026
-347.450	-126.999	0.702	0.134
-346.435	-89.152	0.083	0.032
-345.420	-1.353	0.287	0.264
-344.406	-38.710	0.254	-0.175
-343.391	-200.000	-0.011	-0.599
-342.377	800.000	-0.014	-0.081
-341.362	-29.275	-0.294	-0.219
-340.348	257.341	-0.178	0.401
-339.333	-20.752	-0.232	0.186
-338.318	-38.775	-0.316	0.217
-337.304	-200.000	-0.089	-0.593
-336.289	-11.543	-0.174	-0.150
-335.275	-43.168	-0.284	-0.188
-334.260	-91.057	0.313	-0.117
-333.245	103.400	-0.168	-0.258
-332.231	129.424	0.095	-0.159
-331.216	23.596	-0.183	0.197
-330.202	80.316	-0.163	0.230
-329.187	800.000	-0.114	0.498
-328.172	-200.000	0.032	0.296
-327.158	9.257	0.076	-0.075
-326.143	-137.241	0.373	0.055
-325.129	-32.892	-0.112	-0.081
-324.114	-114.710	0.420	0.104
-323.099	-54.789	-0.346	0.203
-322.085	317.248	-0.170	0.422
-321.070	-38.541	0.374	-0.257
-320.056	-200.000	0.009	-0.182
-319.041	-200.000	-0.069	-0.553
-318.026	18.653	0.317	-0.331
-317.012	235.352	0.191	-0.413
-315.997	800.000	-0.022	0.085
-314.983	-200.000	-0.050	-0.318
-313.968	-200.000	0.049	0.312
-312.953	14.085	-0.433	-0.439
-311.939	520.678	-0.187	0.576
-310.924	-136.329	0.635	-0.096
-309.910	51.130	0.049	0.061
-308.895	443.769	0.028	0.081
-307.880	298.071	0.237	0.571
-306.866	717.893	-0.048	0.168
-305.851	-200.000	-0.002	-0.264
-304.837	359.684	-0.146	-0.382
-303.822	-28.671	0.261	-0.195
-302.807	58.268	0.113	-0.145
-301.793	-57.006	0.324	-0.186
-300.778	-85.934	-0.072	0.029
-299.764	-61.280	-0.620	-0.340
-298.749	-1.534	-0.087	0.080
-297.735	49.485	0.150	-0.184
-296.720	-88.635	0.465	-0.180
-295.705	44.261	-0.107	0.128
-294.691	-120.463	-0.114	0.025
-293.676	78.124	-0.115	0.161
-292.662	34.689	0.189	-0.216
-291.647	90.016	-0.153	0.224
-290.632	-106.146	-0.061	0.018
-289.618	95.263	-0.197	0.294
-288.603	800.000	0.055	0.305
-287.589	137.612	0.068	0.116
-286.574	179.325	-0.227	-0.435
-285.559	479.137	-0.173	-0.513
-284.545	-50.878	0.103	-0.063
-283.530	-200.000	0.061	-0.462
-282.516	289.065	-0.068	0.161
-281.501	-17.405	0.208	0.170
-280.486	99.971	0.202	0.306
-279.472	-107.816	-0.361	-0.102
-278.457	-200.000	-0.018	0.143
-277.443	-110.605	-0.559	0.150
-276.428	238.408	0.154	0.334
-275.413	-200.000	-0.019	-0.402
-274.399	-16.939	-0.204	0.168
-273.384	-87.480	-0.415	0.163
-272.370	310.102	-0.125	-0.306
-271.355	-200.000	0.058	-0.485
-270.340	-200.000	0.032	0.271
-269.326	-193.026	0.274	-0.003
-268.311	-22.327	-0.376	0.296
-267.297	30.115	-0.324	-0.360
-266.282	196.172	0.273	0.543
-265.267	-34.008	-0.246	0.176
-264.253	-67.865	0.129	0.065
-263.238	-37.174	-0.124	-0.086
-262.224	800.000	0.040	0.198
-261.209	129.734	0.207	0.346
-260.195	-178.414	-0.212	0.006
-259.180	-2.416	-0.298	-0.272
-258.165	-16.710	-0.335	0.275
-257.151	-76.996	0.122	-0.055
-256.136	-200.000	-0.023	0.188
-255.122	-25.114	-0.447	0.344
-254.107	-48.062	-0.157	0.099
-253.092	48.765	0.136	-0.167
-252.078	-127.896	-0.608	0.113
-251.063	-200.000	0.028	0.392
-250.049	-27.414	0.291	0.220
-249.034	-82.988	0.176	-0.074
-248.019	66.353	-0.084	-0.111
-247.005	-166.715	-0.652	-0.035
-245.990	410.528	0.057	-0.159
-244.976	187.729	0.170	0.331
-243.961	800.000	0.103	0.463
-242.946	-61.739	-0.613	-0.333
-241.932	-27.587	-0.480	0.362
-240.917	-106.604	-0.176	-0.051
-239.903	-25.592	-0.112	0.086
-238.888	207.506	-0.176	-0.358
-237.873	-170.088	0.334	0.015
-236.859	-47.972	-0.401	-0.252
-235.844	32.821	-0.064	0.072
-234.830	12.737	0.283	0.284
-233.815	177.612	-0.233	-0.443
-232.800	-139.018	-0.469	0.065
-231.786	88.732	-0.131	0.190
-230.771	-176.177	-0.412	-0.014
-229.757	64.461	0.114	0.150
-228.742	180.345	0.116	0.222
-227.727	75.295	-0.216	-0.297
-226.713	-21.608	-0.373	-0.295
-225.698	-62.757	-0.375	-0.202
-224.684	-166.123	-0.142	0.008
-223.669	800.000	0.046	-0.192
-222.655	-43.381	-0.155	0.102
-221.640	-68.756	-0.170	0.085
-220.625	-87.963	0.459	-0.179
-219.611	-99.146	0.540	-0.177
-218.596	180.197	-0.179	-0.342
-217.582	-17.554	0.293	-0.239
-216.567	28.256	0.088	-0.097
-215.552	-200.000	0.037	-0.253
-214.538	337.210	-0.145	-0.368
-213.523	-77.898	0.287	-0.128
-212.509	-42.963	0.289	-0.190
-211.494	158.502	-0.150	0.271
-210.479	69.806	-0.244	-0.327
-209.465	-200.000	-0.037	-0.257
-208.450	103.674	0.338	0.517
-207.436	-200.000	0.029	-0.348
-206.421	134.592	0.419	0.708
-205.406	-85.193	0.379	0.153
-204.392	-86.525	0.360	0.143
-203.377	-171.526	0.164	0.007
-202.363	-110.065	-0.032	0.009
-201.348	-78.201	0.282	0.126
-200.333	11.171	-0.067	-0.067
-199.319	6.680	0.210	0.203
-198.304	-78.058	-0.264	0.118
-197.290	-157.452	0.314	-0.024
-196.275	-13.334	-0.023	0.019
-195.260	-77.070	-0.325	0.147
-194.246	-121.902	-0.425	0.090
-193.231	342.928	0.238	-0.609
-192.217	-114.741	0.214	0.053
-191.202	-31.700	-0.054	-0.039
-190.187	56.763	-0.163	-0.207
-189.173	-74.820	-0.204	-0.095
-188.158	-122.781	0.556	0.116
-187.144	446.136	-0.067	-0.193
-186.129	-19.026	-0.196	-0.158
-185.114	-127.856	-0.322	-0.060
-184.100	-74.545	0.046	0.022
-183.085	50.849	0.128	-0.157
-182.071	127.878	-0.177	-0.293
-181.056	139.767	-0.090	0.154
-180.042	-79.754	-0.483	-0.210
-179.027	240.832	0.056	0.123
-178.012	312.236	-0.145	-0.354
-176.998	-200.000	0.041	-0.288
-175.983	800.000	0.080	-0.431
-174.969	465.068	0.077	-0.224
-173.954	-101.572	0.144	0.045
-172.939	-93.444	-0.120	0.043
-171.925	-132.784	-0.296	-0.049
-170.910	5.862	-0.174	-0.167
-169.896	29.132	0.242	-0.266
-168.881	-100.821	0.212	-0.067
-167.866	-83.081	0.222	-0.092
-166.852	424.179	0.108	-0.302
-165.837	-74.922	-0.216	-0.100
-164.823	476.719	0.087	0.256
-163.808	-163.059	0.381	0.024
-162.793	-200.000	0.016	-0.118
-161.779	36.667	0.111	0.127
-160.764	800.000	0.052	0.277
-159.750	-110.678	-0.488	-0.130
-158.735	-135.934	-0.450	-0.068
-157.720	83.884	-0.118	0.167
-156.706	1.611	-0.173	-0.162
-155.691	-200.000	0.011	-0.289
-154.677	-72.555	-0.241	-0.115
-153.662	800.000	0.034	-0.128
-152.647	45.869	-0.399	-0.479
-151.633	305.744	-0.091	0.220
-150.618	-200.000	0.092	0.532
-149.604	601.157	0.056	0.181
-148.589	50.167	-0.209	0.257
-147.574	12.200	-0.340	-0.339
-146.560	-68.089	-0.725	0.365
-145.545	-200.000	-0.024	0.416
-144.531	-164.167	-0.185	0.011
-143.516	-97.440	0.349	0.117
-142.502	-62.077	0.077	-0.041
-141.487	-200.000	-0.033	-0.194
-140.472	13.593	-0.170	0.171
-139.458	26.242	-0.300	0.324
-138.443	129.650	-0.261	0.434
-137.429	-200.000	0.047	0.396
-136.414	1.504	-0.233	-0.217
-135.399	-29.240	0.211	0.157
-134.385	-39.954	-0.158	0.106
-133.370	-90.675	-0.475	-0.177
-132.356	-85.326	0.348	-0.140
-131.341	-146.760	-0.479	-0.053
-130.326	-89.687	-0.313	-0.118
-129.312	-200.000	-0.090	0.547
-128.297	178.456	0.220	-0.417
-127.283	674.026	-0.082	-0.276
-126.268	55.483	0.028	-0.036
-125.253	-70.611	-0.099	-0.048
-124.239	-17.039	0.190	-0.155
-123.224	214.849	0.086	-0.177
-122.210	-134.332	0.269	0.042
-121.195	292.793	-0.101	-0.240
