DTS Sentinel unit serial number:	SN409020Multiplexer serial number:	ORYXHardware model number:	OX4-SRSoftware version number:	ORYX F/W v3.00 Oryx Data Collector v3.7.2.0data status	okinstallation	HaddamTimeLapsedifferential loss correction	single-endedforward channel	channel 3reverse channel	N/Adate	2011/06/21time	18:56:16forward acquisition time	30.00reverse acquisition time	0.00gamma	498.7831k internal	0.1810k external	0.1810temperature offset calibration	1.0074default loss term (dB/km)	0.3790temperature slope calibration	1.3530multiplexer offset coefficient	1.0000multiplexer slope coefficient	1.0000fibre end	0.00T internal ref (°C)	35.31T ext. ref 1 (°C)	27.12T ext. ref 2 (°C)	0.23length (m)	temperature (°C)	Stokes	anti-Stokes-747.200	91.461	-0.162	-0.234
-746.185	-168.129	0.275	0.014
-745.171	365.998	0.152	-0.395
-744.156	-200.000	-0.072	0.519
-743.142	-89.780	-0.471	-0.176
-742.127	-200.000	0.105	0.669
-741.112	147.958	-0.059	-0.102
-740.098	259.387	-0.093	0.206
-739.083	-200.000	0.010	-0.086
-738.069	800.000	-0.065	0.352
-737.054	4.076	-0.114	0.107
-736.039	-200.000	0.028	0.495
-735.025	-83.497	0.464	0.190
-734.010	-60.838	0.125	-0.068
-732.996	-65.377	0.523	-0.269
-731.981	283.499	-0.097	0.225
-730.966	-56.219	-0.623	0.355
-729.952	1.884	-0.143	0.132
-728.937	215.139	-0.058	0.118
-727.923	-200.000	0.032	-0.380
-726.908	-200.000	-0.023	0.203
-725.894	165.293	0.188	-0.343
-724.879	-22.498	-0.103	-0.080
-723.864	800.000	0.060	0.236
-722.850	288.737	-0.062	-0.144
-721.835	486.491	-0.053	0.156
-720.821	800.000	0.062	0.296
-719.806	-64.000	0.295	-0.154
-718.791	-102.097	0.199	0.061
-717.777	800.000	0.050	0.203
-716.762	-40.941	0.280	-0.185
-715.748	14.876	0.370	-0.371
-714.733	-55.024	0.206	0.119
-713.718	-200.000	-0.029	-0.572
-712.704	-1.204	0.358	0.324
-711.689	-39.943	-0.311	-0.208
-710.675	800.000	0.077	-0.348
-709.660	602.372	0.174	0.559
-708.645	-200.000	-0.003	-0.178
-707.631	-81.182	0.381	-0.161
-706.616	-101.171	-0.276	0.086
-705.602	-80.957	-0.358	-0.152
-704.587	-90.378	0.316	0.117
-703.572	-200.000	0.008	-0.213
-702.558	800.000	-0.021	0.108
-701.543	-36.273	-0.184	-0.127
-700.529	19.505	0.228	0.236
-699.514	237.268	-0.087	0.186
-698.499	-1.682	0.172	-0.155
-697.485	362.164	0.079	-0.203
-696.470	-200.000	-0.027	0.447
-695.456	-28.868	-0.179	-0.131
-694.441	52.723	0.251	-0.308
-693.426	800.000	-0.053	0.258
-692.412	-168.056	0.515	-0.025
-691.397	-60.576	0.345	-0.187
-690.383	-162.545	-0.557	0.035
-689.368	-102.780	-0.087	0.026
-688.354	-48.654	-0.085	0.052
-687.339	51.702	0.331	-0.404
-686.324	-72.029	-0.261	-0.124
-685.310	-35.114	0.246	0.172
-684.295	-72.714	0.409	-0.192
-683.281	-182.805	0.407	0.009
-682.266	-75.918	0.245	-0.111
-681.251	-101.739	0.117	-0.036
-680.237	-28.155	-0.091	0.067
-679.222	40.819	-0.546	-0.632
-678.208	-168.552	0.182	-0.009
-677.193	-94.244	0.452	0.158
-676.178	68.896	0.132	-0.174
-675.164	-200.000	-0.082	-0.502
-674.149	27.234	-0.158	-0.170
-673.135	-96.859	0.254	0.085
-672.120	155.358	0.317	-0.561
-671.105	800.000	0.075	0.411
-670.091	-117.344	0.174	-0.040
-669.076	-200.000	-0.077	-0.522
-668.062	-140.988	-0.252	0.033
-667.047	-115.057	0.447	0.108
-666.032	800.000	-0.012	-0.052
-665.018	-135.577	-0.321	0.048
-664.003	86.554	-0.031	0.044
-662.989	107.223	0.052	-0.079
-661.974	2.243	-0.174	0.161
-660.959	-95.743	-0.637	-0.217
-659.945	-170.440	0.123	0.005
-658.930	-200.000	-0.007	0.441
-657.916	24.706	0.343	0.364
-656.901	800.000	0.056	0.266
-655.886	76.721	-0.254	-0.346
-654.872	-93.139	-0.439	-0.156
-653.857	-93.983	0.287	-0.100
-652.843	226.948	0.109	0.227
-651.828	131.455	0.234	-0.387
-650.814	800.000	0.098	-0.410
-649.799	31.811	0.482	0.532
-648.784	-200.000	0.056	0.386
-647.770	397.213	0.064	-0.172
-646.755	40.100	0.231	-0.266
-645.741	511.913	0.050	-0.151
-644.726	-23.719	0.117	0.089
-643.711	252.856	-0.077	0.168
-642.697	-72.416	0.392	0.185
-641.682	800.000	0.071	0.320
-640.668	-118.757	-0.488	0.109
-639.653	88.583	0.202	-0.288
-638.638	800.000	0.027	0.127
-637.624	424.577	0.176	-0.488
-636.609	97.657	0.311	-0.458
-635.595	-42.563	-0.202	-0.131
-634.580	-200.000	0.023	-0.473
-633.565	-72.159	-0.405	-0.192
-632.551	115.306	0.172	-0.269
-631.536	115.499	0.122	-0.191
-630.522	526.688	0.065	0.196
-629.507	-200.000	0.024	0.219
-628.492	2.206	-0.300	-0.278
-627.478	-94.211	-0.235	-0.082
-626.463	800.000	0.080	-0.364
-625.449	-93.184	-0.168	-0.059
-624.434	-200.000	0.005	0.389
-623.419	-193.281	-0.134	0.001
-622.405	-200.000	-0.049	0.343
-621.390	-117.227	0.594	0.137
-620.376	720.248	-0.174	-0.596
-619.361	-121.401	0.185	0.039
-618.346	67.413	-0.418	-0.546
-617.332	36.939	0.209	0.236
-616.317	800.000	0.021	0.093
-615.303	-47.969	-0.119	-0.074
-614.288	800.000	0.049	-0.224
-613.273	5.821	-0.268	0.254
-612.259	-167.603	-0.418	0.021
-611.244	-7.807	-0.503	0.434
-610.230	6.435	0.089	0.085
-609.215	800.000	-0.034	-0.149
-608.201	33.098	-0.169	0.188
-607.186	-200.000	0.004	-0.119
-606.171	-89.024	0.363	0.137
-605.157	-200.000	0.002	0.292
-604.142	-9.485	-0.212	0.181
-603.128	686.960	0.199	-0.670
-602.113	78.707	-0.128	-0.175
-601.098	50.195	0.201	0.243
-600.084	26.373	0.264	-0.282
-599.069	-103.628	-0.153	-0.045
-598.055	311.291	0.167	0.401
-597.040	-91.238	-0.212	-0.077
-596.025	-136.569	-0.538	-0.079
-595.011	-27.826	0.426	0.315
-593.996	752.207	-0.064	-0.224
-592.982	174.542	-0.062	0.116
-591.967	-36.694	-0.096	0.066
-590.952	-135.675	0.308	-0.046
-589.938	-200.000	-0.031	-0.333
-588.923	-200.000	-0.019	-0.630
-587.909	-164.179	-0.167	0.010
-586.894	-146.701	-0.323	-0.035
-585.879	800.000	-0.145	0.578
-584.865	33.461	0.301	0.334
-583.850	202.150	0.303	0.598
-582.836	-200.000	-0.002	-0.081
-581.821	-53.405	-0.563	0.328
-580.806	44.858	0.113	0.133
-579.792	-44.113	-0.341	0.218
-578.777	-157.617	-0.451	0.034
-577.763	239.712	-0.104	0.221
-576.748	-29.924	-0.139	-0.101
-575.733	-71.685	-0.416	0.197
-574.719	451.360	-0.099	0.280
-573.704	-127.694	0.192	0.035
-572.690	-200.000	0.005	-0.049
-571.675	-104.744	0.026	-0.008
-570.661	800.000	0.060	0.264
-569.646	800.000	-0.068	0.310
-568.631	-79.582	-0.282	-0.121
-567.617	-182.715	0.160	0.004
-566.602	-5.991	0.094	0.082
-565.588	95.998	-0.114	-0.166
-564.573	-68.818	0.196	-0.096
-563.558	800.000	-0.065	-0.286
-562.544	-21.180	0.685	0.533
-561.529	-147.961	0.239	0.025
-560.515	77.016	0.183	0.249
-559.500	33.016	0.077	-0.085
-558.485	199.817	-0.150	-0.294
-557.471	595.309	-0.073	-0.232
-556.456	-91.866	-0.216	0.078
-555.442	176.923	0.211	-0.392
-554.427	-7.860	0.258	-0.222
-553.412	800.000	-0.052	-0.269
-552.398	211.362	-0.053	0.106
-551.383	565.011	-0.137	0.425
-550.369	-44.818	-0.234	-0.148
-549.354	-200.000	0.023	-0.486
-548.339	-200.000	0.001	-0.218
-547.325	149.207	0.248	0.429
-546.310	-77.163	0.475	0.210
-545.296	800.000	0.079	-0.351
-544.281	-110.943	-0.219	0.057
-543.266	-96.708	-0.290	-0.097
-542.252	-86.278	-0.270	0.106
-541.237	-82.105	-0.181	-0.075
-540.223	-200.000	0.005	-0.485
-539.208	44.702	0.200	-0.235
-538.193	115.151	0.072	-0.113
-537.179	276.872	-0.067	-0.153
-536.164	-128.084	-0.376	0.068
-535.150	-74.687	-0.218	0.099
-534.135	147.990	-0.115	-0.199
-533.121	-200.000	-0.006	0.326
-532.106	-39.210	-0.149	-0.100
-531.091	-37.475	-0.483	-0.328
-530.077	-161.033	-0.220	0.014
-529.062	8.926	0.257	0.247
-528.048	226.071	0.068	-0.141
-527.033	135.672	0.152	0.253
-526.018	122.485	-0.124	-0.198
-525.004	134.056	0.099	0.164
-523.989	6.660	0.126	0.119
-522.975	22.317	0.455	-0.474
-521.960	-173.488	-0.226	0.009
-520.945	-116.768	-0.307	-0.071
-519.931	129.086	0.351	-0.572
-518.916	-200.000	0.027	-0.174
-517.902	-35.521	0.416	0.287
-516.887	328.239	-0.210	0.517
-515.872	-131.406	0.217	-0.036
-514.858	-62.296	0.620	0.328
-513.843	305.125	-0.062	0.148
-512.829	-200.000	0.007	-0.050
-511.814	-166.153	-0.304	-0.016
-510.799	-18.936	0.426	-0.337
-509.785	-170.478	0.241	0.011
-508.770	423.197	-0.143	-0.393
-507.756	-161.616	-0.315	0.020
-506.741	-123.013	-0.138	0.028
-505.726	39.801	0.142	-0.163
-504.712	790.022	0.143	-0.503
-503.697	587.061	-0.047	-0.147
-502.683	-60.375	0.260	-0.140
-501.668	131.631	0.107	-0.176
-500.653	-41.556	-0.385	-0.251
-499.639	-70.017	-0.450	-0.217
-498.624	-2.053	-0.118	0.106
-497.610	342.966	0.083	-0.208
-496.595	3.071	-0.073	-0.068
-495.581	-41.205	0.138	-0.090
-494.566	83.040	-0.332	0.460
-493.551	474.158	-0.149	0.430
-492.537	-90.749	-0.256	0.094
-491.522	416.250	-0.186	0.506
-490.508	171.219	0.092	0.169
-489.493	309.416	-0.090	0.216
-488.478	-170.891	0.288	0.012
-487.464	12.062	0.536	0.525
-486.449	-92.390	-0.191	-0.068
-485.435	-200.000	-0.112	0.803
-484.420	-87.710	0.480	0.183
-483.405	-200.000	0.029	0.414
-482.391	-130.103	-0.304	-0.052
-481.376	-35.698	-0.248	-0.171
-480.362	-127.578	-0.247	0.045
-479.347	443.523	-0.046	-0.129
-478.332	-178.221	0.123	-0.004
-477.318	-200.000	0.006	-0.080
-476.303	-81.975	-0.348	0.144
-475.289	-46.162	-0.219	-0.137
-474.274	-17.577	-0.158	-0.126
-473.259	-58.108	-0.229	0.126
-472.245	800.000	-0.111	0.393
-471.230	122.369	-0.027	0.043
-470.216	-200.000	-0.028	0.264
-469.201	-96.792	0.958	0.318
-468.186	-99.470	-0.080	0.026
-467.172	56.586	-0.076	0.094
-466.157	-40.539	0.426	0.280
-465.143	19.180	0.171	-0.174
-464.128	-200.000	-0.026	-0.515
-463.113	800.000	0.084	-0.469
-462.099	800.000	-0.074	0.362
-461.084	223.022	0.087	-0.179
-460.070	-200.000	0.002	0.403
-459.055	4.768	-0.207	0.194
-458.040	31.382	-0.186	-0.203
-457.026	-200.000	-0.009	-0.681
-456.011	108.346	0.532	-0.809
-454.997	-92.495	0.358	-0.127
-453.982	375.131	-0.092	0.239
-452.968	-145.971	-0.256	0.028
-451.953	205.152	0.177	-0.350
-450.938	-200.000	0.030	-0.185
-449.924	-40.318	0.067	-0.044
-448.909	-29.419	0.547	0.397
-447.895	6.312	-0.090	-0.085
-446.880	26.490	0.307	-0.326
-445.865	800.000	0.082	-0.424
-444.851	29.956	-0.266	0.288
-443.836	61.451	-0.380	0.481
-442.822	-115.030	-0.278	0.067
-441.807	196.605	0.194	-0.377
-440.792	-200.000	-0.052	-0.304
-439.778	310.878	-0.125	0.299
-438.763	-28.300	0.354	0.259
-437.749	-63.043	-0.301	-0.157
-436.734	-34.074	0.024	0.017
-435.719	-44.126	0.377	0.240
-434.705	-172.969	0.273	-0.011
-433.690	-200.000	-0.007	0.071
-432.676	-200.000	0.003	-0.071
-431.661	73.965	0.164	-0.219
-430.646	-46.994	-0.189	0.117
-429.632	-22.933	0.404	-0.309
-428.617	-122.497	-0.138	-0.028
-427.603	-171.051	0.194	0.008
-426.588	-200.000	0.011	0.406
-425.573	258.738	0.092	0.202
-424.559	800.000	0.019	-0.104
-423.544	-65.906	0.488	-0.247
-422.530	-115.378	-0.493	0.117
-421.515	734.620	-0.149	-0.510
-420.500	18.983	-0.225	-0.229
-419.486	-62.818	-0.173	0.091
-418.471	-24.734	-0.429	-0.323
-417.457	-25.426	0.276	-0.207
-416.442	800.000	0.052	0.250
-415.428	800.000	0.058	0.315
-414.413	-73.319	0.479	0.222
-413.398	-56.959	0.621	0.346
-412.384	-6.042	-0.136	-0.118
-411.369	-93.265	0.404	-0.142
-410.355	-110.827	-0.197	-0.051
-409.340	6.073	0.173	0.163
-408.325	-200.000	0.036	0.822
-407.311	610.194	-0.119	-0.380
-406.296	-102.973	-0.230	-0.069
-405.282	800.000	-0.008	-0.035
-404.267	-32.458	0.088	0.062
-403.252	-200.000	0.053	-0.416
-402.238	53.044	0.359	0.437
-401.223	800.000	0.041	0.198
-400.209	258.780	0.124	0.272
-399.194	52.619	-0.264	0.320
-398.179	-21.919	-0.196	-0.151
-397.165	-8.471	0.121	0.103
-396.150	-4.427	-0.279	-0.244
-395.136	-200.000	0.010	-0.505
-394.121	-200.000	0.041	0.437
-393.106	9.697	-0.433	0.416
-392.092	-26.543	-0.321	-0.238
-391.077	-81.093	-0.547	-0.228
-390.063	560.729	0.107	0.329
-389.048	154.061	0.187	0.326
-388.033	271.439	0.151	0.338
-387.019	-167.896	-0.155	-0.008
-386.004	-9.402	-0.348	-0.294
-384.990	-109.688	-0.540	-0.143
-383.975	-104.927	-0.115	0.033
-382.960	-12.071	-0.026	-0.022
-381.946	-138.553	0.425	-0.058
-380.931	130.730	0.255	0.415
-379.917	-44.227	0.329	-0.209
-378.902	213.914	0.147	-0.295
-377.888	-106.723	0.244	0.068
-376.873	1.226	-0.128	-0.116
-375.858	154.142	-0.042	-0.074
-374.844	8.321	-0.250	0.238
-373.829	464.726	0.136	0.388
-372.815	-200.000	-0.037	0.312
-371.800	2.506	0.056	-0.051
-370.785	-200.000	0.038	0.263
-369.771	-86.343	0.238	-0.092
-368.756	72.378	0.183	0.241
-367.742	451.113	-0.169	0.474
-366.727	-54.862	0.257	-0.146
-365.712	-128.694	0.189	-0.033
-364.698	-8.173	0.166	-0.142
-363.683	800.000	-0.029	0.103
-362.669	800.000	0.150	0.675
-361.654	800.000	0.030	0.146
-360.639	-10.002	-0.310	0.260
-359.625	319.285	-0.110	0.265
-358.610	-200.000	0.003	-0.074
-357.596	-19.049	-0.403	-0.316
-356.581	-65.694	0.298	0.150
-355.566	10.861	0.186	-0.180
-354.552	-200.000	0.180	-0.001
-353.537	-35.718	-0.311	0.213
-352.523	-72.356	-0.127	-0.059
-351.508	790.988	0.041	-0.142
-350.493	558.564	-0.106	-0.327
-349.479	-65.405	0.197	0.100
-348.464	-23.907	-0.189	0.143
-347.450	-25.844	-0.111	0.083
-346.435	-23.175	0.503	0.382
-345.420	247.630	-0.048	-0.103
-344.406	-56.148	-0.329	-0.185
-343.391	800.000	0.111	0.401
-342.377	-117.745	0.543	0.123
-341.362	800.000	0.117	-0.530
-340.348	48.765	-0.329	-0.391
-339.333	-141.944	-0.372	-0.046
-338.318	224.732	0.018	0.037
-337.304	-200.000	-0.101	-0.597
-336.289	-108.150	-0.067	0.018
-335.275	-102.283	0.274	0.083
-334.260	103.707	-0.201	0.299
-333.245	89.542	-0.046	-0.066
-332.231	800.000	0.054	-0.197
-331.216	20.493	0.115	0.117
-330.202	47.582	0.061	-0.072
-329.187	-103.994	0.337	-0.099
-328.172	800.000	-0.077	0.358
-327.158	721.432	0.064	-0.216
-326.143	-43.924	0.220	0.140
-325.129	331.665	0.192	0.471
-324.114	-113.833	0.605	-0.148
-323.099	-72.312	0.330	-0.154
-322.085	-87.722	-0.309	-0.117
-321.070	-200.000	0.009	0.262
-320.056	800.000	-0.143	0.507
-319.041	-94.141	-0.323	0.111
-318.026	270.913	-0.137	-0.306
-317.012	-200.000	-0.009	0.071
-315.997	-104.623	-0.393	0.114
-314.983	-15.479	-0.126	-0.102
-313.968	-28.239	0.314	-0.229
-312.953	46.762	0.115	-0.135
-311.939	-200.000	0.041	-0.475
-310.924	-200.000	0.048	0.348
-309.910	-24.630	-0.218	0.164
-308.895	-200.000	-0.284	0.001
-307.880	72.617	0.363	0.480
-306.866	-180.656	0.234	-0.006
-305.851	-29.600	-0.290	0.209
-304.837	41.963	-0.111	0.128
-303.822	45.950	-0.092	-0.107
-302.807	120.177	-0.112	0.176
-301.793	-38.716	0.139	0.093
-300.778	-149.025	-0.402	0.040
-299.764	-41.826	0.463	0.299
-298.749	-200.000	-0.003	-0.124
-297.735	-200.000	-0.012	-0.178
-296.720	-16.663	0.177	-0.141
-295.705	-90.749	-0.283	-0.102
-294.691	-68.501	0.253	0.123
-293.676	301.384	-0.233	0.545
-292.662	-54.730	-0.262	-0.149
-291.647	-200.000	0.020	0.358
-290.632	366.023	0.123	0.315
-289.618	40.973	-0.289	0.330
-288.603	-122.261	-0.076	-0.015
-287.589	-27.124	-0.211	0.155
-286.574	-112.960	0.690	0.171
-285.559	-34.003	0.584	-0.405
-284.545	26.705	0.187	-0.197
-283.530	-146.913	-0.390	0.042
-282.516	-52.788	0.153	-0.089
-281.501	-71.942	-0.380	0.178
-280.486	50.019	-0.313	-0.373
-279.472	-110.504	0.426	-0.111
-278.457	64.724	-0.336	0.428
-277.443	464.956	-0.169	0.479
-276.428	248.007	-0.119	-0.255
-275.413	616.052	0.132	0.420
-274.399	-77.678	0.305	-0.133
-273.384	-200.000	0.006	-0.309
-272.370	-182.722	-0.507	-0.011
-271.355	-154.799	0.927	-0.076
-270.340	323.603	0.136	0.329
-269.326	-78.855	-0.365	-0.156
-268.311	-200.000	-0.012	-0.138
-267.297	15.590	0.120	-0.119
-266.282	-200.000	-0.086	0.545
-265.267	-60.608	-0.263	0.140
-264.253	27.962	0.312	-0.332
-263.238	-84.452	0.330	0.131
-262.224	-173.112	-0.648	0.025
-261.209	-151.330	-0.587	0.055
-260.195	51.351	0.087	-0.104
-259.180	-108.787	0.697	-0.187
-258.165	-186.477	0.466	0.008
-257.151	-200.000	0.015	0.149
-256.136	-160.541	0.097	-0.006
-255.122	-200.000	-0.003	0.290
-254.107	-94.340	-0.313	0.107
-253.092	-74.319	0.252	0.114
-252.078	-200.000	-0.004	-0.232
-251.063	307.785	-0.198	-0.466
-250.049	627.730	0.049	-0.157
-249.034	16.412	-0.217	-0.216
-248.019	-200.000	-0.049	-0.293
-247.005	800.000	0.080	-0.444
-245.990	542.635	0.046	-0.139
-244.976	13.738	0.320	-0.313
-243.961	-107.067	0.210	-0.058
-242.946	800.000	0.093	0.331
-241.932	-89.214	-0.114	0.042
-240.917	-47.386	0.107	-0.066
-239.903	-84.320	-0.127	-0.050
-238.888	91.709	-0.113	0.160
-237.873	159.978	-0.057	0.100
-236.859	-135.265	-0.443	0.066
-235.844	800.000	0.018	0.099
-234.830	-40.550	-0.064	0.042
-233.815	-109.363	0.332	0.088
-232.800	21.415	0.360	0.368
-231.786	-43.142	-0.221	-0.141
-230.771	-66.580	-0.270	0.134
-229.757	2.520	0.025	-0.022
-228.742	386.269	0.178	0.465
-227.727	44.659	-0.221	-0.256
-226.713	-94.080	0.143	-0.049
-225.698	-200.000	-0.007	0.522
-224.684	-2.106	-0.363	0.321
-223.669	-200.000	-0.043	-0.282
-222.655	-25.226	-0.083	-0.062
-221.640	27.373	0.157	0.166
-220.625	800.000	-0.006	-0.028
-219.611	-200.000	-0.008	0.208
-218.596	-137.930	-0.554	0.077
-217.582	-139.179	-0.366	-0.049
-216.567	-160.798	-0.436	-0.029
-215.552	-6.858	-0.072	-0.062
-214.538	-134.750	0.363	-0.055
-213.523	-60.862	-0.156	-0.083
-212.509	-153.585	0.161	-0.014
-211.494	800.000	0.046	-0.236
-210.479	225.318	-0.106	-0.217
-209.465	-152.629	0.219	-0.019
-208.450	-200.000	0.007	0.310
-207.436	-13.067	-0.695	-0.568
-206.421	-106.041	0.399	-0.112
-205.406	800.000	0.085	-0.405
-204.392	-45.456	-0.114	-0.071
-203.377	586.131	-0.054	0.167
-202.363	-43.684	0.265	0.168
-201.348	-82.522	0.078	-0.032
-200.333	143.634	-0.172	-0.289
-199.319	-97.640	0.611	-0.198
-198.304	800.000	-0.034	-0.187
-197.290	240.930	-0.173	0.364
-196.275	374.253	0.076	-0.194
-195.260	-64.859	-0.355	-0.180
-194.246	-176.906	0.290	0.009
-193.231	-47.648	0.211	0.128
-192.217	-132.513	-0.692	0.111
-191.202	-94.137	-0.249	-0.085
-190.187	-62.006	0.210	-0.110
-189.173	245.938	0.303	-0.644
-188.158	-200.000	0.010	0.233
-187.144	-93.422	0.330	-0.114
-186.129	46.042	0.234	-0.273
-185.114	-50.710	-0.455	0.269
-184.100	-75.381	0.306	-0.136
-183.085	-128.168	0.314	0.056
-182.071	-140.063	-0.147	0.019
-181.056	29.898	-0.238	-0.255
-180.042	800.000	0.095	-0.377
-179.027	217.332	0.043	-0.087
-178.012	-80.288	0.207	-0.087
-176.998	-92.021	0.129	-0.045
-175.983	-8.416	-0.218	-0.184
-174.969	161.164	0.083	0.147
-173.954	123.816	-0.092	0.145
-172.939	206.941	-0.127	0.249
-171.925	-200.000	-0.056	-0.370
-170.910	-10.736	-0.044	0.037
-169.896	-35.974	-0.294	0.199
-168.881	168.508	-0.176	-0.315
-167.866	473.666	-0.109	-0.309
-166.852	603.157	0.050	-0.156
-165.837	461.939	-0.030	-0.085
-164.823	154.587	0.061	0.105
-163.808	-115.266	-0.062	-0.015
-162.793	353.168	0.120	-0.300
-161.779	17.058	0.169	-0.168
-160.764	84.707	-0.339	-0.466
-159.750	61.347	0.215	-0.268
-158.735	-5.046	0.059	0.051
-157.720	-106.863	0.487	0.135
-156.706	61.456	0.192	0.240
-155.691	-26.662	-0.029	-0.021
-154.677	-200.000	-0.057	-0.395
-153.662	-53.922	-0.094	-0.054
-152.647	-77.847	-0.310	0.134
-151.633	95.693	-0.435	-0.624
-150.618	121.272	-0.100	0.157
-149.604	688.457	-0.136	-0.449
-148.589	-166.645	0.099	0.005
-147.574	-84.671	-0.101	-0.040
-146.560	38.368	-0.305	-0.341
-145.545	149.326	-0.151	-0.258
-144.531	334.094	0.139	0.339
-143.516	102.628	-0.147	0.217
-142.502	-96.071	0.213	-0.071
-141.487	155.495	-0.007	-0.013
-140.472	-76.071	0.342	-0.151
-139.458	115.009	-0.267	-0.410
-138.443	-15.903	-0.175	-0.140
-137.429	-200.000	-0.025	0.152
-136.414	64.852	-0.252	0.320
-135.399	209.416	0.129	0.255
-134.385	-127.203	-0.115	-0.021
-133.370	-97.896	0.291	-0.094
-132.356	800.000	0.072	-0.287
-131.341	-57.560	-0.177	-0.097
-130.326	228.139	0.306	-0.628
-129.312	-55.045	-0.231	-0.130
-128.297	-6.260	0.213	-0.183
-127.283	78.430	0.345	-0.463
-126.268	800.000	0.080	-0.309
-125.253	-80.577	-0.077	-0.032
-124.239	-178.804	-0.452	0.013
-123.224	70.314	-0.236	-0.306
-122.210	-47.911	0.209	-0.127
-121.195	-200.000	0.072	-0.437
