DTS Sentinel unit serial number:	SN409020Multiplexer serial number:	ORYXHardware model number:	OX4-SRSoftware version number:	ORYX F/W v3.00 Oryx Data Collector v3.7.2.0data status	okinstallation	HaddamTimeLapsedifferential loss correction	single-endedforward channel	channel 3reverse channel	N/Adate	2011/06/22time	00:16:16forward acquisition time	30.00reverse acquisition time	0.00gamma	498.7831k internal	0.1752k external	0.1752temperature offset calibration	1.0074default loss term (dB/km)	0.3790temperature slope calibration	1.3530multiplexer offset coefficient	1.0000multiplexer slope coefficient	1.0000fibre end	0.00T internal ref (°C)	22.75T ext. ref 1 (°C)	18.08T ext. ref 2 (°C)	0.05length (m)	temperature (°C)	Stokes	anti-Stokes-747.200	-61.353	-0.459	-0.255
-746.185	-200.000	-0.020	0.532
-745.171	120.589	-0.287	0.474
-744.156	-139.879	-0.275	0.038
-743.142	-200.000	-0.003	-0.040
-742.127	-98.443	0.428	0.145
-741.112	-164.867	-0.267	-0.016
-740.098	-200.000	-0.044	0.462
-739.083	365.902	0.106	0.286
-738.069	-200.000	-0.009	-0.113
-737.054	29.843	-0.400	-0.452
-736.039	223.783	-0.111	0.238
-735.025	-127.394	0.467	0.089
-734.010	198.699	0.180	0.368
-732.996	-118.408	-0.245	0.057
-731.981	-58.446	0.328	0.188
-730.966	-62.020	0.440	0.243
-729.952	87.726	-0.153	-0.225
-728.937	47.301	-0.281	0.347
-727.923	-150.498	0.298	-0.030
-726.908	-101.744	-0.304	0.097
-725.894	-200.000	-0.025	0.384
-724.879	129.675	0.043	0.072
-723.864	-165.656	-0.266	0.015
-722.850	-108.440	-0.226	-0.064
-721.835	394.360	-0.175	0.487
-720.821	45.190	-0.034	-0.041
-719.806	-200.000	-0.012	-0.463
-718.791	44.897	-0.151	0.185
-717.777	-18.963	-0.325	-0.268
-716.762	298.920	-0.157	-0.384
-715.748	75.199	-0.141	-0.197
-714.733	-93.140	0.070	-0.026
-713.718	115.493	-0.270	-0.438
-712.704	-193.046	-0.301	-0.003
-711.689	104.853	-0.213	-0.334
-710.675	34.697	-0.103	-0.120
-709.660	-188.618	-0.212	-0.003
-708.645	-103.265	0.355	-0.111
-707.631	-179.279	0.219	0.006
-706.616	46.242	-0.243	-0.299
-705.602	-122.669	-0.179	0.038
-704.587	-182.252	-0.488	0.012
-703.572	-51.908	0.402	-0.247
-702.558	-116.070	0.318	0.078
-701.543	800.000	0.161	-0.646
-700.529	119.642	-0.310	-0.509
-699.514	157.361	0.129	-0.237
-698.499	-200.000	-0.021	0.196
-697.485	230.365	-0.206	-0.448
-696.470	-192.357	-0.282	0.003
-695.456	-56.325	-0.476	0.279
-694.441	-138.468	-0.061	0.009
-693.426	3.704	-0.088	0.085
-692.412	-155.125	-0.385	-0.033
-691.397	-200.000	0.001	-0.471
-690.383	35.485	-0.209	-0.243
-689.368	10.436	-0.271	0.273
-688.354	-119.300	0.299	0.068
-687.339	-137.528	-0.452	0.067
-686.324	-200.000	-0.007	-0.102
-685.310	-74.107	-0.191	0.091
-684.295	-10.697	0.162	-0.142
-683.281	-70.414	-0.290	-0.145
-682.266	-29.621	0.174	0.131
-681.251	-90.165	-0.273	0.105
-680.237	40.322	0.022	0.027
-679.222	-8.744	0.379	-0.336
-678.208	-139.088	-0.327	0.046
-677.193	-200.000	0.010	-0.177
-676.178	-200.000	-0.001	-0.258
-675.164	-200.000	-0.015	-0.201
-674.149	-152.940	-0.882	-0.081
-673.135	-53.180	0.566	0.343
-672.120	-36.779	-0.613	-0.435
-671.105	-117.090	-0.592	0.142
-670.091	800.000	0.116	-0.457
-669.076	-75.526	0.293	-0.137
-668.062	336.816	0.091	0.234
-667.047	230.792	0.152	-0.331
-666.032	-55.418	-0.365	-0.216
-665.018	16.045	-0.118	-0.123
-664.003	-115.611	-0.553	-0.136
-662.989	-74.615	0.037	-0.017
-661.974	-133.410	-0.403	-0.066
-660.959	-40.236	-0.355	-0.244
-659.945	-1.400	0.263	0.246
-658.930	81.362	0.222	0.318
-657.916	14.110	-0.254	0.261
-656.901	-53.286	0.160	0.097
-655.886	105.198	0.108	-0.169
-654.872	-58.819	-0.174	-0.099
-653.857	-69.092	-0.336	0.170
-652.843	11.145	0.283	-0.286
-651.828	-200.000	-0.092	-0.581
-650.814	-27.179	-0.271	0.208
-649.799	-192.554	0.345	-0.004
-648.784	-109.787	0.228	0.063
-647.770	104.546	-0.156	0.243
-646.755	-81.976	0.446	-0.192
-645.741	800.000	-0.077	-0.413
-644.726	-134.455	0.488	-0.078
-643.711	124.816	-0.163	-0.272
-642.697	-154.999	-0.252	0.022
-641.682	800.000	0.073	-0.341
-640.668	-23.336	-0.392	-0.311
-639.653	347.395	0.104	0.271
-638.638	51.512	0.064	0.080
-637.624	-163.004	-0.112	0.007
-636.609	-151.816	0.876	0.084
-635.595	-119.062	0.455	-0.104
-634.580	-14.726	0.421	-0.357
-633.565	80.858	0.141	-0.201
-632.551	-200.000	0.010	0.234
-631.536	755.627	0.028	-0.100
-630.522	-44.641	-0.404	-0.266
-629.507	433.768	0.068	0.196
-628.492	-74.632	-0.755	0.357
-627.478	800.000	-0.075	-0.345
-626.463	-117.258	-0.320	-0.076
-625.449	-98.725	0.028	-0.009
-624.434	-191.359	-0.243	0.003
-623.419	-135.708	-0.220	-0.034
-622.405	-166.325	0.426	-0.023
-621.390	-200.000	-0.020	0.273
-620.376	-61.545	-0.361	0.200
-619.361	68.937	0.296	-0.403
-618.346	-136.169	0.256	0.039
-617.332	-200.000	-0.007	-0.084
-616.317	419.664	-0.059	0.167
-615.303	-4.203	0.081	-0.074
-614.288	-165.594	-0.858	-0.049
-613.273	-200.000	0.080	0.505
-612.259	-107.205	0.221	0.064
-611.244	-28.253	0.189	0.144
-610.230	640.237	0.199	-0.673
-609.215	-126.692	-0.317	-0.061
-608.201	-200.000	0.054	0.610
-607.186	-37.823	0.126	-0.089
-606.171	-143.056	-0.267	0.034
-605.157	265.960	-0.037	0.085
-604.142	-121.151	0.046	0.010
-603.128	67.470	0.240	-0.324
-602.113	-200.000	-0.021	0.193
-601.098	-121.722	-0.333	-0.072
-600.084	83.789	-0.450	-0.650
-599.069	-141.284	0.208	-0.028
-598.055	-77.959	0.193	0.088
-597.040	-85.528	-0.157	0.064
-596.025	45.591	0.163	0.199
-595.011	50.071	0.131	0.163
-593.996	237.662	-0.160	-0.351
-592.982	-200.000	-0.032	-0.455
-591.967	-13.505	0.043	0.037
-590.952	113.066	-0.205	-0.329
-589.938	67.761	-0.248	0.335
-588.923	-99.982	-0.315	0.103
-587.909	-135.306	-0.707	0.111
-586.894	-90.322	0.134	0.051
-585.879	-17.382	-0.127	-0.106
-584.865	-50.658	-0.469	0.291
-583.850	46.525	-0.411	0.503
-582.836	-200.000	0.008	-0.173
-581.821	-84.559	0.257	0.106
-580.806	16.940	0.196	0.204
-579.792	-200.000	0.000	-0.339
-578.777	-84.864	-0.193	-0.080
-577.763	131.387	0.297	0.505
-576.748	202.615	0.249	-0.509
-575.733	-36.010	0.272	-0.194
-574.719	8.883	0.048	-0.047
-573.704	336.815	0.077	-0.198
-572.690	30.171	0.117	0.131
-571.675	88.024	-0.359	0.526
-570.661	135.850	0.110	0.189
-569.646	283.591	0.010	0.025
-568.631	-59.092	0.242	0.137
-567.617	79.544	0.091	0.129
-566.602	141.221	-0.168	0.294
-565.588	1.148	-0.184	-0.174
-564.573	385.530	0.142	0.388
-563.558	-173.541	-0.445	0.017
-562.544	243.146	-0.203	0.451
-561.529	-59.243	-0.303	0.172
-560.515	-43.091	-0.359	-0.239
-559.500	-200.000	0.014	0.192
-558.485	-10.790	-0.247	0.215
-557.471	-24.187	-0.114	-0.090
-556.456	-200.000	-0.038	-0.404
-555.442	417.612	-0.190	-0.538
-554.427	-78.599	-0.602	-0.270
-553.412	-90.853	0.410	-0.155
-552.398	347.853	0.121	-0.315
-551.383	367.490	0.220	-0.589
-550.369	161.493	0.202	-0.373
-549.354	-81.798	-0.100	0.043
-548.339	253.463	-0.122	-0.276
-547.325	-28.623	-0.336	-0.255
-546.310	485.302	-0.093	-0.280
-545.296	104.984	-0.067	0.104
-544.281	-200.000	0.008	0.353
-543.266	-41.776	-0.054	-0.036
-542.252	69.372	0.298	0.404
-541.237	800.000	0.103	-0.486
-540.223	-16.223	-0.280	-0.234
-539.208	-173.256	-0.311	-0.012
-538.193	-200.000	0.054	-0.352
-537.179	800.000	-0.084	-0.313
-536.164	-119.409	-0.030	-0.007
-535.150	64.108	-0.282	-0.374
-534.135	719.891	0.177	0.624
-533.121	-43.905	0.454	0.300
-532.106	-70.456	0.634	-0.315
-531.091	800.000	-0.068	0.277
-530.077	-26.742	-0.422	-0.325
-529.062	399.778	-0.079	-0.219
-528.048	-200.000	-0.022	-0.335
-527.033	419.504	0.019	0.053
-526.018	-26.061	-0.297	-0.229
-525.004	780.981	-0.088	0.321
-523.989	-96.424	-0.053	-0.018
-522.975	59.661	0.102	-0.132
-521.960	-0.069	-0.309	-0.289
-520.945	-200.000	0.014	-0.386
-519.931	-12.023	0.225	-0.194
-518.916	-103.598	0.372	0.114
-517.902	-29.463	-0.167	0.125
-516.887	-200.000	-0.001	-0.165
-515.872	165.140	-0.149	-0.278
-514.858	-95.784	0.175	-0.061
-513.843	-87.702	0.388	-0.153
-512.829	-200.000	0.394	-0.001
-511.814	-171.624	0.627	0.027
-510.799	-153.091	0.475	0.043
-509.785	-200.000	-0.022	0.181
-508.770	-123.514	0.304	-0.063
-507.756	-79.227	0.355	0.158
-506.741	-192.307	0.316	0.004
-505.726	-100.533	-0.232	0.075
-504.712	53.656	0.090	0.113
-503.697	-41.737	0.177	0.119
-502.683	474.858	-0.114	-0.340
-501.668	66.895	0.041	0.055
-500.653	262.063	-0.102	-0.234
-499.639	-143.889	-0.287	0.035
-498.624	-137.543	-0.577	-0.085
-497.610	-126.102	0.253	0.050
-496.595	-66.508	0.403	0.210
-495.581	800.000	-0.097	-0.452
-494.566	-200.000	0.006	-0.216
-493.551	800.000	0.049	-0.248
-492.537	115.795	-0.177	0.285
-491.522	-10.834	0.324	0.281
-490.508	-4.490	-0.207	0.187
-489.493	-26.915	0.109	0.083
-488.478	-25.596	-0.340	-0.264
-487.464	-55.400	-0.452	0.266
-486.449	-200.000	-0.027	0.301
-485.435	4.384	0.528	0.509
-484.420	-75.569	0.114	0.053
-483.405	-78.774	0.213	0.095
-482.391	-90.889	0.086	0.032
-481.376	-130.519	-0.279	0.049
-480.362	800.000	0.076	0.291
-479.347	41.855	-0.211	0.251
-478.332	-80.017	0.292	-0.128
-477.318	70.492	0.283	-0.385
-476.303	45.220	-0.277	-0.335
-475.289	553.317	-0.089	-0.284
-474.274	295.164	-0.072	0.175
-473.259	-45.367	0.069	-0.045
-472.245	625.857	0.053	0.178
-471.230	71.453	0.180	-0.246
-470.216	48.719	-0.140	0.172
-469.201	474.205	-0.007	0.020
-468.186	617.568	-0.115	-0.382
-467.172	-78.829	-0.091	-0.041
-466.157	-9.323	-0.365	0.320
-465.143	18.274	0.111	-0.116
-464.128	-129.434	0.536	-0.097
-463.113	19.415	-0.203	-0.214
-462.099	-116.502	-0.059	0.014
-461.084	-146.330	0.022	0.002
-460.070	107.710	-0.306	-0.479
-459.055	-107.508	-0.501	0.143
-458.040	125.886	-0.137	-0.228
-457.026	-152.226	-0.233	0.022
-456.011	-137.313	-0.153	-0.023
-454.997	-52.818	0.483	-0.291
-453.982	-81.913	0.322	0.138
-452.968	123.061	-0.257	0.423
-451.953	-73.006	0.185	0.089
-450.938	-76.418	0.281	-0.129
-449.924	-74.113	0.184	-0.087
-448.909	-3.357	-0.403	-0.368
-447.895	347.314	0.107	0.277
-446.880	-200.000	0.027	-0.183
-445.865	-88.790	-0.388	-0.150
-444.851	-19.726	-0.503	0.408
-443.836	596.135	-0.114	0.374
-442.822	160.380	-0.185	0.339
-441.807	-77.278	0.323	0.147
-440.792	-75.852	-0.302	0.140
-439.778	-200.000	0.001	0.335
-438.763	93.010	0.156	0.232
-437.749	241.438	-0.173	-0.382
-436.734	-166.045	-0.105	-0.006
-435.719	-124.781	0.432	-0.087
-434.705	-14.883	-0.312	-0.262
-433.690	5.520	-0.147	-0.143
-432.676	-154.021	-0.273	-0.024
-431.661	418.151	-0.089	-0.252
-430.646	-132.879	-0.316	0.052
-429.632	-175.831	-0.529	-0.018
-428.617	-63.995	-0.550	0.294
-427.603	-28.394	-0.375	0.284
-426.588	-37.716	-0.227	0.158
-425.573	549.610	-0.167	0.526
-424.559	-200.000	0.294	-0.001
-423.544	-68.840	-0.139	0.070
-422.530	800.000	0.054	0.244
-421.515	-55.456	0.047	-0.028
-420.500	800.000	0.074	0.276
-419.486	-57.232	-0.202	0.116
-418.471	120.426	0.163	0.265
-417.457	131.598	0.056	-0.094
-416.442	30.641	0.287	0.322
-415.428	-7.141	0.213	-0.189
-414.413	225.707	0.075	-0.159
-413.398	-91.109	-0.054	-0.020
-412.384	422.843	-0.075	0.212
-411.369	-200.000	-0.008	0.504
-410.355	-81.224	0.275	0.118
-409.340	-39.264	0.153	-0.105
-408.325	4.033	0.291	-0.279
-407.311	800.000	0.097	0.459
-406.296	187.082	0.116	0.227
-405.282	45.084	-0.117	0.142
-404.267	744.439	0.134	0.476
-403.252	397.412	-0.118	-0.326
-402.238	96.434	-0.345	0.518
-401.223	94.213	0.078	-0.116
-400.209	-118.127	0.210	0.049
-399.194	-150.791	-0.492	-0.048
-398.179	-89.908	0.226	0.086
-397.165	-200.000	0.006	0.047
-396.150	399.907	-0.115	-0.316
-395.136	-73.340	0.446	0.213
-394.121	-26.662	-0.035	0.026
-393.106	-65.764	-0.235	-0.123
-392.092	494.649	0.115	-0.349
-391.077	-168.781	-0.123	0.006
-390.063	-200.000	-0.022	-0.144
-389.048	-160.944	-0.513	0.035
-388.033	-200.000	0.001	-0.048
-387.019	-148.484	-0.155	0.016
-386.004	185.992	0.116	-0.227
-384.990	-200.000	0.000	-0.041
-383.975	383.795	-0.077	0.208
-382.960	23.012	0.125	-0.134
-381.946	-74.008	0.617	-0.292
-380.931	-123.873	0.368	0.075
-379.917	-200.000	-0.017	-0.140
-378.902	211.939	0.168	-0.347
-377.888	-62.369	-0.198	0.107
-376.873	-93.565	-0.112	-0.040
-375.858	577.237	0.029	-0.095
-374.844	-200.000	0.038	0.306
-373.829	-5.968	-0.340	-0.304
-372.815	34.886	0.032	-0.036
-371.800	-124.036	0.444	-0.091
-370.785	-200.000	0.013	0.517
-369.771	-146.503	-0.327	0.037
-368.756	-87.617	0.177	0.070
-367.742	-73.925	-0.284	0.135
-366.727	-200.000	0.008	0.106
-365.712	-51.008	-0.126	-0.077
-364.698	800.000	0.025	-0.117
-363.683	186.149	-0.155	-0.302
-362.669	-200.000	-0.032	-0.249
-361.654	1.636	0.232	0.219
-360.639	-50.999	0.482	0.295
-359.625	411.380	-0.125	0.349
-358.610	-156.304	-0.609	0.049
-357.596	1.469	-0.152	0.143
-356.581	328.056	-0.072	0.182
-355.566	116.855	0.077	0.124
-354.552	-115.327	0.354	-0.087
-353.537	-2.495	0.164	-0.150
-352.523	262.482	-0.180	-0.410
-351.508	590.170	-0.067	0.216
-350.493	-178.046	0.403	-0.012
-349.479	-124.822	0.504	0.101
-348.464	-169.475	-0.353	-0.017
-347.450	132.902	0.090	0.152
-346.435	-200.000	0.042	-0.342
-345.420	-79.135	0.236	0.104
-344.406	-141.364	-0.351	-0.046
-343.391	-17.076	0.216	-0.178
-342.377	-200.000	0.008	0.320
-341.362	141.403	-0.252	-0.437
-340.348	6.332	-0.064	0.062
-339.333	800.000	-0.021	0.101
-338.318	584.873	0.265	0.855
-337.304	-47.339	-0.314	0.199
-336.289	-22.711	0.329	0.259
-335.275	6.190	0.437	-0.423
-334.260	-200.000	0.001	0.247
-333.245	-152.501	-0.278	0.026
-332.231	-32.438	0.336	-0.244
-331.216	-74.656	0.252	0.118
-330.202	85.702	-0.120	0.173
-329.187	-101.968	0.421	-0.132
-328.172	71.492	0.340	-0.462
-327.158	263.807	0.114	-0.259
-326.143	-200.000	-0.028	0.345
-325.129	-5.172	-0.504	0.452
-324.114	24.746	0.217	-0.235
-323.099	-166.210	0.388	-0.021
-322.085	-200.000	-0.007	0.265
-321.070	-114.301	-0.414	0.103
-320.056	187.409	-0.118	-0.230
-319.041	-200.000	0.016	0.211
-318.026	-135.114	0.153	0.024
-317.012	167.100	-0.151	0.281
-315.997	-116.770	-0.056	0.013
-314.983	-116.006	-0.636	0.153
-313.968	421.802	0.060	-0.170
-312.953	4.553	-0.481	-0.460
-311.939	321.702	0.154	0.385
-310.924	-47.410	0.108	0.068
-309.910	-92.385	0.379	0.138
-308.895	-91.082	-0.185	0.069
-307.880	-69.459	-0.399	0.199
-306.866	-111.759	0.079	0.021
-305.851	800.000	-0.064	-0.237
-304.837	132.475	-0.122	-0.206
-303.822	314.584	-0.081	-0.200
-302.807	331.893	0.073	0.185
-301.793	-131.846	0.131	0.022
-300.778	464.269	0.078	-0.229
-299.764	120.578	0.122	-0.197
-298.749	46.165	-0.174	-0.210
-297.735	127.818	0.168	0.280
-296.720	-125.709	0.430	0.084
-295.705	800.000	-0.071	0.381
-294.691	-200.000	0.017	0.272
-293.676	-42.481	0.293	-0.194
-292.662	-99.345	0.088	0.029
-291.647	-200.000	-0.058	-0.423
-290.632	-41.140	0.187	-0.126
-289.618	288.989	-0.249	0.592
-288.603	-131.370	0.156	0.027
-287.589	-167.079	0.533	0.028
-286.574	-3.444	-0.293	0.265
-285.559	97.580	0.106	0.160
-284.545	800.000	0.099	0.436
-283.530	269.111	-0.110	-0.254
-282.516	-89.289	0.320	0.122
-281.501	-200.000	-0.015	-0.401
-280.486	-77.665	0.867	0.390
-279.472	7.032	0.448	0.436
-278.457	479.646	-0.100	0.297
-277.443	-90.527	0.277	0.104
-276.428	32.702	-0.103	-0.116
-275.413	298.224	0.149	-0.358
-274.399	-98.611	-0.138	0.046
-273.384	27.260	0.175	-0.191
-272.370	-200.000	0.047	-0.568
-271.355	-200.000	-0.027	0.335
-270.340	62.020	0.093	-0.121
-269.326	800.000	0.080	-0.424
-268.311	-168.120	-0.106	-0.005
-267.297	109.948	0.111	-0.174
-266.282	-184.597	0.366	0.008
-265.267	511.346	0.110	0.335
-264.253	-200.000	0.044	0.397
-263.238	-177.894	-0.288	-0.009
-262.224	-92.017	-0.165	0.060
-261.209	-140.967	0.401	0.053
-260.195	-66.101	-0.149	-0.077
-259.180	120.368	-0.053	0.086
-258.165	97.191	0.390	0.584
-257.151	600.692	0.066	0.216
-256.136	-158.739	-0.432	-0.032
-255.122	-61.934	-0.209	0.113
-254.107	6.412	0.300	-0.290
-253.092	-128.503	0.305	0.056
-252.078	-20.057	0.343	0.275
-251.063	170.524	0.095	-0.178
-250.049	-9.877	-0.308	0.267
-249.034	-99.556	0.346	-0.112
-248.019	-80.892	-0.308	-0.132
-247.005	113.913	-0.194	0.307
-245.990	316.817	0.044	-0.109
-244.976	15.953	-0.330	0.338
-243.961	-42.175	0.162	0.107
-242.946	-106.504	0.391	0.113
-241.932	-60.524	-0.190	-0.105
-240.917	800.000	-0.111	0.451
-239.903	-200.000	0.048	0.359
-238.888	-99.295	-0.446	0.146
-237.873	324.209	-0.148	-0.369
-236.859	-118.591	-0.493	-0.112
-235.844	-200.000	-0.010	-0.421
-234.830	615.359	-0.110	-0.361
-233.815	-78.025	0.373	0.166
-232.800	184.185	0.294	0.568
-231.786	-200.000	0.025	0.393
-230.771	800.000	-0.141	0.593
-229.757	-23.677	-0.250	-0.194
-228.742	43.768	0.220	-0.262
-227.727	20.117	0.326	-0.342
-226.713	-200.000	-0.008	0.049
-225.698	-32.553	0.273	0.198
-224.684	545.853	0.083	0.259
-223.669	-80.197	0.061	0.026
-222.655	126.750	0.151	-0.249
-221.640	81.065	-0.068	-0.096
-220.625	226.467	-0.098	-0.207
-219.611	-200.000	-0.044	-0.255
-218.596	556.826	0.098	-0.309
-217.582	32.993	0.145	0.164
-216.567	-86.157	0.291	0.116
-215.552	447.849	-0.125	-0.359
-214.538	-137.274	-0.494	-0.072
-213.523	-69.972	0.159	-0.079
-212.509	-165.478	-0.245	0.014
-211.494	30.837	-0.250	0.278
-210.479	-99.374	0.339	-0.110
-209.465	-200.000	-0.108	-0.786
-208.450	-200.000	-0.006	0.038
-207.436	-40.118	0.157	0.106
-206.421	-200.000	-0.017	0.392
-205.406	-200.000	0.030	0.378
-204.392	472.719	-0.054	0.158
-203.377	58.194	-0.107	-0.137
-202.363	-66.290	-0.274	-0.141
-201.348	-104.077	0.384	-0.115
-200.333	-51.046	0.306	-0.186
-199.319	-200.000	0.019	0.460
-198.304	-57.301	0.281	-0.160
-197.290	-114.974	0.415	-0.102
-196.275	273.870	-0.104	0.241
-195.260	298.564	0.056	-0.134
-194.246	-200.000	-0.004	-0.538
-193.231	-84.968	0.174	-0.071
-192.217	800.000	0.030	0.126
-191.202	-61.440	-0.198	0.108
-190.187	800.000	0.091	-0.482
-189.173	-24.046	-0.185	0.143
-188.158	-94.112	0.185	-0.066
-187.144	163.223	-0.242	-0.442
-186.129	800.000	0.168	-0.746
-185.114	-28.994	0.414	-0.308
-184.100	-108.247	-0.086	0.024
-183.085	-35.037	-0.184	-0.130
-182.071	-200.000	-0.007	0.464
-181.056	-91.330	0.438	0.162
-180.042	-103.397	-0.124	-0.038
-179.027	-139.175	-0.436	-0.060
-178.012	-200.000	-0.051	-0.441
-176.998	-200.000	-0.003	-0.265
-175.983	-65.453	-0.114	0.059
-174.969	320.199	-0.098	0.242
-173.954	-135.038	-0.239	-0.037
-172.939	172.195	-0.230	0.432
-171.925	5.716	0.188	0.181
-170.910	16.859	-0.214	-0.220
-169.896	-27.388	0.106	0.080
-168.881	-200.000	0.003	0.254
-167.866	19.623	-0.173	-0.180
-166.852	18.626	0.243	-0.253
-165.837	2.749	0.201	-0.189
-164.823	-200.000	0.048	0.457
-163.808	-200.000	0.039	-0.284
-162.793	800.000	-0.080	-0.355
-161.779	728.059	0.146	-0.510
-160.764	-113.223	-0.556	0.141
-159.750	-123.168	-0.583	0.120
-158.735	74.433	-0.230	0.315
-157.720	-51.233	-0.338	-0.205
-156.706	77.242	-0.189	0.262
-155.691	180.581	-0.165	-0.315
-154.677	36.433	0.125	-0.144
-153.662	-101.109	0.515	0.162
-152.647	-30.094	-0.286	-0.211
-151.633	-61.032	-0.196	0.107
-150.618	-12.808	-0.074	0.063
-149.604	236.427	0.060	0.128
-148.589	-31.762	-0.119	-0.086
-147.574	-155.837	-0.227	0.019
-146.560	-106.022	0.432	0.125
-145.545	-73.210	0.130	-0.061
-144.531	752.415	0.037	-0.130
-143.516	-30.686	-0.074	-0.054
-142.502	-68.586	0.289	-0.145
-141.487	-48.720	0.151	-0.094
-140.472	200.686	0.253	0.506
-139.458	800.000	-0.049	-0.180
-138.443	-22.479	-0.169	0.133
-137.429	39.076	0.332	-0.385
-136.414	10.842	-0.064	-0.064
-135.399	-41.087	0.064	-0.043
-134.385	37.233	-0.171	-0.197
-133.370	-200.000	-0.045	-0.000
-132.356	-43.672	-0.393	-0.256
-131.341	800.000	0.042	0.214
-130.326	-157.077	-0.196	0.015
-129.312	450.478	-0.073	0.210
-128.297	412.532	-0.114	-0.315
-127.283	-57.170	-0.193	0.110
-126.268	16.506	-0.346	0.354
-125.253	128.066	0.072	0.118
-124.239	-133.359	-0.558	-0.090
-123.224	700.265	-0.030	-0.104
-122.210	-200.000	0.040	0.341
