DTS Sentinel unit serial number:	SN409020Multiplexer serial number:	ORYXHardware model number:	OX4-SRSoftware version number:	ORYX F/W v3.00 Oryx Data Collector v3.7.2.0data status	okinstallation	HaddamTimeLapsedifferential loss correction	single-endedforward channel	channel 3reverse channel	N/Adate	2011/06/21time	20:56:16forward acquisition time	30.00reverse acquisition time	0.00gamma	498.7831k internal	0.1768k external	0.1768temperature offset calibration	1.0074default loss term (dB/km)	0.3790temperature slope calibration	1.3530multiplexer offset coefficient	1.0000multiplexer slope coefficient	1.0000fibre end	0.00T internal ref (°C)	28.12T ext. ref 1 (°C)	20.92T ext. ref 2 (°C)	0.02length (m)	temperature (°C)	Stokes	anti-Stokes-747.200	267.716	0.124	-0.286
-746.185	-1.341	0.126	0.117
-745.171	-80.723	-0.453	0.197
-744.156	334.005	0.128	0.326
-743.142	-148.204	0.377	0.040
-742.127	-8.430	0.211	0.186
-741.112	-195.154	-0.416	-0.004
-740.098	800.000	0.019	0.081
-739.083	19.837	-0.141	0.149
-738.069	-11.251	-0.259	0.224
-737.054	-200.000	0.050	0.328
-736.039	7.223	0.149	0.146
-735.025	800.000	0.081	-0.420
-734.010	391.059	-0.149	-0.410
-732.996	-27.007	0.545	-0.417
-731.981	35.242	0.066	-0.076
-730.966	723.555	-0.105	-0.368
-729.952	800.000	0.008	0.040
-728.937	3.402	-0.227	0.218
-727.923	16.624	0.352	-0.366
-726.908	549.291	0.057	-0.180
-725.894	-45.843	-0.251	-0.162
-724.879	-96.601	-0.082	-0.028
-723.864	-178.146	-0.617	0.019
-722.850	331.703	0.147	-0.374
-721.835	-200.000	-0.314	-0.000
-720.821	-146.197	-0.068	0.008
-719.806	-133.257	-0.227	-0.037
-718.791	-45.517	0.249	0.161
-717.777	-79.683	0.288	-0.127
-716.762	-200.000	0.053	0.351
-715.748	224.808	0.151	0.322
-714.733	-200.000	0.016	0.171
-713.718	153.988	0.092	-0.166
-712.704	316.295	-0.173	-0.432
-711.689	170.272	0.178	-0.335
-710.675	800.000	0.119	-0.439
-709.660	124.515	0.068	0.113
-708.645	-41.129	-0.206	0.140
-707.631	-61.166	-0.090	-0.050
-706.616	-131.719	0.265	-0.045
-705.602	-159.258	-0.079	-0.006
-704.587	-114.736	0.328	0.082
-703.572	48.599	0.059	-0.072
-702.558	-68.145	-0.254	-0.129
-701.543	-59.940	0.382	0.214
-700.529	800.000	0.055	0.217
-699.514	137.539	-0.017	0.030
-698.499	-200.000	0.024	-0.207
-697.485	115.815	-0.105	-0.170
-696.470	204.234	0.116	-0.238
-695.456	800.000	0.052	0.263
-694.441	-56.615	-0.558	-0.323
-693.426	-200.000	0.025	-0.190
-692.412	11.863	-0.153	-0.155
-691.397	183.936	-0.069	-0.134
-690.383	-200.000	-0.073	0.443
-689.368	172.571	0.189	-0.358
-688.354	-79.890	0.700	-0.308
-687.339	-200.000	-0.053	0.336
-686.324	-130.486	0.182	0.032
-685.310	-36.913	-0.196	-0.138
-684.295	-114.588	0.132	0.033
-683.281	-121.033	-0.410	0.090
-682.266	-138.737	-0.334	-0.047
-681.251	106.131	0.184	-0.286
-680.237	-90.716	-0.344	0.130
-679.222	-94.537	0.163	-0.058
-678.208	-27.019	0.105	0.080
-677.193	-48.567	-0.636	-0.400
-676.178	-180.847	0.350	-0.009
-675.164	-200.000	-0.043	0.464
-674.149	-142.918	0.207	0.026
-673.135	229.479	-0.170	0.365
-672.120	-146.109	-0.385	0.044
-671.105	34.883	0.493	-0.566
-670.091	-200.000	0.085	-0.618
-669.076	-97.500	0.083	0.028
-668.062	-56.347	-0.086	0.050
-667.047	800.000	-0.047	0.225
-666.032	-72.809	-0.298	0.143
-665.018	-143.190	-0.371	-0.046
-664.003	-67.216	-0.116	-0.060
-662.989	-200.000	-0.373	0.001
-661.974	9.255	-0.151	0.149
-660.959	169.898	-0.158	0.297
-659.945	123.238	-0.097	-0.160
-658.930	-200.000	0.013	-0.346
-657.916	123.479	-0.180	0.297
-656.901	-120.837	0.300	-0.066
-655.886	-177.320	0.137	-0.004
-654.872	-152.207	-0.187	0.017
-653.857	800.000	0.023	-0.101
-652.843	-80.305	-0.213	-0.093
-651.828	-43.848	0.252	-0.166
-650.814	-44.463	-0.096	-0.063
-649.799	234.178	-0.189	0.410
-648.784	310.090	0.093	0.229
-647.770	-88.527	-0.267	-0.104
-646.755	-163.335	0.459	-0.028
-645.741	12.260	-0.236	-0.238
-644.726	108.871	-0.157	-0.247
-643.711	-200.000	0.021	0.471
-642.697	-85.070	0.450	-0.184
-641.682	-158.525	0.308	0.023
-640.668	35.597	0.266	-0.306
-639.653	-61.889	-0.114	-0.063
-638.638	-200.000	-0.049	-0.519
-637.624	46.591	0.212	-0.258
-636.609	-114.683	0.399	0.099
-635.595	-86.152	0.449	-0.180
-634.580	-53.645	-0.093	0.056
-633.565	12.465	-0.131	0.133
-632.551	-177.481	0.210	0.007
-631.536	-151.936	0.268	0.025
-630.522	-200.000	-0.032	0.280
-629.507	8.290	0.097	-0.096
-628.492	-74.580	0.104	-0.049
-627.478	-200.000	-0.023	0.226
-626.463	-69.382	-0.432	0.216
-625.449	-112.629	-0.249	-0.064
-624.434	-31.043	-0.114	-0.084
-623.419	638.096	-0.067	-0.225
-622.405	-128.836	-0.137	-0.025
-621.390	118.150	0.263	-0.425
-620.376	204.151	-0.027	0.055
-619.361	21.391	-0.241	0.257
-618.346	-102.568	0.243	0.075
-617.332	131.229	-0.037	0.062
-616.317	25.715	-0.218	0.238
-615.303	-200.000	-0.012	-0.232
-614.288	-65.862	-0.520	0.271
-613.273	-107.235	0.260	-0.075
-612.259	-117.681	0.099	-0.023
-611.244	-200.000	0.009	-0.566
-610.230	-50.622	-0.249	-0.153
-609.215	122.994	-0.117	-0.192
-608.201	800.000	-0.027	-0.103
-607.186	15.900	-0.320	-0.329
-606.171	262.872	-0.210	-0.479
-605.157	12.325	-0.446	-0.449
-604.142	-153.580	-0.544	-0.049
-603.128	171.710	-0.113	0.212
-602.113	-200.000	0.071	0.418
-601.098	-21.152	-0.212	-0.170
-600.084	-112.653	-0.268	0.069
-599.069	54.146	0.185	0.233
-598.055	-28.524	0.386	0.290
-597.040	80.814	-0.152	0.215
-596.025	-74.501	-0.404	0.190
-595.011	-43.022	-0.583	0.386
-593.996	-189.698	0.092	0.001
-592.982	-62.889	-0.276	0.149
-591.967	335.010	-0.124	-0.316
-590.952	83.177	-0.163	-0.232
-589.938	-103.701	0.391	0.119
-588.923	-92.658	0.298	-0.109
-587.909	-200.000	-0.027	-0.318
-586.894	40.959	-0.162	0.191
-585.879	-121.130	0.298	0.065
-584.865	-114.981	0.153	-0.038
-583.850	75.815	0.418	-0.578
-582.836	8.826	0.363	-0.357
-581.821	197.238	0.064	-0.129
-580.806	4.168	0.319	-0.305
-579.792	-68.771	0.415	-0.209
-578.777	-200.000	-0.036	-0.413
-577.763	-200.000	0.042	-0.332
-576.748	-65.637	-0.280	-0.146
-575.733	-120.692	-0.735	-0.161
-574.719	37.415	-0.071	-0.082
-573.704	183.014	-0.145	0.281
-572.690	363.940	0.077	0.203
-571.675	-29.187	0.107	-0.080
-570.661	81.753	-0.197	-0.279
-569.646	-84.219	0.242	-0.100
-568.631	775.790	0.094	0.338
-567.617	121.728	0.088	0.144
-566.602	-200.000	0.025	-0.183
-565.588	-200.000	0.006	0.105
-564.573	-90.880	0.235	0.088
-563.558	3.567	0.151	0.144
-562.544	-91.307	0.717	-0.266
-561.529	661.746	0.136	0.460
-560.515	-58.203	0.562	0.318
-559.500	243.019	0.137	0.302
-558.485	66.497	0.079	-0.105
-557.471	208.073	0.065	0.133
-556.456	244.499	-0.156	-0.344
-555.442	-138.194	-0.255	0.037
-554.427	153.532	-0.088	0.159
-553.412	-155.928	0.079	0.006
-552.398	6.398	-0.453	0.439
-551.383	40.750	0.081	-0.096
-550.369	89.240	0.198	-0.288
-549.354	-56.010	-0.309	-0.179
-548.339	-31.372	-0.043	0.031
-547.325	-54.805	-0.333	-0.196
-546.310	81.257	0.012	0.017
-545.296	164.974	0.112	0.207
-544.281	-82.084	-0.424	0.180
-543.266	58.754	-0.318	-0.408
-542.252	160.139	0.042	0.077
-541.237	-125.467	-0.349	0.069
-540.223	5.085	0.427	-0.410
-539.208	-57.712	0.446	-0.254
-538.193	-200.000	-0.017	0.130
-537.179	800.000	-0.009	0.034
-536.164	-200.000	0.044	-0.274
-535.150	-65.169	0.265	-0.139
-534.135	-40.950	0.158	-0.106
-533.121	-200.000	-0.056	0.389
-532.106	-29.390	-0.289	-0.215
-531.091	127.865	0.326	-0.542
-530.077	-111.027	0.451	-0.120
-529.062	-64.734	0.212	-0.112
-528.048	-134.390	-0.251	-0.040
-527.033	-112.388	0.261	-0.068
-526.018	385.180	0.116	0.314
-525.004	50.262	0.398	0.491
-523.989	-93.565	0.164	0.059
-522.975	-200.000	0.013	-0.281
-521.960	-47.221	-0.030	0.019
-520.945	800.000	0.062	0.247
-519.931	-83.566	-0.283	0.117
-518.916	-136.677	-0.050	-0.007
-517.902	-200.000	-0.033	0.203
-516.887	-200.000	0.003	-0.420
-515.872	-70.581	-0.362	0.178
-514.858	30.914	-0.310	0.346
-513.843	663.898	-0.066	0.222
-512.829	-200.000	0.008	0.100
-511.814	-15.522	-0.155	-0.129
-510.799	220.660	-0.139	0.291
-509.785	-69.920	0.513	0.254
-508.770	-91.401	0.276	0.102
-507.756	2.334	-0.266	0.250
-506.741	-7.543	-0.539	-0.474
-505.726	-72.261	-0.324	-0.156
-504.712	-112.988	0.131	0.033
-503.697	308.427	0.014	-0.035
-502.683	-102.549	-0.212	-0.066
-501.668	-148.577	0.426	-0.045
-500.653	-200.000	-0.029	-0.375
-499.639	7.921	0.325	0.318
-498.624	-153.105	-0.454	-0.041
-497.610	-156.248	-0.482	-0.039
-496.595	107.799	-0.136	0.211
-495.581	800.000	-0.169	0.675
-494.566	-173.609	-0.391	0.015
-493.551	163.030	0.137	-0.252
-492.537	-103.385	-0.060	-0.018
-491.522	-112.582	-0.397	-0.102
-490.508	-173.431	0.310	-0.012
-489.493	-17.248	-0.129	-0.106
-488.478	-188.838	0.465	-0.007
-487.464	81.647	-0.112	-0.158
-486.449	-50.278	-0.474	-0.291
-485.435	351.102	0.219	-0.566
-484.420	46.451	0.263	-0.318
-483.405	-123.938	0.717	-0.146
-482.391	-14.558	0.242	-0.202
-481.376	71.032	-0.166	0.224
-480.362	-182.527	-0.273	-0.006
-479.347	-200.000	0.001	-0.213
-478.332	-200.000	-0.013	0.231
-477.318	-145.669	-0.191	0.022
-476.303	42.561	-0.216	-0.256
-475.289	3.430	-0.171	-0.162
-474.274	800.000	-0.004	0.019
-473.259	-78.121	-0.454	-0.203
-472.245	-137.236	-0.358	0.052
-471.230	-200.000	0.040	0.527
-470.216	-200.000	0.001	-0.151
-469.201	-178.742	-0.443	0.013
-468.186	-75.408	0.248	-0.115
-467.172	-79.237	-0.279	0.122
-466.157	-56.535	-0.311	0.179
-465.143	21.231	-0.238	-0.251
-464.128	-92.488	-0.259	-0.094
-463.113	41.044	-0.195	-0.229
-462.099	-93.276	0.286	-0.103
-461.084	-30.217	0.334	-0.246
-460.070	166.045	0.076	0.140
-459.055	-200.000	0.025	0.331
-458.040	167.428	-0.138	-0.255
-457.026	800.000	0.078	-0.398
-456.011	-81.145	0.294	-0.126
-454.997	800.000	0.039	-0.211
-453.982	800.000	-0.120	-0.548
-452.968	190.958	0.043	-0.084
-451.953	30.474	0.329	-0.366
-450.938	3.019	0.123	0.116
-449.924	-1.887	0.200	-0.183
-448.909	487.548	-0.079	-0.234
-447.895	-42.026	-0.292	-0.194
-446.880	-99.467	-0.070	0.023
-445.865	414.672	0.104	0.290
-444.851	-102.183	0.402	-0.125
-443.836	-125.041	0.262	0.052
-442.822	-134.379	-0.093	-0.015
-441.807	-61.991	0.074	-0.040
-440.792	270.907	0.190	-0.436
-439.778	-59.162	-0.231	-0.129
-438.763	32.189	0.233	0.262
-437.749	272.269	-0.087	-0.200
-436.734	-56.135	-0.322	0.186
-435.719	-88.826	0.256	0.098
-434.705	2.638	-0.332	-0.313
-433.690	800.000	0.048	-0.215
-432.676	-28.505	-0.135	0.101
-431.661	-92.742	0.257	-0.093
-430.646	93.819	0.201	-0.296
-429.632	-157.420	0.489	0.038
-428.617	122.734	-0.042	-0.068
-427.603	-166.026	0.438	0.024
-426.588	-200.000	-0.079	0.474
-425.573	-172.289	0.609	0.025
-424.559	460.938	0.176	-0.513
-423.544	-55.931	0.062	-0.036
-422.530	331.255	0.087	-0.218
-421.515	284.798	-0.127	0.297
-420.500	-200.000	0.016	-0.249
-419.486	-200.000	0.049	-0.287
-418.471	-79.927	-0.406	0.176
-417.457	310.119	0.057	-0.138
-416.442	-116.705	0.308	-0.073
-415.428	-144.156	-0.642	0.077
-414.413	-126.277	-0.284	-0.055
-413.398	-200.000	0.013	0.097
-412.384	16.588	-0.301	-0.309
-411.369	-154.883	-0.448	0.038
-410.355	-80.285	-0.138	-0.060
-409.340	-135.874	-0.284	-0.043
-408.325	146.416	0.379	0.662
-407.311	-200.000	0.011	0.306
-406.296	-200.000	-0.003	0.225
-405.282	18.763	0.109	0.114
-404.267	6.840	-0.031	-0.030
-403.252	472.795	-0.046	0.136
-402.238	-144.783	-0.237	0.028
-401.223	-163.228	0.416	0.026
-400.209	-83.351	0.422	0.175
-399.194	289.873	0.196	0.464
-398.179	-200.000	-0.005	-0.203
-397.165	339.532	0.229	0.581
-396.150	-153.068	-0.314	0.028
-395.136	-98.255	0.191	0.063
-394.121	417.765	0.113	0.315
-393.106	-167.546	0.489	0.025
-392.092	144.772	-0.341	0.594
-391.077	-64.799	0.392	0.205
-390.063	-182.871	0.256	0.006
-389.048	-30.276	0.140	-0.103
-388.033	800.000	-0.125	-0.487
-387.019	-89.770	-0.309	-0.117
-386.004	-0.188	-0.195	0.180
-384.990	-171.759	-0.386	0.016
-383.975	169.100	0.030	0.055
-382.960	-42.248	0.222	-0.147
-381.946	-104.085	0.136	0.041
-380.931	19.311	0.270	0.281
-379.917	62.585	0.127	-0.165
-378.902	34.136	0.122	-0.138
-377.888	-116.768	0.394	0.093
-376.873	-200.000	-0.001	0.219
-375.858	609.960	-0.043	-0.142
-374.844	-36.256	-0.391	0.273
-373.829	489.711	0.107	0.319
-372.815	800.000	-0.049	0.256
-371.800	569.809	-0.142	-0.450
-370.785	213.238	-0.092	0.190
-369.771	-87.446	-0.153	0.060
-368.756	-106.422	0.155	0.044
-367.742	-200.000	0.032	0.186
-366.727	-18.859	-0.540	-0.435
-365.712	-154.707	-0.172	0.015
-364.698	686.655	0.022	0.074
-363.683	-83.971	0.179	-0.073
-362.669	-144.633	0.388	0.046
-361.654	188.092	0.168	0.326
-360.639	-13.358	0.252	-0.212
-359.625	325.337	0.109	0.271
-358.610	495.507	-0.211	0.632
-357.596	259.712	-0.104	-0.233
-356.581	-200.000	0.001	0.177
-355.566	-95.944	-0.486	0.167
-354.552	-133.874	-0.086	0.014
-353.537	343.612	-0.134	0.341
-352.523	444.733	0.052	0.148
-351.508	-178.904	0.340	-0.010
-350.493	60.165	-0.030	-0.039
-349.479	40.395	-0.507	0.592
-348.464	64.022	0.153	0.199
-347.450	-85.007	0.356	0.144
-346.435	-14.699	-0.179	0.149
-345.420	-85.591	0.522	-0.209
-344.406	160.939	0.092	0.168
-343.391	800.000	0.158	0.643
-342.377	418.044	-0.227	-0.631
-341.362	-200.000	-0.008	-0.428
-340.348	51.189	0.278	0.342
-339.333	46.756	-0.154	-0.186
-338.318	-127.144	0.215	-0.040
-337.304	-42.669	-0.204	0.134
-336.289	800.000	0.084	0.419
-335.275	768.957	-0.088	-0.311
-334.260	-200.000	-0.005	0.313
-333.245	59.480	-0.110	0.141
-332.231	-200.000	-0.026	0.199
-331.216	553.833	-0.131	0.409
-330.202	-48.862	-0.230	-0.142
-329.187	-144.401	0.885	0.105
-328.172	-31.819	0.335	-0.242
-327.158	-200.000	-0.032	-0.228
-326.143	-36.948	0.163	-0.113
-325.129	28.952	0.065	0.071
-324.114	42.618	0.384	0.452
-323.099	-114.795	0.280	0.069
-322.085	71.774	0.174	-0.235
-321.070	317.264	0.154	-0.379
-320.056	30.826	-0.211	0.233
-319.041	-149.129	0.145	-0.015
-318.026	-108.024	-0.190	0.053
-317.012	42.224	-0.258	-0.304
-315.997	-200.000	0.013	0.342
-314.983	-24.479	-0.106	0.081
-313.968	800.000	0.027	0.153
-312.953	660.457	0.028	-0.094
-311.939	-87.594	0.371	-0.144
-310.924	-172.017	-0.465	-0.019
-309.910	340.398	0.227	-0.576
-308.895	-127.418	-0.198	0.037
-307.880	-40.749	0.101	-0.067
-306.866	-123.190	-0.213	0.044
-305.851	-180.477	-0.243	-0.006
-304.837	33.713	0.180	0.202
-303.822	349.170	0.236	0.605
-302.807	-35.212	-0.189	0.133
-301.793	204.263	-0.104	-0.209
-300.778	-200.000	-0.001	-0.404
-299.764	-93.413	-0.143	0.051
-298.749	-85.693	-0.352	-0.140
-297.735	-10.597	0.238	0.204
-296.720	-200.000	-0.037	0.294
-295.705	-137.613	0.325	0.047
-294.691	-200.000	0.022	0.220
-293.676	-200.000	0.032	0.426
-292.662	-41.459	0.344	0.229
-291.647	-157.786	-0.264	0.020
-290.632	-200.000	0.022	-0.312
-289.618	-200.000	-0.041	-0.267
-288.603	800.000	-0.059	-0.222
-287.589	-200.000	0.020	0.138
-286.574	-200.000	0.004	0.093
-285.559	102.045	0.070	0.106
-284.545	-200.000	0.020	-0.381
-283.530	-134.323	-0.161	0.025
-282.516	-200.000	0.019	-0.117
-281.501	404.799	-0.037	-0.101
-280.486	-10.622	-0.356	-0.304
-279.472	668.965	-0.015	0.052
-278.457	-77.820	-0.200	-0.089
-277.443	145.352	0.040	0.070
-276.428	-148.948	-0.188	0.019
-275.413	-177.111	-0.380	0.012
-274.399	-28.756	0.377	0.280
-273.384	-24.214	0.268	0.206
-272.370	210.080	-0.168	-0.342
-271.355	-200.000	0.006	-0.285
-270.340	-3.051	0.437	-0.394
-269.326	-187.506	-0.311	-0.005
-268.311	-155.906	0.387	0.031
-267.297	-77.719	-0.081	0.036
-266.282	-33.980	0.214	0.152
-265.267	-5.767	0.204	-0.180
-264.253	-103.593	0.197	-0.059
-263.238	-100.549	-0.537	-0.170
-262.224	-140.457	-0.382	0.051
-261.209	-187.621	-0.126	-0.002
-260.195	-99.414	0.338	0.109
-259.180	6.165	-0.458	-0.438
-258.165	-125.157	0.200	0.039
-257.151	-48.635	0.210	0.130
-256.136	-113.306	0.418	0.105
-255.122	226.027	-0.240	-0.503
-254.107	115.549	-0.207	-0.327
-253.092	-125.212	-0.464	0.091
-252.078	-189.787	0.155	0.002
-251.063	30.824	-0.287	0.317
-250.049	-123.458	-0.283	0.058
-249.034	-62.531	0.387	0.207
-248.019	-92.736	0.228	0.082
-247.005	-109.401	-0.253	0.069
-245.990	-16.249	-0.324	0.265
-244.976	96.708	0.191	-0.283
-243.961	-66.146	-0.376	0.193
-242.946	-100.367	-0.807	-0.256
-241.932	-135.153	0.475	-0.073
-240.917	570.609	-0.207	-0.654
-239.903	-23.493	-0.427	-0.330
-238.888	-43.168	0.226	0.147
-237.873	-11.265	-0.161	0.137
-236.859	-83.871	-0.073	0.030
-235.844	208.389	-0.035	-0.070
-234.830	8.865	0.065	0.064
-233.815	124.172	0.067	0.109
-232.800	80.602	-0.182	-0.254
-231.786	-57.386	0.443	-0.250
-230.771	51.014	-0.210	-0.256
-229.757	-200.000	-0.055	0.430
-228.742	-99.401	0.338	0.109
-227.727	-93.351	0.280	-0.100
-226.713	-79.707	-0.210	0.091
-225.698	-20.369	0.173	0.137
-224.684	-187.969	-0.109	-0.002
-223.669	800.000	0.057	-0.277
-222.655	-94.319	-0.195	-0.068
-221.640	-188.659	0.217	-0.003
-220.625	-200.000	0.006	0.107
-219.611	-36.796	-0.536	0.370
-218.596	98.535	0.245	0.365
-217.582	248.079	-0.273	0.598
-216.567	-20.867	-0.220	0.174
-215.552	-200.000	-0.033	-0.360
-214.538	-200.000	-0.012	-0.258
-213.523	404.787	-0.031	0.084
-212.509	-43.039	0.268	-0.175
-211.494	329.562	-0.157	0.391
-210.479	-200.000	0.037	-0.713
-209.465	-195.534	0.384	-0.004
-208.450	-29.972	0.138	0.101
-207.436	-153.754	0.452	-0.039
-206.421	-200.000	-0.004	0.111
-205.406	122.908	-0.071	-0.114
-204.392	-11.175	-0.441	0.374
-203.377	11.161	-0.069	0.068
-202.363	-137.410	0.471	0.068
-201.348	366.263	0.045	0.119
-200.333	-161.288	-0.157	-0.010
-199.319	-118.076	0.153	-0.035
-198.304	-44.108	-0.387	-0.249
-197.290	-200.000	-0.050	-0.346
-196.275	-3.245	-0.528	-0.474
-195.260	-200.000	-0.104	0.656
-194.246	1.186	0.189	-0.174
-193.231	617.801	-0.200	0.651
-192.217	-70.193	-0.149	-0.073
-191.202	-16.230	0.208	0.170
-190.187	-141.472	0.475	0.061
-189.173	800.000	-0.037	0.177
-188.158	800.000	-0.123	0.546
-187.144	502.251	0.113	-0.336
-186.129	-200.000	-0.007	-0.073
-185.114	242.797	0.075	0.162
-184.100	-79.521	0.232	-0.100
-183.085	-89.249	-0.227	0.086
-182.071	145.234	-0.059	0.101
-181.056	-93.099	0.355	0.126
-180.042	-46.432	-0.373	0.235
-179.027	800.000	0.027	0.104
-178.012	710.789	0.018	-0.061
-176.998	-1.040	0.136	-0.123
-175.983	81.465	0.099	0.138
-174.969	456.093	0.177	0.509
-173.954	575.319	0.073	0.231
-172.939	431.114	0.048	-0.134
-171.925	800.000	-0.014	0.078
-170.910	46.446	0.316	0.378
-169.896	203.191	-0.242	0.483
-168.881	39.171	0.129	0.148
-167.866	584.500	0.083	0.263
-166.852	-119.764	-0.411	-0.091
-165.837	-84.731	-0.229	-0.092
-164.823	-200.000	0.011	-0.271
-163.808	-200.000	-0.013	-0.118
-162.793	-200.000	-0.030	0.224
-161.779	-200.000	-0.006	-0.111
-160.764	-67.210	-0.500	0.252
-159.750	-53.387	0.088	0.052
-158.735	-16.580	0.444	-0.361
-157.720	2.829	-0.294	-0.275
-156.706	37.162	0.124	-0.141
-155.691	-82.337	0.541	-0.225
-154.677	-141.951	0.141	0.018
-153.662	353.180	-0.127	0.326
-152.647	100.596	-0.123	-0.183
-151.633	47.508	-0.165	0.198
-150.618	-23.776	0.178	0.137
-149.604	-123.647	0.079	-0.016
-148.589	-94.844	-0.176	-0.061
-147.574	-110.775	-0.683	-0.180
-146.560	-200.000	0.044	-0.270
-145.545	34.697	-0.123	-0.138
-144.531	101.760	0.151	-0.227
-143.516	-21.942	0.286	-0.223
-142.502	409.619	0.066	-0.180
-141.487	-68.430	-0.385	0.191
-140.472	800.000	-0.030	-0.114
-139.458	486.942	-0.110	-0.325
-138.443	70.756	-0.106	0.141
-137.429	-64.174	-0.747	0.390
-136.414	681.641	0.048	0.163
-135.399	6.325	-0.411	0.391
-134.385	-25.652	-0.171	-0.130
-133.370	800.000	0.023	-0.092
-132.356	-24.895	0.237	-0.180
-131.341	-33.325	-0.195	0.138
-130.326	-199.646	-0.090	-0.001
-129.312	-73.545	0.426	-0.199
-128.297	-73.268	0.384	0.180
-127.283	67.583	0.297	0.390
-126.268	5.522	-0.507	-0.481
-125.253	394.828	0.151	-0.405
-124.239	48.159	-0.301	0.362
-123.224	-48.385	0.063	0.039
-122.210	39.625	0.006	-0.007
-121.195	-200.000	-0.037	-0.222
