DTS Sentinel unit serial number:	SN409020Multiplexer serial number:	ORYXHardware model number:	OX4-SRSoftware version number:	ORYX F/W v3.00 Oryx Data Collector v3.7.2.0data status	okinstallation	HaddamTimeLapsedifferential loss correction	single-endedforward channel	channel 3reverse channel	N/Adate	2011/06/21time	21:26:17forward acquisition time	30.00reverse acquisition time	0.00gamma	498.7831k internal	0.1763k external	0.1763temperature offset calibration	1.0074default loss term (dB/km)	0.3790temperature slope calibration	1.3530multiplexer offset coefficient	1.0000multiplexer slope coefficient	1.0000fibre end	0.00T internal ref (°C)	26.44T ext. ref 1 (°C)	19.73T ext. ref 2 (°C)	0.04length (m)	temperature (°C)	Stokes	anti-Stokes-747.200	548.451	-0.138	-0.439
-746.185	44.991	0.200	0.244
-745.171	-108.332	0.551	-0.156
-744.156	577.434	-0.149	0.483
-743.142	284.209	-0.070	0.167
-742.127	-125.487	0.099	0.020
-741.112	264.745	-0.054	-0.125
-740.098	163.423	0.082	-0.153
-739.083	-200.000	0.048	0.299
-738.069	-19.995	0.190	0.155
-737.054	281.971	-0.037	0.087
-736.039	447.923	-0.088	0.257
-735.025	-50.470	0.250	0.155
-734.010	-69.290	0.150	-0.076
-732.996	-17.998	-0.138	0.114
-731.981	-139.270	-0.654	0.092
-730.966	-36.749	-0.126	-0.089
-729.952	11.257	0.198	0.200
-728.937	-50.021	0.418	-0.260
-727.923	-150.395	0.141	0.014
-726.908	-200.000	0.020	0.473
-725.894	197.326	0.047	-0.095
-724.879	-100.963	-0.289	-0.093
-723.864	7.948	-0.392	0.387
-722.850	127.522	0.148	-0.249
-721.835	109.767	0.260	-0.412
-720.821	-40.647	-0.198	-0.135
-719.806	178.598	0.246	-0.475
-718.791	-27.665	-0.407	0.311
-717.777	798.011	-0.025	-0.093
-716.762	59.428	-0.217	0.282
-715.748	-118.875	0.322	0.074
-714.733	271.650	0.117	0.272
-713.718	-162.688	-0.894	0.057
-712.704	72.760	-0.086	-0.119
-711.689	-32.112	0.271	-0.199
-710.675	-73.048	0.150	-0.072
-709.660	-99.072	-0.371	0.123
-708.645	-75.952	-0.102	-0.047
-707.631	-99.897	-0.195	0.064
-706.616	704.080	-0.053	0.185
-705.602	-200.000	-0.030	0.429
-704.587	-19.101	-0.182	0.149
-703.572	134.800	0.049	-0.085
-702.558	0.957	0.039	-0.037
-701.543	-55.930	-0.429	-0.251
-700.529	-60.532	0.346	-0.193
-699.514	-200.000	-0.012	0.295
-698.499	-7.993	-0.451	-0.401
-697.485	-24.193	0.147	0.116
-696.470	800.000	-0.146	0.558
-695.456	493.609	0.046	-0.140
-694.441	-130.856	-1.006	-0.176
-693.426	141.661	0.173	-0.303
-692.412	-144.561	0.282	0.034
-691.397	-37.642	0.071	0.050
-690.383	658.959	0.058	-0.197
-689.368	-101.236	0.494	-0.158
-688.354	26.512	-0.101	0.112
-687.339	3.918	0.185	0.178
-686.324	285.890	0.235	0.559
-685.310	39.633	-0.178	0.210
-684.295	-32.485	0.445	0.326
-683.281	-10.430	-0.569	0.496
-682.266	297.406	-0.210	0.510
-681.251	-12.359	0.138	-0.118
-680.237	-200.000	-0.031	-0.341
-679.222	128.382	-0.178	-0.298
-678.208	214.118	-0.010	0.022
-677.193	-95.983	-0.265	0.092
-676.178	800.000	-0.107	-0.438
-675.164	-121.781	-0.390	0.084
-674.149	93.614	-0.066	0.099
-673.135	19.223	-0.309	-0.327
-672.120	81.226	0.064	-0.092
-671.105	-125.323	0.339	-0.068
-670.091	565.389	-0.119	0.381
-669.076	-11.057	0.032	0.028
-668.062	30.300	0.099	-0.112
-667.047	-200.000	0.037	0.278
-666.032	565.670	-0.026	-0.082
-665.018	-76.289	0.140	-0.064
-664.003	-132.124	-0.876	0.148
-662.989	-175.304	0.534	-0.019
-661.974	299.033	0.164	-0.399
-660.959	114.947	0.066	-0.106
-659.945	-200.000	0.027	-0.233
-658.930	800.000	0.079	0.328
-657.916	-49.607	-0.518	-0.323
-656.901	156.615	0.066	-0.120
-655.886	-123.580	0.085	0.017
-654.872	-200.000	0.030	0.226
-653.857	362.616	0.098	0.260
-652.843	193.815	0.087	-0.174
-651.828	388.562	-0.057	-0.155
-650.814	-66.120	0.217	0.113
-649.799	-63.703	0.253	-0.136
-648.784	-75.757	-0.646	-0.300
-647.770	-118.115	0.411	0.096
-646.755	679.398	0.062	0.213
-645.741	-107.319	-0.677	0.194
-644.726	-139.832	-0.141	-0.019
-643.711	-50.809	0.390	-0.241
-642.697	-15.325	-0.292	-0.245
-641.682	-150.256	-0.288	0.029
-640.668	42.269	0.259	0.309
-639.653	-143.855	0.279	-0.034
-638.638	-200.000	0.065	0.627
-637.624	-74.592	0.263	0.124
-636.609	-41.150	0.324	-0.219
-635.595	144.919	0.240	-0.423
-634.580	-200.000	-0.058	-0.405
-633.565	-108.999	-0.363	0.101
-632.551	-62.285	0.686	-0.374
-631.536	313.737	-0.200	-0.497
-630.522	379.193	-0.149	0.402
-629.507	-41.244	0.398	0.269
-628.492	-92.182	0.173	-0.064
-627.478	-200.000	0.031	-0.341
-626.463	-200.000	-0.021	0.336
-625.449	27.704	0.358	-0.396
-624.434	-77.555	0.177	0.080
-623.419	-156.667	0.241	0.019
-622.405	127.380	0.259	0.433
-621.390	-180.740	0.798	0.021
-620.376	-10.482	0.044	-0.038
-619.361	541.469	-0.102	-0.321
-618.346	-200.000	-0.054	0.319
-617.332	-200.000	0.050	0.418
-616.317	168.623	-0.127	0.238
-615.303	129.557	0.027	-0.046
-614.288	108.203	-0.057	-0.089
-613.273	-200.000	-0.005	0.345
-612.259	-200.000	0.021	0.309
-611.244	-26.819	-0.546	-0.418
-610.230	800.000	-0.044	0.207
-609.215	187.083	-0.166	-0.326
-608.201	5.290	0.442	0.427
-607.186	289.251	-0.165	-0.395
-606.171	-34.801	-0.163	0.117
-605.157	-147.943	-0.163	-0.018
-604.142	-200.000	0.074	-0.607
-603.128	-200.000	-0.005	-0.218
-602.113	800.000	-0.053	0.213
-601.098	88.161	0.081	0.118
-600.084	29.759	0.400	-0.447
-599.069	201.037	-0.076	0.154
-598.055	706.597	0.214	0.744
-597.040	-200.000	0.019	0.151
-596.025	-15.706	0.207	-0.173
-595.011	800.000	0.013	-0.065
-593.996	-3.774	0.249	-0.226
-592.982	-51.552	0.363	-0.221
-591.967	-124.948	0.263	0.053
-590.952	-35.381	0.142	0.101
-589.938	-14.523	-0.286	0.241
-588.923	-51.873	0.237	-0.144
-587.909	-165.888	-0.111	-0.006
-586.894	800.000	-0.036	0.131
-585.879	22.857	0.054	-0.058
-584.865	232.136	0.050	0.109
-583.850	-161.032	-0.095	-0.006
-582.836	-122.502	-0.200	0.042
-581.821	-126.883	-0.212	0.041
-580.806	353.508	-0.126	0.329
-579.792	-113.388	-0.441	0.113
-578.777	19.586	-0.074	0.078
-577.763	128.207	-0.277	-0.462
-576.748	-200.000	0.060	-0.548
-575.733	47.611	0.221	-0.271
-574.719	-18.526	0.206	0.168
-573.704	109.428	0.243	0.382
-572.690	26.565	0.211	0.232
-571.675	348.178	-0.065	-0.169
-570.661	800.000	-0.070	-0.271
-569.646	-155.543	-0.116	0.010
-568.631	-200.000	-0.043	0.481
-567.617	-200.000	0.037	0.328
-566.602	-200.000	0.080	0.508
-565.588	-58.355	-0.288	0.164
-564.573	-200.000	0.004	-0.109
-563.558	-41.107	0.205	0.138
-562.544	-113.155	-0.549	0.141
-561.529	-9.689	-0.232	0.202
-560.515	800.000	0.024	0.137
-559.500	-115.026	0.385	-0.095
-558.485	688.875	0.036	0.123
-557.471	137.524	0.142	0.243
-556.456	39.511	0.280	-0.329
-555.442	-200.000	0.023	0.544
-554.427	90.023	-0.284	0.416
-553.412	-200.000	-0.019	-0.188
-552.398	-76.944	-0.250	0.114
-551.383	25.440	-0.686	0.747
-550.369	800.000	-0.123	-0.460
-549.354	34.048	0.176	0.201
-548.339	-200.000	0.256	0.000
-547.325	-55.981	-0.110	-0.064
-546.310	61.754	0.150	-0.196
-545.296	58.174	-0.170	0.219
-544.281	-55.641	0.128	-0.075
-543.266	482.981	-0.216	0.645
-542.252	-200.000	-0.027	-0.375
-541.237	-200.000	0.009	0.165
-540.223	64.625	0.164	0.217
-539.208	-37.299	-0.125	0.087
-538.193	-2.325	-0.358	-0.328
-537.179	800.000	-0.017	-0.083
-536.164	-49.928	0.158	-0.098
-535.150	-61.967	-0.149	-0.081
-534.135	800.000	0.018	0.070
-533.121	45.156	0.084	-0.101
-532.106	-200.000	0.032	-0.298
-531.091	-16.826	-0.379	0.313
-530.077	10.378	-0.288	0.286
-529.062	-64.590	0.067	-0.035
-528.048	606.887	0.046	-0.152
-527.033	-159.177	0.293	-0.021
-526.018	158.602	-0.252	-0.459
-525.004	800.000	0.062	-0.267
-523.989	-58.928	0.212	0.119
-522.975	740.325	-0.066	-0.233
-521.960	-80.584	-0.456	0.198
-520.945	-137.362	0.285	-0.042
-519.931	-55.878	0.302	-0.176
-518.916	800.000	-0.104	-0.564
-517.902	112.245	-0.149	-0.235
-516.887	-32.710	0.191	0.138
-515.872	-38.965	-0.258	0.177
-514.858	397.435	0.049	-0.135
-513.843	-19.593	-0.407	-0.329
-512.829	-131.878	-0.252	0.043
-511.814	258.013	-0.139	0.314
-510.799	-116.226	-0.128	-0.031
-509.785	214.222	0.063	-0.131
-508.770	204.936	-0.110	0.224
-507.756	800.000	-0.024	0.089
-506.741	-132.523	-0.206	0.034
-505.726	-180.169	0.190	0.005
-504.712	254.178	-0.258	0.578
-503.697	-200.000	-0.183	-0.001
-502.683	17.094	0.263	-0.272
-501.668	-72.415	0.574	-0.277
-500.653	-22.353	-0.202	0.160
-499.639	-155.045	-0.451	-0.038
-498.624	26.276	-0.353	0.385
-497.610	800.000	0.034	-0.181
-496.595	-78.249	-0.456	-0.204
-495.581	462.434	0.123	0.361
-494.566	800.000	0.079	0.313
-493.551	-15.544	0.319	0.266
-492.537	-82.878	-0.591	0.248
-491.522	342.850	0.103	-0.264
-490.508	56.225	0.147	0.187
-489.493	139.132	0.102	0.176
-488.478	-107.523	-0.127	-0.036
-487.464	-20.840	0.358	0.286
-486.449	97.812	-0.113	0.170
-485.435	-56.685	-0.248	0.143
-484.420	-150.322	0.139	0.014
-483.405	-49.263	0.282	-0.175
-482.391	509.902	-0.138	-0.421
-481.376	-63.629	-0.150	0.080
-480.362	-39.763	0.567	-0.386
-479.347	27.302	0.441	0.483
-478.332	384.089	-0.123	-0.331
-477.318	619.572	-0.073	-0.241
-476.303	258.816	-0.164	0.371
-475.289	12.687	0.256	0.258
-474.274	800.000	-0.054	-0.216
-473.259	800.000	0.076	-0.358
-472.245	65.384	-0.131	0.174
-471.230	-105.816	0.067	0.020
-470.216	800.000	-0.136	0.593
-469.201	-143.119	-0.362	-0.045
-468.186	-200.000	0.007	-0.051
-467.172	-200.000	-0.020	0.405
-466.157	-200.000	-0.000	0.332
-465.143	485.103	-0.196	-0.587
-464.128	222.886	0.066	0.138
-463.113	-110.136	0.189	-0.051
-462.099	-60.518	-0.602	-0.332
-461.084	-40.290	0.325	0.220
-460.070	6.631	-0.152	-0.147
-459.055	-78.300	-0.487	-0.217
-458.040	800.000	0.112	-0.491
-457.026	783.357	0.130	-0.468
-456.011	98.988	0.050	0.075
-454.997	223.390	-0.087	0.183
-453.982	-200.000	-0.060	-0.377
-452.968	-200.000	0.104	-0.741
-451.953	-61.573	0.262	0.143
-450.938	-48.988	-0.068	-0.042
-449.924	250.622	0.166	-0.370
-448.909	54.465	-0.265	-0.334
-447.895	48.711	-0.181	0.221
-446.880	79.736	-0.175	0.245
-445.865	-200.000	-0.056	0.443
-444.851	75.789	-0.153	-0.211
-443.836	-84.701	0.422	0.173
-442.822	-45.252	-0.087	0.056
-441.807	-182.473	0.313	0.007
-440.792	-200.000	0.001	0.358
-439.778	-160.483	-0.930	0.064
-438.763	-6.283	0.277	0.246
-437.749	-37.207	0.126	-0.088
-436.734	-162.161	-0.141	0.009
-435.719	-200.000	0.025	-0.504
-434.705	-35.021	-0.205	0.145
-433.690	121.323	0.182	0.295
-432.676	-159.551	0.499	0.036
-431.661	34.058	0.177	0.201
-430.646	-156.931	-0.620	-0.049
-429.632	-140.811	-0.877	0.117
-428.617	-160.792	0.159	-0.011
-427.603	57.559	0.153	-0.194
-426.588	-87.347	0.352	-0.138
-425.573	125.285	-0.217	0.357
-424.559	-9.798	-0.245	0.212
-423.544	37.818	-0.117	-0.135
-422.530	15.433	0.322	0.329
-421.515	-97.114	0.452	-0.153
-420.500	241.667	-0.200	0.437
-419.486	-200.000	0.064	0.377
-418.471	73.450	0.248	0.339
-417.457	800.000	0.036	0.185
-416.442	-132.769	0.422	0.070
-415.428	10.322	0.266	-0.263
-414.413	45.922	-0.214	0.258
-413.398	-115.179	0.511	-0.125
-412.384	44.766	-0.055	-0.067
-411.369	-200.000	-0.037	-0.338
-410.355	-200.000	-0.011	-0.289
-409.340	800.000	-0.014	-0.073
-408.325	24.906	0.274	-0.296
-407.311	-115.644	-0.231	0.056
-406.296	-112.613	0.225	0.058
-405.282	97.922	-0.062	-0.093
-404.267	-106.114	-0.383	0.111
-403.252	-85.705	-0.467	0.188
-402.238	15.855	0.143	0.146
-401.223	361.831	0.117	-0.307
-400.209	67.519	-0.193	0.256
-399.194	188.992	0.169	0.331
-398.179	800.000	-0.094	0.346
-397.165	19.031	-0.378	0.394
-396.150	63.940	0.223	0.292
-395.136	284.663	0.201	0.473
-394.121	-51.677	-0.401	-0.242
-393.106	-200.000	-0.016	0.327
-392.092	-3.927	-0.208	-0.188
-391.077	-173.379	-0.201	-0.008
-390.063	-107.028	-0.209	0.060
-389.048	68.169	-0.077	-0.102
-388.033	-109.416	0.289	0.079
-387.019	-200.000	0.012	-0.198
-386.004	-106.671	0.166	-0.048
-384.990	-75.966	0.403	-0.185
-383.975	11.844	0.482	0.481
-382.960	-95.129	-0.118	-0.041
-381.946	-47.576	0.287	-0.181
-380.931	-93.900	0.317	0.113
-379.917	-200.000	-0.003	0.302
-378.902	-85.280	0.437	0.177
-377.888	-200.000	-0.008	-0.137
-376.873	104.855	-0.308	-0.472
-375.858	56.338	0.234	0.297
-374.844	-200.000	-0.022	0.283
-373.829	-112.246	-0.231	-0.060
-372.815	-66.727	0.169	0.087
-371.800	80.468	0.076	-0.107
-370.785	-200.000	-0.060	-0.552
-369.771	-46.112	0.096	-0.062
-368.756	-200.000	-0.008	-0.493
-367.742	-113.468	0.393	-0.099
-366.727	30.183	0.304	0.338
-365.712	240.814	0.148	-0.323
-364.698	-21.988	-0.399	0.315
-363.683	-141.508	-0.101	-0.013
-362.669	259.397	0.196	0.440
-361.654	-200.000	-0.055	0.560
-360.639	258.957	-0.049	0.109
-359.625	-200.000	0.006	1.066
-358.610	57.018	0.366	0.464
-357.596	-180.670	-0.361	0.009
-356.581	800.000	0.111	-0.516
-355.566	784.274	-0.167	-0.597
-354.552	130.367	-0.355	-0.592
-353.537	800.000	-0.095	-0.518
-352.523	-75.487	-0.193	-0.089
-351.508	197.001	-0.132	-0.262
-350.493	-4.405	-0.323	-0.290
-349.479	-93.373	-0.404	0.145
-348.464	207.279	-0.123	0.250
-347.450	203.480	0.257	-0.519
-346.435	-175.632	-0.123	0.004
-345.420	463.984	0.077	0.226
-344.406	15.545	0.142	-0.144
-343.391	7.718	-0.322	0.313
-342.377	-84.935	0.353	-0.143
-341.362	216.668	0.201	-0.416
-340.348	-61.673	-0.109	0.059
-339.333	312.822	-0.219	0.537
-338.318	47.764	-0.185	-0.224
-337.304	-140.896	-0.324	0.043
-336.289	151.398	0.113	-0.201
-335.275	-22.395	-0.339	0.266
-334.260	-200.000	-0.017	-0.292
-333.245	-97.201	0.277	0.093
-332.231	-131.976	-0.357	0.060
-331.216	800.000	-0.076	0.388
-330.202	111.768	-0.189	-0.297
-329.187	-39.262	0.192	-0.131
-328.172	-200.000	-0.007	-0.093
-327.158	-3.256	-0.335	0.303
-326.143	-149.912	-0.564	-0.057
-325.129	60.924	-0.128	0.165
-324.114	-65.878	0.428	0.221
-323.099	-97.674	-0.446	0.149
-322.085	-138.826	-0.342	-0.048
-321.070	-24.611	-0.484	0.373
-320.056	-200.000	0.040	0.518
-319.041	93.414	0.111	-0.163
-318.026	-10.216	-0.210	-0.180
-317.012	35.629	-0.156	0.177
-315.997	-118.669	0.478	0.109
-314.983	-5.948	0.096	0.085
-313.968	-87.826	0.284	-0.111
-312.953	-66.446	0.113	-0.058
-311.939	-200.000	-0.010	-0.340
-310.924	67.008	-0.096	-0.127
-309.910	-144.692	0.901	0.106
-308.895	-194.116	0.629	-0.007
-307.880	-15.034	0.147	-0.122
-306.866	377.235	0.075	0.200
-305.851	800.000	0.146	-0.697
-304.837	-102.102	-0.643	0.200
-303.822	113.603	-0.266	-0.419
-302.807	800.000	-0.055	-0.214
-301.793	117.005	0.112	-0.179
-300.778	8.155	0.141	0.137
-299.764	-146.011	0.345	-0.039
-298.749	-14.884	0.308	-0.256
-297.735	-84.857	0.126	-0.051
-296.720	-101.407	0.371	-0.116
-295.705	-200.000	0.038	-0.291
-294.691	1.973	-0.065	0.060
-293.676	248.588	-0.163	0.360
-292.662	-83.228	0.140	0.058
-291.647	-46.657	0.258	0.164
-290.632	210.862	-0.210	-0.429
-289.618	78.029	0.146	0.202
-288.603	73.826	0.250	0.340
-287.589	-15.350	-0.344	-0.285
-286.574	-20.507	0.297	0.236
-285.559	-135.456	0.202	0.031
-284.545	-133.074	0.137	-0.022
-283.530	294.367	0.153	-0.364
-282.516	334.936	0.093	-0.235
-281.501	-200.000	-0.047	-0.398
-280.486	-60.368	0.177	-0.097
-279.472	-200.000	-0.022	-0.193
-278.457	-200.000	-0.047	-0.295
-277.443	131.877	0.233	-0.389
-276.428	115.020	0.323	-0.512
-275.413	45.780	0.324	0.389
-274.399	64.090	-0.262	0.342
-273.384	-48.723	0.301	0.187
-272.370	-200.000	-0.049	-0.348
-271.355	6.469	-0.313	-0.301
-270.340	12.674	0.190	-0.190
-269.326	-53.289	-0.285	-0.169
-268.311	-200.000	0.024	0.142
-267.297	-174.380	0.428	-0.016
-266.282	-145.858	0.137	-0.016
-265.267	213.388	0.198	0.407
-264.253	-82.833	0.181	-0.075
-263.238	200.734	0.110	-0.220
-262.224	-200.000	0.023	-0.190
-261.209	161.310	0.090	0.164
-260.195	-76.406	-0.303	0.137
-259.180	41.610	-0.260	0.305
-258.165	-44.319	0.106	-0.069
-257.151	-128.709	0.475	0.086
-256.136	31.628	-0.170	0.190
-255.122	32.738	0.144	0.161
-254.107	251.331	-0.138	0.304
-253.092	-102.314	-0.258	-0.080
-252.078	800.000	0.037	-0.156
-251.063	306.833	0.044	0.106
-250.049	52.119	-0.191	-0.235
-249.034	358.082	-0.175	-0.454
-248.019	-146.642	0.329	-0.037
-247.005	-41.672	-0.379	-0.251
-245.990	-70.991	-0.453	-0.220
-244.976	-57.781	0.516	-0.291
-243.961	510.076	-0.089	-0.269
-242.946	-200.000	-0.016	-0.184
-241.932	-51.598	0.240	0.145
-240.917	-105.578	-0.353	-0.103
-239.903	-81.037	-0.280	-0.120
-238.888	-200.000	0.008	-0.546
-237.873	-113.852	-0.217	0.054
-236.859	7.301	0.206	0.199
-235.844	-127.366	-0.355	-0.066
-234.830	-105.795	-0.491	0.143
-233.815	83.731	0.172	-0.243
-232.800	65.834	0.080	0.105
-231.786	-95.480	0.367	-0.127
-230.771	148.957	-0.122	-0.214
-229.757	-118.782	0.119	-0.027
-228.742	800.000	0.049	-0.196
-227.727	-34.619	0.480	-0.339
-226.713	88.356	0.039	0.056
-225.698	-200.000	-0.079	-0.695
-224.684	430.074	0.163	-0.458
-223.669	-99.198	-0.310	0.101
-222.655	-151.390	0.216	0.021
-221.640	5.853	0.223	-0.213
-220.625	-200.000	-0.004	0.078
-219.611	-111.700	0.072	0.019
-218.596	-107.799	-0.327	0.091
-217.582	-65.570	-0.486	0.251
-216.567	-200.000	-0.007	-0.229
-215.552	-200.000	0.008	-0.065
-214.538	800.000	0.038	0.148
-213.523	800.000	-0.078	-0.297
-212.509	98.839	0.175	0.262
-211.494	-145.893	0.427	-0.048
-210.479	-68.312	0.171	-0.085
-209.465	-58.461	0.396	0.221
-208.450	-200.000	0.008	0.131
-207.436	-200.000	0.033	0.360
-206.421	-6.889	0.051	0.045
-205.406	800.000	-0.045	-0.257
-204.392	34.575	-0.294	-0.332
-203.377	-25.537	-0.423	0.322
-202.363	248.780	0.151	0.331
-201.348	25.066	-0.106	0.114
-200.333	149.855	-0.108	-0.190
-199.319	-129.921	0.267	-0.047
-198.304	15.668	-0.228	0.231
-197.290	414.181	0.091	-0.253
-196.275	-192.667	0.564	0.007
-195.260	75.397	0.226	0.308
-194.246	-75.394	-0.291	-0.133
-193.231	-117.957	0.256	-0.059
-192.217	244.677	-0.056	0.122
-191.202	-102.298	-0.230	0.071
-190.187	-200.000	-0.054	-0.384
-189.173	-181.685	-0.140	-0.003
-188.158	-200.000	0.056	0.433
-187.144	-92.158	0.327	0.119
-186.129	764.762	-0.062	-0.218
-185.114	-101.332	-0.486	0.152
-184.100	281.263	-0.195	-0.451
-183.085	86.066	-0.162	-0.231
-182.071	-200.000	0.064	-0.538
-181.056	-117.651	-0.220	0.051
-180.042	-123.283	-0.437	-0.089
-179.027	800.000	0.052	0.227
-178.012	114.542	0.199	-0.314
-176.998	-47.341	-0.347	0.217
-175.983	146.950	0.306	0.533
-174.969	82.647	-0.047	-0.066
-173.954	98.271	0.291	0.434
-172.939	-200.000	-0.003	0.252
-171.925	-119.136	0.028	-0.006
-170.910	-0.435	0.079	-0.072
-169.896	-139.764	-0.304	0.041
-168.881	-127.401	0.560	-0.104
-167.866	221.981	-0.049	-0.101
-166.852	-7.587	-0.133	0.116
-165.837	-40.100	-0.229	0.153
-164.823	-106.418	-0.502	0.144
-163.808	-86.544	0.552	0.217
-162.793	-200.000	0.007	0.442
-161.779	-21.912	-0.246	0.193
-160.764	-200.000	-0.054	0.309
-159.750	-200.000	0.045	-0.277
-158.735	340.806	0.196	-0.495
-157.720	-104.832	0.283	-0.083
-156.706	-61.073	-0.560	0.304
-155.691	291.442	0.057	-0.133
-154.677	-68.648	-0.211	-0.105
-153.662	4.909	-0.302	-0.286
-152.647	-54.872	-0.277	-0.161
-151.633	223.467	0.033	-0.068
-150.618	97.349	-0.141	-0.209
-149.604	90.764	-0.230	-0.333
-148.589	166.861	-0.041	0.075
-147.574	-190.444	0.069	0.001
-146.560	82.447	0.113	-0.159
-145.545	800.000	-0.028	0.128
-144.531	-8.883	0.232	-0.200
-143.516	-22.029	0.347	-0.271
-142.502	59.183	-0.146	-0.185
-141.487	-75.211	0.191	-0.087
-140.472	-172.666	-0.053	-0.002
-139.458	-200.000	-0.036	-0.402
-138.443	-101.724	-0.123	-0.038
-137.429	-40.819	0.158	0.105
-136.414	-182.547	0.699	0.016
-135.399	-200.000	-0.393	-0.001
-134.385	4.473	-0.567	0.536
-133.370	-200.000	0.220	0.000
-132.356	-91.943	0.157	-0.057
-131.341	-16.375	0.102	0.083
-130.326	800.000	0.057	0.223
-129.312	631.111	-0.101	0.332
-128.297	-46.619	0.216	-0.136
-127.283	-77.055	0.212	-0.095
-126.268	180.505	-0.071	-0.134
-125.253	313.748	-0.163	-0.397
-124.239	800.000	-0.095	-0.363
-123.224	-11.399	0.253	0.215
-122.210	101.291	0.157	0.236
-121.195	105.484	-0.049	-0.074
