DTS Sentinel unit serial number:	SN409020Multiplexer serial number:	ORYXHardware model number:	OX4-SRSoftware version number:	ORYX F/W v3.00 Oryx Data Collector v3.7.2.0data status	okinstallation	HaddamTimeLapsedifferential loss correction	single-endedforward channel	channel 3reverse channel	N/Adate	2011/06/22time	00:01:17forward acquisition time	30.00reverse acquisition time	0.00gamma	498.7831k internal	0.1753k external	0.1753temperature offset calibration	1.0074default loss term (dB/km)	0.3790temperature slope calibration	1.3530multiplexer offset coefficient	1.0000multiplexer slope coefficient	1.0000fibre end	0.00T internal ref (°C)	22.91T ext. ref 1 (°C)	18.16T ext. ref 2 (°C)	0.05length (m)	temperature (°C)	Stokes	anti-Stokes-747.200	800.000	0.030	0.169
-746.185	-80.850	-0.194	-0.085
-745.171	-60.969	-0.646	-0.361
-744.156	51.107	-0.192	0.241
-743.142	14.173	-0.186	-0.192
-742.127	-82.860	-0.729	0.311
-741.112	-102.061	0.191	0.061
-740.098	-92.427	-0.474	0.176
-739.083	-98.756	-0.417	0.140
-738.069	133.400	-0.132	0.227
-737.054	100.584	0.178	0.275
-736.039	800.000	-0.176	-0.746
-735.025	-147.878	0.248	0.027
-734.010	-22.170	0.282	0.226
-732.996	376.571	0.103	0.281
-731.981	242.198	-0.186	-0.415
-730.966	132.717	-0.030	0.051
-729.952	-70.473	-0.177	-0.089
-728.937	-55.716	-0.196	-0.116
-727.923	86.219	0.387	-0.567
-726.908	210.940	-0.205	0.429
-725.894	162.381	0.061	0.113
-724.879	-45.517	-0.227	-0.149
-723.864	-200.000	-0.001	-0.393
-722.850	33.523	-0.063	-0.072
-721.835	-121.764	-0.548	-0.119
-720.821	-169.491	-0.344	0.016
-719.806	-90.269	0.343	-0.132
-718.791	-91.848	0.266	0.100
-717.777	-72.722	-0.416	-0.202
-716.762	-56.977	0.249	-0.145
-715.748	-77.205	0.194	-0.089
-714.733	-64.291	-0.445	0.239
-713.718	536.678	0.099	-0.314
-712.704	3.312	0.342	0.329
-711.689	70.255	0.224	0.307
-710.675	64.433	0.170	0.227
-709.660	514.913	0.055	-0.172
-708.645	381.948	-0.145	-0.395
-707.631	57.894	-0.376	-0.488
-706.616	-34.196	-0.089	0.064
-705.602	602.996	0.084	0.278
-704.587	-94.251	-0.339	-0.122
-703.572	-98.949	0.078	0.026
-702.558	113.396	0.118	0.190
-701.543	-112.681	-0.580	-0.152
-700.529	-200.000	-0.042	-0.549
-699.514	-64.633	0.297	-0.159
-698.499	-151.950	-0.308	0.029
-697.485	-104.401	0.361	-0.110
-696.470	-200.000	-0.043	-0.416
-695.456	-154.489	-0.280	-0.025
-694.441	-27.716	0.105	0.080
-693.426	467.526	0.086	0.256
-692.412	-112.072	0.241	0.064
-691.397	-43.256	-0.291	0.195
-690.383	-69.297	-0.252	-0.128
-689.368	-108.372	-0.687	-0.195
-688.354	-57.835	-0.154	-0.089
-687.339	-91.602	0.277	-0.104
-686.324	-144.868	-0.465	0.056
-685.310	-106.533	-0.195	-0.057
-684.295	442.182	0.061	-0.177
-683.281	-200.000	0.041	-0.421
-682.266	342.436	-0.127	0.331
-681.251	-200.000	0.011	-0.218
-680.237	-109.133	0.325	0.091
-679.222	68.433	0.172	0.234
-678.208	-87.158	0.268	0.107
-677.193	800.000	-0.065	0.288
-676.178	-176.894	-0.338	0.011
-675.164	-24.376	0.218	-0.172
-674.149	136.296	0.209	0.361
-673.135	-71.042	0.269	0.133
-672.120	-200.000	-0.022	0.391
-671.105	-46.582	-0.139	-0.090
-670.091	743.220	0.188	0.672
-669.076	-200.000	0.000	0.079
-668.062	-200.000	0.048	-0.445
-667.047	80.687	0.380	-0.542
-666.032	-47.893	0.404	0.258
-665.018	4.635	-0.124	0.121
-664.003	36.969	-0.046	0.054
-662.989	-63.064	-0.146	-0.080
-661.974	-65.034	-0.106	-0.057
-660.959	800.000	-0.107	0.393
-659.945	-86.942	0.248	0.100
-658.930	-46.507	-0.171	-0.111
-657.916	-12.750	-0.214	-0.185
-656.901	258.803	-0.264	0.604
-655.886	-13.295	0.314	0.269
-654.872	-136.608	0.059	-0.009
-653.857	717.376	0.196	-0.691
-652.843	-110.573	-0.280	-0.076
-651.828	-138.611	0.356	0.051
-650.814	-200.000	-0.043	0.274
-649.799	-134.218	0.392	-0.063
-648.784	89.042	-0.251	0.370
-647.770	286.341	-0.137	0.328
-646.755	520.730	-0.179	-0.559
-645.741	320.580	-0.042	-0.105
-644.726	14.187	0.400	0.412
-643.711	-100.373	0.368	0.120
-642.697	-200.000	-0.066	-0.887
-641.682	-158.495	0.224	-0.017
-640.668	329.248	0.145	-0.370
-639.653	-200.000	0.020	-0.515
-638.638	-26.500	0.271	0.210
-637.624	188.352	-0.308	-0.610
-636.609	-65.723	0.243	-0.128
-635.595	-75.765	0.221	-0.103
-634.580	-149.092	0.324	-0.034
-633.565	294.518	-0.167	-0.405
-632.551	184.211	0.153	-0.300
-631.536	111.981	-0.013	0.020
-630.522	800.000	-0.060	0.314
-629.507	122.586	0.179	0.296
-628.492	-38.417	0.158	0.110
-627.478	0.396	-0.392	-0.369
-626.463	-128.834	-0.596	0.110
-625.449	-37.150	-0.137	-0.097
-624.434	2.650	-0.286	0.274
-623.419	-200.000	-0.001	-0.089
-622.405	-148.849	0.352	-0.037
-621.390	-64.596	-0.193	-0.103
-620.376	-155.297	-0.367	0.031
-619.361	295.351	-0.118	-0.286
-618.346	484.412	-0.182	-0.548
-617.332	-27.798	-0.368	-0.281
-616.317	-10.101	-0.191	-0.167
-615.303	800.000	-0.016	0.061
-614.288	13.781	0.140	0.144
-613.273	33.660	0.185	-0.212
-612.259	-75.619	-0.213	0.099
-611.244	111.968	-0.256	-0.409
-610.230	11.682	0.376	0.381
-609.215	-102.287	0.415	0.131
-608.201	-157.255	-0.246	-0.019
-607.186	69.141	0.129	0.175
-606.171	-47.590	-0.337	0.215
-605.157	-8.941	-0.275	0.243
-604.142	-123.942	0.450	-0.093
-603.128	-101.954	-0.556	-0.176
-602.113	-47.093	-0.133	-0.085
-601.098	9.209	-0.116	0.116
-600.084	67.130	-0.220	-0.296
-599.069	800.000	0.076	0.292
-598.055	21.701	-0.403	0.433
-597.040	687.162	0.107	-0.371
-596.025	800.000	-0.083	-0.343
-595.011	-76.947	-0.490	-0.225
-593.996	-114.288	-0.345	-0.087
-592.982	800.000	-0.144	-0.675
-591.967	750.723	-0.109	0.390
-590.952	168.224	-0.191	-0.360
-589.938	-7.856	-0.237	0.211
-588.923	572.898	0.052	-0.170
-587.909	86.682	0.050	0.072
-586.894	127.345	-0.288	0.483
-585.879	-149.315	0.301	-0.031
-584.865	800.000	-0.093	0.347
-583.850	204.571	-0.200	0.411
-582.836	203.971	0.133	-0.273
-581.821	61.616	-0.102	-0.134
-580.806	-101.306	-0.089	-0.029
-579.792	247.196	0.069	-0.154
-578.777	-53.488	0.119	0.071
-577.763	800.000	-0.045	0.207
-576.748	-41.407	0.395	-0.267
-575.733	-46.909	-0.080	0.051
-574.719	-200.000	-0.018	-0.202
-573.704	-56.780	0.250	-0.145
-572.690	651.036	-0.082	0.278
-571.675	280.511	-0.112	0.265
-570.661	404.836	0.093	0.260
-569.646	-200.000	0.010	0.191
-568.631	-200.000	-0.022	0.348
-567.617	-184.704	0.263	0.005
-566.602	29.821	-0.325	-0.364
-565.588	56.140	-0.140	0.179
-564.573	800.000	0.143	0.527
-563.558	121.431	-0.120	-0.197
-562.544	-140.831	-0.736	0.099
-561.529	800.000	-0.091	0.472
-560.515	-20.532	-0.604	0.488
-559.500	76.210	0.243	0.339
-558.485	-51.511	0.044	0.027
-557.471	-41.947	-0.473	0.318
-556.456	-83.264	-0.112	-0.047
-555.442	39.218	0.550	0.649
-554.427	25.408	-0.097	-0.106
-553.412	-106.284	0.098	-0.029
-552.398	27.313	0.475	-0.526
-551.383	187.439	0.205	-0.404
-550.369	800.000	0.075	0.307
-549.354	-10.346	0.394	-0.344
-548.339	-121.837	0.143	-0.031
-547.325	-18.530	-0.342	-0.281
-546.310	-68.505	0.385	0.196
-545.296	131.446	0.048	-0.082
-544.281	-10.746	-0.139	-0.121
-543.266	800.000	-0.129	0.638
-542.252	390.620	-0.016	-0.045
-541.237	12.852	0.087	0.089
-540.223	-35.382	-0.439	0.313
-539.208	-200.000	-0.022	0.145
-538.193	-64.314	-0.105	0.056
-537.179	-44.916	-0.337	0.221
-536.164	674.780	0.078	0.268
-535.150	787.176	0.058	0.211
-534.135	-125.243	0.182	0.036
-533.121	436.911	0.136	-0.392
-532.106	-80.051	0.036	-0.016
-531.091	-125.704	-0.164	-0.032
-530.077	800.000	0.090	-0.517
-529.062	5.225	0.038	-0.037
-528.048	-200.000	0.029	-0.268
-527.033	-26.125	0.124	-0.096
-526.018	-67.741	-0.540	-0.277
-525.004	216.296	0.355	-0.745
-523.989	151.447	0.167	0.300
-522.975	32.786	-0.347	-0.395
-521.960	-9.967	-0.029	-0.025
-520.945	166.571	-0.199	-0.373
-519.931	-110.100	-0.460	0.125
-518.916	-37.300	-0.271	0.190
-517.902	85.673	-0.205	0.298
-516.887	439.989	0.105	-0.303
-515.872	61.710	0.047	0.062
-514.858	-122.300	0.566	-0.121
-513.843	-104.246	0.245	-0.074
-512.829	566.525	0.085	0.274
-511.814	5.731	-0.182	-0.176
-510.799	64.874	-0.094	-0.125
-509.785	-65.201	-0.316	0.167
-508.770	246.990	-0.166	-0.369
-507.756	203.722	0.176	-0.359
-506.741	-130.534	-0.342	0.060
-505.726	38.004	-0.198	0.231
-504.712	86.870	-0.056	0.081
-503.697	-41.464	-0.157	-0.106
-502.683	140.112	-0.030	-0.053
-501.668	-67.830	-0.531	-0.272
-500.653	-143.339	-0.475	-0.059
-499.639	167.048	0.406	0.760
-498.624	142.467	0.076	-0.133
-497.610	-65.556	0.327	-0.172
-496.595	-125.430	0.139	0.028
-495.581	137.756	0.093	0.160
-494.566	-200.000	0.008	-0.709
-493.551	115.314	0.022	0.036
-492.537	-80.503	-0.045	0.020
-491.522	-65.702	-0.065	-0.034
-490.508	-160.928	-0.415	-0.028
-489.493	-171.655	0.539	0.023
-488.478	-162.759	0.497	0.031
-487.464	299.383	0.169	-0.411
-486.449	-49.810	-0.331	-0.206
-485.435	-38.783	-0.193	0.133
-484.420	-58.823	-0.281	-0.159
-483.405	-0.531	0.403	0.375
-482.391	51.122	0.124	0.154
-481.376	-34.960	0.455	-0.325
-480.362	-3.041	0.237	-0.217
-479.347	766.930	0.077	-0.278
-478.332	43.634	0.135	-0.163
-477.318	108.238	0.206	-0.323
-476.303	-103.850	-0.098	0.030
-475.289	-200.000	0.026	-0.259
-474.274	-85.178	-0.499	-0.204
-473.259	-127.926	0.465	0.087
-472.245	0.617	0.457	0.429
-471.230	35.961	0.385	0.445
-470.216	-22.655	0.206	0.163
-469.201	800.000	0.157	0.678
-468.186	58.628	0.244	-0.315
-467.172	33.248	0.263	-0.299
-466.157	-83.077	-0.379	0.159
-465.143	2.885	0.301	0.286
-464.128	308.960	0.165	-0.407
-463.113	98.286	0.272	0.412
-462.099	-23.315	-0.146	-0.115
-461.084	-49.784	0.417	0.259
-460.070	-52.414	-0.270	0.164
-459.055	101.343	-0.323	-0.495
-458.040	-98.744	-0.113	-0.038
-457.026	-200.000	0.041	0.300
-456.011	-136.627	0.610	0.092
-454.997	182.543	0.144	0.279
-453.982	-5.707	0.507	-0.455
-452.968	-21.362	0.287	-0.230
-451.953	-168.063	0.442	0.022
-450.938	-104.370	0.433	-0.131
-449.924	82.386	-0.197	0.281
-448.909	362.992	-0.182	-0.481
-447.895	-86.370	0.091	-0.037
-446.880	133.567	-0.213	0.363
-445.865	-9.589	-0.095	-0.083
-444.851	-62.308	-0.360	0.196
-443.836	63.835	0.250	0.330
-442.822	-43.842	0.090	0.059
-441.807	-128.525	-0.557	0.103
-440.792	-0.819	0.112	-0.104
-439.778	176.638	-0.158	0.301
-438.763	800.000	0.013	-0.069
-437.749	-200.000	-0.513	-0.002
-436.734	-18.874	0.151	-0.123
-435.719	-141.611	-0.631	0.083
-434.705	-101.579	-0.112	0.035
-433.690	67.116	0.432	0.579
-432.676	113.060	-0.257	0.409
-431.661	-71.273	-0.216	0.106
-430.646	5.207	0.420	0.406
-429.632	-150.269	0.107	-0.011
-428.617	10.298	0.332	0.331
-427.603	-13.968	-0.274	-0.232
-426.588	-11.683	0.074	0.064
-425.573	715.509	-0.049	0.170
-424.559	-200.000	-0.043	-0.302
-423.544	-58.835	0.577	0.326
-422.530	-168.165	0.212	0.011
-421.515	135.857	0.112	-0.192
-420.500	-83.959	0.559	-0.232
-419.486	-87.692	0.090	-0.036
-418.471	-57.454	-0.253	-0.145
-417.457	-200.000	-0.052	-0.539
-416.442	484.277	-0.133	-0.400
-415.428	-35.757	-0.134	-0.095
-414.413	-72.190	-0.475	0.230
-413.398	41.515	-0.400	-0.474
-412.384	279.640	0.120	0.283
-411.369	16.863	-0.250	-0.259
-410.355	240.981	-0.222	-0.488
-409.340	-92.963	-0.309	-0.112
-408.325	457.998	0.013	0.038
-407.311	47.288	0.171	0.209
-406.296	-143.004	0.349	-0.044
-405.282	-200.000	0.055	0.484
-404.267	188.623	0.083	0.162
-403.252	-160.929	0.361	0.025
-402.238	83.754	-0.156	-0.224
-401.223	109.953	-0.190	0.299
-400.209	495.828	0.138	0.418
-399.194	800.000	-0.191	-0.748
-398.179	-85.600	-0.064	-0.026
-397.165	7.818	0.218	0.213
-396.150	-25.850	-0.221	0.170
-395.136	-56.540	0.155	0.090
-394.121	289.298	-0.152	-0.362
-393.106	-74.513	-0.270	-0.127
-392.092	-162.000	-0.141	-0.009
-391.077	-117.493	0.248	0.058
-390.063	-104.948	-0.100	-0.030
-389.048	-178.844	-0.446	0.013
-388.033	477.521	-0.155	0.461
-387.019	-29.686	0.050	0.038
-386.004	698.397	-0.128	0.443
-384.990	-200.000	-0.042	0.596
-383.975	-73.927	-0.588	0.278
-382.960	442.757	-0.187	0.540
-381.946	-175.968	-0.282	0.010
-380.931	-16.407	0.108	0.089
-379.917	-200.000	0.072	0.479
-378.902	13.475	0.293	0.298
-377.888	190.964	-0.212	-0.419
-376.873	22.850	0.190	-0.203
-375.858	142.947	0.204	-0.357
-374.844	69.157	0.190	0.256
-373.829	469.070	-0.211	0.624
-372.815	79.716	0.423	0.595
-371.800	76.782	0.244	0.339
-370.785	-143.236	-0.420	-0.052
-369.771	26.555	-0.139	0.153
-368.756	38.689	-0.285	0.333
-367.742	-62.570	-0.320	0.173
-366.727	108.554	0.247	0.386
-365.712	80.212	0.010	-0.014
-364.698	-52.062	0.423	-0.256
-363.683	-92.558	0.281	-0.103
-362.669	-200.000	0.005	0.077
-361.654	800.000	0.040	0.187
-360.639	112.462	0.127	-0.201
-359.625	405.283	-0.168	0.467
-358.610	133.919	0.288	0.489
-357.596	51.431	0.260	0.323
-356.581	-200.000	0.064	0.497
-355.566	22.037	0.085	0.090
-354.552	140.030	-0.131	-0.227
-353.537	-200.000	-0.077	-0.469
-352.523	-106.783	0.202	0.058
-351.508	28.168	0.145	-0.160
-350.493	-137.232	0.432	-0.064
-349.479	-200.000	0.018	-0.604
-348.464	800.000	0.081	-0.423
-347.450	-161.494	-0.202	0.013
-346.435	-200.000	0.011	0.253
-345.420	-150.678	0.080	-0.008
-344.406	639.414	0.052	0.172
-343.391	49.314	-0.198	-0.244
-342.377	-130.738	-0.666	-0.116
-341.362	26.606	0.192	0.210
-340.348	-200.000	0.004	-0.055
-339.333	-110.451	-0.284	0.076
-338.318	-26.273	-0.285	-0.218
-337.304	-69.599	-0.268	0.133
-336.289	290.784	-0.021	-0.050
-335.275	38.045	-0.348	0.405
-334.260	193.683	-0.126	0.251
-333.245	-86.638	-0.056	-0.022
-332.231	800.000	0.091	-0.345
-331.216	800.000	0.023	0.090
-330.202	3.933	-0.300	0.286
-329.187	700.957	-0.077	-0.266
-328.172	429.174	-0.102	-0.290
-327.158	19.857	-0.328	-0.345
-326.143	-169.803	0.431	-0.020
-325.129	136.556	0.217	0.371
-324.114	-94.032	0.258	-0.092
-323.099	48.886	-0.154	0.189
-322.085	170.019	0.243	0.455
-321.070	-129.074	0.244	-0.044
-320.056	36.078	0.231	-0.266
-319.041	122.655	0.080	0.131
-318.026	-146.623	0.290	-0.032
-317.012	-149.062	0.554	-0.057
-315.997	630.778	-0.155	0.517
-314.983	26.456	0.022	0.024
-313.968	1.778	0.274	0.257
-312.953	-103.693	-0.410	0.125
-311.939	-99.194	0.007	0.002
-310.924	-182.975	-0.436	0.010
-309.910	-89.546	-0.134	-0.051
-308.895	35.649	0.121	-0.139
-307.880	800.000	-0.034	-0.129
-306.866	159.146	0.110	-0.201
-305.851	99.079	0.156	0.235
-304.837	-63.371	0.698	0.373
-303.822	-200.000	0.035	0.422
-302.807	800.000	0.023	-0.122
-301.793	-28.565	0.233	0.174
-300.778	-200.000	0.035	0.312
-299.764	105.243	0.209	0.323
-298.749	-31.367	-0.145	-0.106
-297.735	356.266	0.015	0.040
-296.720	26.899	0.154	-0.168
-295.705	7.391	0.145	-0.142
-294.691	800.000	0.099	-0.364
-293.676	-157.374	0.285	0.022
-292.662	-200.000	-0.003	-0.299
-291.647	133.336	0.239	0.405
-290.632	-9.685	-0.260	-0.226
-289.618	-65.366	-0.616	0.322
-288.603	107.140	-0.146	0.226
-287.589	-96.616	0.325	-0.111
-286.574	-200.000	-0.070	0.405
-285.559	53.186	-0.127	-0.159
-284.545	127.486	0.277	-0.459
-283.530	800.000	-0.139	-0.683
-282.516	-140.860	-0.478	-0.064
-281.501	19.958	0.163	-0.171
-280.486	32.554	-0.088	0.099
-279.472	201.569	-0.081	0.163
-278.457	440.549	-0.174	-0.497
-277.443	-150.296	-0.200	-0.020
-276.428	800.000	-0.146	0.650
-275.413	-82.202	-0.355	0.150
-274.399	-187.428	-0.304	-0.005
-273.384	-200.000	0.071	0.454
-272.370	77.206	-0.265	0.368
-271.355	-200.000	0.012	-0.285
-270.340	683.675	0.053	0.180
-269.326	55.855	-0.224	-0.283
-268.311	270.251	-0.154	0.354
-267.297	-187.952	-0.320	0.005
-266.282	-96.392	0.490	0.168
-265.267	49.040	0.198	0.242
-264.253	32.926	-0.104	0.117
-263.238	53.073	0.253	0.316
-262.224	-200.000	-0.007	0.563
-261.209	-61.004	-0.220	-0.120
-260.195	-200.000	0.032	0.279
-259.180	-116.301	0.290	-0.069
-258.165	702.460	0.061	0.212
-257.151	-95.610	0.137	0.048
-256.136	103.244	-0.218	-0.333
-255.122	-200.000	0.046	-0.304
-254.107	-99.645	0.325	0.105
-253.092	79.388	0.274	-0.384
-252.078	57.013	0.057	-0.073
-251.063	-79.142	-0.289	0.127
-250.049	-139.395	0.153	-0.021
-249.034	-179.793	0.324	0.009
-248.019	-200.000	-0.013	0.155
-247.005	-200.000	-0.030	-0.197
-245.990	-99.675	0.245	-0.080
-244.976	-12.266	0.127	0.108
-243.961	-138.426	-0.203	0.029
-242.946	-52.722	0.270	0.162
-241.932	16.700	-0.131	-0.134
-240.917	287.489	-0.155	-0.366
-239.903	-37.827	0.094	-0.065
-238.888	49.502	-0.098	0.120
-237.873	-69.393	-0.109	0.054
-236.859	-200.000	-0.008	0.133
-235.844	107.279	-0.191	0.296
-234.830	-68.059	-0.219	-0.111
-233.815	66.065	0.240	-0.317
-232.800	-10.104	0.195	0.168
-231.786	169.483	-0.080	0.149
-230.771	345.344	0.139	-0.357
-229.757	800.000	-0.193	-0.744
-228.742	-69.256	-0.244	-0.122
-227.727	71.251	-0.095	0.129
-226.713	123.360	-0.124	0.202
-225.698	24.456	-0.253	0.272
-224.684	-108.750	0.125	-0.035
-223.669	-134.062	0.021	0.003
-222.655	500.757	-0.046	-0.139
-221.640	237.890	0.183	-0.396
-220.625	800.000	0.083	-0.406
-219.611	-102.578	0.287	0.089
-218.596	-200.000	-0.057	0.455
-217.582	-124.500	-0.377	0.076
-216.567	361.743	-0.191	-0.501
-215.552	-200.000	-0.070	-0.802
-214.538	13.505	0.433	-0.436
-213.523	190.052	-0.206	-0.403
-212.509	800.000	-0.065	-0.255
-211.494	788.405	-0.039	0.140
-210.479	-156.133	-0.273	0.022
-209.465	-24.740	0.677	0.523
-208.450	373.502	0.036	0.096
-207.436	-200.000	0.002	-0.227
-206.421	137.056	-0.188	0.321
-205.406	406.786	0.071	-0.196
-204.392	375.462	-0.163	-0.434
-203.377	800.000	0.053	-0.271
-202.363	46.129	-0.297	-0.358
-201.348	-155.409	-0.511	-0.042
-200.333	-121.382	0.282	-0.061
-199.319	-134.377	0.392	0.062
-198.304	-101.309	-0.441	-0.139
-197.290	-160.451	-0.253	-0.017
-196.275	800.000	-0.079	0.320
-195.260	800.000	-0.040	-0.159
-194.246	-137.298	0.708	-0.103
-193.231	34.877	0.170	-0.193
-192.217	-69.244	-0.536	0.266
-191.202	-97.121	0.369	-0.124
-190.187	30.417	0.190	-0.211
-189.173	-181.443	0.399	0.010
-188.158	800.000	0.070	0.372
-187.144	-137.094	0.106	0.016
-186.129	-51.322	0.302	0.183
-185.114	-200.000	-0.050	-0.698
-184.100	-112.479	-0.327	-0.084
-183.085	-133.175	0.348	-0.057
-182.071	-114.615	-0.229	0.057
-181.056	-148.221	0.079	-0.008
-180.042	-200.000	0.143	-0.000
-179.027	-141.001	0.262	-0.035
-178.012	-200.000	-0.002	-0.106
-176.998	-103.830	0.631	-0.190
-175.983	800.000	0.073	-0.315
-174.969	12.092	0.088	0.088
-173.954	546.761	0.015	0.048
-172.939	-131.690	0.312	-0.053
-171.925	-29.566	-0.073	-0.054
-170.910	201.635	-0.067	-0.135
-169.896	-47.798	-0.465	-0.291
-168.881	-91.978	-0.477	-0.174
-167.866	350.843	-0.085	0.219
-166.852	-89.448	-0.593	0.225
-165.837	24.348	0.121	0.130
-164.823	-200.000	0.002	-0.251
-163.808	145.490	-0.101	0.177
-162.793	-17.789	-0.167	-0.136
-161.779	-34.176	0.293	-0.208
-160.764	594.088	0.195	0.629
-159.750	-129.175	0.178	0.032
-158.735	178.614	0.121	-0.231
-157.720	-66.265	-0.138	0.071
-156.706	-130.073	0.088	0.015
-155.691	166.431	0.381	-0.701
-154.677	-200.000	0.010	0.064
-153.662	257.991	0.130	-0.291
-152.647	134.350	0.204	0.344
-151.633	800.000	-0.043	-0.244
-150.618	141.537	0.145	0.250
-149.604	-185.332	-0.438	0.009
-148.589	-37.841	0.166	0.114
-147.574	260.017	-0.104	-0.234
-146.560	69.168	-0.062	-0.082
-145.545	469.244	0.078	-0.228
-144.531	-16.129	0.168	0.138
-143.516	-139.282	-0.135	-0.019
-142.502	8.535	-0.159	-0.155
-141.487	49.040	0.202	0.247
-140.472	317.509	-0.173	-0.426
-139.458	74.495	-0.105	-0.144
-138.443	62.000	-0.247	-0.320
-137.429	-11.281	-0.332	-0.283
-136.414	61.032	-0.078	0.100
-135.399	-34.422	-0.164	0.116
-134.385	-168.431	-0.170	-0.008
-133.370	34.144	-0.351	-0.397
-132.356	178.425	0.190	0.361
-131.341	48.037	-0.306	0.370
-130.326	-122.735	-0.341	-0.071
-129.312	67.810	-0.235	-0.311
-128.297	-64.138	0.151	-0.079
-127.283	100.858	-0.211	-0.319
-126.268	-200.000	-0.026	-0.186
-125.253	-63.188	0.088	0.047
-124.239	413.615	0.068	-0.187
-123.224	-200.000	0.007	0.179
-122.210	-65.947	0.447	0.230
-121.195	290.573	0.287	0.679
-120.180	-5.813	-0.426	0.378
