DTS Sentinel unit serial number:	SN409020Multiplexer serial number:	ORYXHardware model number:	OX4-SRSoftware version number:	ORYX F/W v3.00 Oryx Data Collector v3.7.2.0data status	okinstallation	HaddamTimeLapsedifferential loss correction	single-endedforward channel	channel 3reverse channel	N/Adate	2011/06/22time	06:46:17forward acquisition time	30.00reverse acquisition time	0.00gamma	498.7831k internal	0.1752k external	0.1752temperature offset calibration	1.0074default loss term (dB/km)	0.3790temperature slope calibration	1.3530multiplexer offset coefficient	1.0000multiplexer slope coefficient	1.0000fibre end	0.00T internal ref (°C)	22.69T ext. ref 1 (°C)	18.70T ext. ref 2 (°C)	0.25length (m)	temperature (°C)	Stokes	anti-Stokes-747.200	-104.193	-0.374	0.115
-746.185	24.181	-0.066	0.072
-745.171	-174.269	-0.212	-0.008
-744.156	-200.000	-0.011	0.464
-743.142	7.134	0.070	0.069
-742.127	88.684	-0.110	0.163
-741.112	800.000	-0.007	0.033
-740.098	-65.776	0.245	0.130
-739.083	-107.272	-0.111	-0.032
-738.069	-200.000	0.028	0.516
-737.054	227.302	-0.058	0.125
-736.039	-118.068	-0.106	-0.025
-735.025	-74.341	0.419	0.200
-734.010	38.977	-0.309	0.366
-732.996	112.255	0.258	0.415
-731.981	21.473	-0.168	0.181
-730.966	-10.778	-0.057	0.050
-729.952	-52.103	0.542	0.333
-728.937	124.272	-0.114	-0.191
-727.923	-105.316	-0.404	-0.121
-726.908	800.000	-0.159	-0.709
-725.894	-122.946	-0.695	-0.147
-724.879	-54.613	0.268	0.160
-723.864	-144.664	0.366	0.044
-722.850	-14.076	0.354	0.302
-721.835	-0.988	-0.090	-0.084
-720.821	192.930	-0.124	0.249
-719.806	-77.384	0.112	-0.051
-718.791	351.959	0.178	0.468
-717.777	487.147	0.132	0.400
-716.762	-22.784	0.100	0.080
-715.748	-200.000	-0.025	0.367
-714.733	-95.588	0.230	-0.081
-713.718	158.931	-0.137	-0.254
-712.704	-121.969	0.267	-0.058
-711.689	106.174	0.262	-0.411
-710.675	-154.737	-0.597	0.052
-709.660	25.680	0.425	-0.469
-708.645	-32.066	0.136	0.101
-707.631	-137.307	0.667	-0.099
-706.616	-102.890	0.236	0.074
-705.602	556.882	-0.067	0.215
-704.587	78.088	-0.190	0.269
-703.572	196.471	-0.052	-0.105
-702.558	-89.980	-0.395	0.152
-701.543	-155.223	0.400	-0.034
-700.529	33.580	-0.180	-0.207
-699.514	-200.000	-0.016	-0.252
-698.499	-184.595	0.530	0.011
-697.485	0.837	-0.393	-0.373
-696.470	-148.896	0.170	0.018
-695.456	29.584	-0.045	0.050
-694.441	-61.419	-0.086	-0.048
-693.426	-102.016	0.393	-0.125
-692.412	-37.864	-0.314	-0.220
-691.397	800.000	0.107	-0.456
-690.383	-31.242	-0.261	-0.195
-689.368	-95.702	-0.594	0.209
-688.354	173.927	-0.095	-0.182
-687.339	-6.050	0.249	0.225
-686.324	-200.000	0.048	0.387
-685.310	800.000	0.050	-0.275
-684.295	-126.097	-0.307	-0.061
-683.281	-136.145	-0.239	0.037
-682.266	-200.000	0.027	0.284
-681.251	16.786	0.072	0.075
-680.237	-200.000	-0.011	0.437
-679.222	62.981	0.339	-0.449
-678.208	22.976	-0.022	-0.023
-677.193	-78.755	-0.405	0.182
-676.178	-43.519	-0.466	0.311
-675.164	-200.000	-0.004	0.216
-674.149	-11.654	0.241	0.210
-673.135	-112.760	-0.107	0.028
-672.120	-131.642	0.086	-0.015
-671.105	-122.938	-0.371	0.078
-670.091	-29.940	0.268	0.202
-669.076	-3.846	-0.345	-0.317
-668.062	3.583	0.336	-0.325
-667.047	-156.810	0.337	0.027
-666.032	315.319	0.083	0.209
-665.018	-200.000	0.000	0.173
-664.003	156.323	0.089	0.162
-662.989	-200.000	-0.085	0.634
-661.974	-112.921	0.431	-0.112
-660.959	56.500	0.158	-0.204
-659.945	25.469	-0.377	0.415
-658.930	-134.822	0.713	0.113
-657.916	-15.146	0.374	0.316
-656.901	96.211	-0.080	0.122
-655.886	128.108	-0.274	-0.462
-654.872	442.071	-0.104	-0.303
-653.857	-53.589	-0.384	-0.232
-652.843	187.954	-0.129	-0.255
-651.828	10.168	-0.442	-0.445
-650.814	800.000	-0.094	-0.434
-649.799	-45.980	0.033	-0.022
-648.784	-129.321	0.471	-0.086
-647.770	-139.742	0.091	0.013
-646.755	-71.598	-0.049	0.024
-645.741	-200.000	0.010	0.431
-644.726	-143.566	0.209	0.026
-643.711	-52.312	0.101	0.062
-642.697	155.366	-0.114	0.209
-641.682	19.056	-0.124	-0.131
-640.668	-200.000	-0.003	-0.232
-639.653	-200.000	0.002	0.237
-638.638	-97.919	0.178	-0.060
-637.624	2.999	0.289	0.277
-636.609	-149.475	-0.320	-0.033
-635.595	229.095	0.099	-0.215
-634.580	-177.864	0.236	0.007
-633.565	-4.310	-0.179	-0.163
-632.551	800.000	0.041	-0.233
-631.536	47.419	0.299	0.369
-630.522	28.170	-0.286	0.320
-629.507	105.130	-0.172	0.269
-628.492	45.385	-0.113	0.138
-627.478	-101.070	-0.050	-0.016
-626.463	-96.537	0.104	0.036
-625.449	-52.083	-0.691	-0.423
-624.434	-69.196	-0.123	0.062
-623.419	-83.371	-0.109	0.046
-622.405	-104.562	-0.324	0.098
-621.390	-187.572	0.205	0.004
-620.376	-200.000	0.028	-0.268
-619.361	-163.603	-0.213	0.013
-618.346	-200.000	-0.029	0.254
-617.332	-14.426	0.228	0.193
-616.317	64.362	0.010	0.014
-615.303	-86.219	0.175	-0.071
-614.288	-85.591	-0.246	-0.100
-613.273	567.532	-0.017	-0.056
-612.259	-24.441	-0.127	-0.100
-611.244	-89.801	0.296	-0.114
-610.230	-200.000	-0.023	0.302
-609.215	-81.848	-0.227	-0.098
-608.201	-200.000	-0.010	0.267
-607.186	19.773	0.244	0.260
-606.171	-122.729	0.369	-0.078
-605.157	-5.124	-0.463	-0.420
-604.142	370.877	-0.094	-0.253
-603.128	-200.000	-0.008	0.073
-602.113	507.398	-0.062	0.192
-601.098	-139.043	0.323	-0.046
-600.084	-168.007	0.242	0.012
-599.069	-41.760	-0.286	0.194
-598.055	446.834	-0.237	0.691
-597.040	-200.000	0.022	0.202
-596.025	-35.214	-0.184	-0.132
-595.011	186.850	0.125	-0.246
-593.996	39.178	0.033	0.038
-592.982	28.727	0.302	-0.338
-591.967	-104.537	-0.209	-0.063
-590.952	-18.650	-0.430	0.354
-589.938	-68.063	0.223	0.114
-588.923	-147.489	0.219	-0.024
-587.909	-160.627	0.325	0.023
-586.894	-200.000	0.194	0.000
-585.879	-200.000	0.056	-0.499
-584.865	-200.000	0.010	0.107
-583.850	178.728	0.209	-0.404
-582.836	-119.175	-0.319	0.073
-581.821	617.123	-0.080	-0.268
-580.806	-13.986	0.224	0.191
-579.792	-7.796	-0.380	0.339
-578.777	-74.959	0.576	-0.271
-577.763	204.890	0.039	-0.080
-576.748	-104.314	-0.188	0.057
-575.733	-97.595	0.153	-0.052
-574.719	-188.810	0.069	-0.001
-573.704	-163.924	0.183	-0.011
-572.690	144.487	-0.027	-0.048
-571.675	2.715	0.130	0.125
-570.661	80.907	0.130	-0.185
-569.646	-46.515	-0.343	-0.222
-568.631	147.415	-0.039	-0.069
-567.617	-189.402	0.433	0.007
-566.602	800.000	0.094	0.368
-565.588	-25.326	0.243	0.190
-564.573	800.000	-0.047	-0.190
-563.558	-155.525	0.403	-0.034
-562.544	-29.086	-0.116	-0.088
-561.529	-32.090	-0.455	-0.335
-560.515	65.553	-0.226	-0.302
-559.500	-70.394	-0.126	-0.063
-558.485	100.138	0.068	0.104
-557.471	17.308	-0.097	-0.102
-556.456	-100.120	-0.326	0.106
-555.442	24.817	0.065	-0.071
-554.427	-112.807	0.301	0.078
-553.412	358.286	0.235	0.620
-552.398	-25.828	-0.208	-0.161
-551.383	85.163	-0.081	-0.118
-550.369	66.948	-0.328	-0.441
-549.354	3.880	-0.540	0.520
-548.339	763.577	-0.138	-0.498
-547.325	-6.541	-0.275	0.246
-546.310	49.849	-0.134	-0.167
-545.296	1.262	0.137	0.129
-544.281	-65.094	-0.200	0.106
-543.266	150.195	0.096	0.172
-542.252	23.845	0.325	-0.353
-541.237	-66.039	-0.450	-0.235
-540.223	-143.570	-0.112	-0.014
-539.208	800.000	0.115	0.423
-538.193	274.417	-0.292	0.683
-537.179	-169.211	-0.270	0.013
-536.164	-30.838	0.168	-0.125
-535.150	240.369	0.123	0.271
-534.135	-200.000	-0.060	0.389
-533.121	-112.204	-0.447	0.117
-532.106	-25.181	-0.117	0.091
-531.091	13.942	0.257	-0.263
-530.077	-123.581	-0.306	-0.064
-529.062	-9.692	-0.295	0.258
-528.048	52.429	0.395	0.496
-527.033	-200.000	0.020	0.453
-526.018	241.650	0.064	-0.140
-525.004	800.000	0.041	0.216
-523.989	-85.797	-0.195	-0.079
-522.975	195.306	-0.125	0.251
-521.960	-200.000	0.063	-0.378
-520.945	222.955	-0.119	-0.254
-519.931	800.000	-0.038	-0.194
-518.916	-97.087	0.291	-0.100
-517.902	-18.366	-0.485	-0.398
-516.887	-200.000	0.000	0.009
-515.872	48.838	0.313	0.387
-514.858	-160.549	0.048	-0.003
-513.843	90.297	-0.336	-0.495
-512.829	-68.821	-0.348	-0.176
-511.814	-97.443	-0.278	-0.094
-510.799	-159.896	0.243	0.017
-509.785	275.775	-0.244	-0.572
-508.770	589.139	-0.037	-0.121
-507.756	-17.291	-0.142	0.118
-506.741	-104.198	-0.314	-0.095
-505.726	-93.748	0.355	-0.128
-504.712	75.170	-0.464	-0.644
-503.697	278.429	-0.040	0.093
-502.683	98.633	0.165	-0.251
-501.668	171.205	0.080	-0.152
-500.653	-20.113	-0.383	-0.310
-499.639	-36.278	0.175	-0.124
-498.624	772.654	0.091	-0.327
-497.610	-65.887	0.206	-0.108
-496.595	119.267	0.077	-0.126
-495.581	31.488	0.163	-0.184
-494.566	50.274	-0.218	-0.271
-493.551	-49.400	-0.305	0.191
-492.537	119.426	0.207	0.337
-491.522	72.734	-0.059	0.081
-490.508	-200.000	-0.039	0.279
-489.493	65.419	0.218	0.290
-488.478	-43.624	0.428	0.283
-487.464	-184.016	-0.310	-0.007
-486.449	-51.573	-0.177	0.108
-485.435	94.946	-0.138	0.207
-484.420	14.394	-0.206	-0.211
-483.405	366.222	-0.055	-0.146
-482.391	-200.000	-0.016	-0.614
-481.376	-12.559	-0.427	0.366
-480.362	4.255	-0.442	0.425
-479.347	-85.428	0.697	-0.284
-478.332	149.794	0.078	0.138
-477.318	-93.853	-0.135	-0.049
-476.303	-52.594	0.138	0.084
-475.289	-90.491	0.219	0.083
-474.274	-126.938	0.197	0.038
-473.259	-18.425	0.231	0.189
-472.245	-7.811	-0.240	-0.212
-471.230	-44.110	0.044	0.029
-470.216	-44.859	0.180	-0.118
-469.201	64.333	-0.174	-0.231
-468.186	-16.577	-0.322	-0.268
-467.172	510.439	0.068	0.208
-466.157	-26.451	-0.066	-0.051
-465.143	162.252	0.105	0.193
-464.128	16.758	-0.090	-0.093
-463.113	203.305	0.156	-0.317
-462.099	-15.993	0.225	-0.188
-461.084	800.000	-0.055	-0.285
-460.070	-71.984	0.491	-0.239
-459.055	-38.957	-0.208	-0.143
-458.040	-62.767	-0.073	0.040
-457.026	-141.258	0.218	-0.029
-456.011	800.000	-0.085	0.407
-454.997	-182.353	0.072	0.002
-453.982	33.459	-0.195	-0.222
-452.968	-36.056	0.070	-0.050
-451.953	800.000	0.114	-0.439
-450.938	167.754	0.177	-0.330
-449.924	292.468	-0.152	0.364
-448.909	-200.000	0.034	-0.357
-447.895	-71.053	-0.153	0.075
-446.880	800.000	-0.070	0.290
-445.865	424.838	0.062	0.176
-444.851	-149.126	0.193	-0.020
-443.836	-16.862	-0.222	0.184
-442.822	-81.607	-0.434	-0.186
-441.807	800.000	0.139	0.511
-440.792	-11.269	-0.090	-0.078
-439.778	-52.574	-0.488	0.295
-438.763	-57.521	0.179	0.103
-437.749	-102.511	-0.148	-0.046
-436.734	786.943	0.154	0.557
-435.719	-54.613	-0.276	0.164
-434.705	126.890	-0.208	0.346
-433.690	416.355	0.101	-0.284
-432.676	-200.000	-0.044	-0.361
-431.661	105.634	0.290	0.451
-430.646	800.000	0.067	0.342
-429.632	-132.663	0.505	0.084
-428.617	496.856	0.160	0.484
-427.603	-1.320	0.181	-0.168
-426.588	-79.913	-0.343	-0.151
-425.573	-200.000	-0.047	-0.301
-424.559	-200.000	0.024	-0.215
-423.544	-99.738	-0.448	0.146
-422.530	-99.161	-0.550	-0.181
-421.515	178.224	-0.018	-0.035
-420.500	502.500	-0.060	-0.184
-419.486	113.551	-0.282	0.449
-418.471	77.113	-0.302	0.421
-417.457	800.000	-0.143	0.572
-416.442	-52.764	-0.082	0.049
-415.428	-200.000	-0.006	-0.071
-414.413	-101.361	-0.087	0.028
-413.398	668.752	0.200	-0.681
-412.384	465.233	-0.117	-0.344
-411.369	-200.000	-0.091	0.643
-410.355	40.404	0.309	-0.365
-409.340	-97.707	0.456	0.154
-408.325	-160.842	0.105	-0.007
-407.311	800.000	0.055	-0.220
-406.296	82.074	-0.221	-0.315
-405.282	-20.100	-0.184	-0.148
-404.267	-106.545	-0.587	0.170
-403.252	-33.228	-0.061	-0.044
-402.238	-79.817	-0.237	-0.104
-401.223	34.980	-0.208	-0.239
-400.209	800.000	0.017	-0.064
-399.194	-51.404	-0.175	0.107
-398.179	97.841	0.340	-0.513
-397.165	-200.000	-0.004	-0.428
-396.150	-29.853	-0.285	0.212
-395.136	458.468	0.100	-0.293
-394.121	-200.000	0.003	-0.291
-393.106	-145.380	-0.685	-0.080
-392.092	-70.266	-0.213	0.105
-391.077	71.779	-0.390	-0.531
-390.063	59.331	0.268	0.345
-389.048	-176.845	0.466	-0.015
-388.033	-102.823	0.504	-0.156
-387.019	-76.367	0.406	-0.186
-386.004	-23.253	0.055	-0.043
-384.990	217.846	-0.224	-0.469
-383.975	60.852	0.276	-0.359
-382.960	-175.282	-0.394	0.014
-381.946	1.392	-0.248	-0.233
-380.931	46.010	-0.486	-0.589
-379.917	800.000	-0.096	0.513
-378.902	58.112	-0.276	0.354
-377.888	-52.014	-0.338	0.205
-376.873	490.675	-0.148	0.444
-375.858	-99.041	-0.208	0.069
-374.844	-52.014	-0.336	0.204
-373.829	-200.000	-0.023	0.186
-372.815	-86.271	0.336	0.135
-371.800	-200.000	-0.051	-0.353
-370.785	696.770	0.070	-0.244
-369.771	-200.000	0.068	-0.636
-368.756	-110.375	-0.063	0.017
-367.742	-200.000	-0.018	0.219
-366.727	526.503	-0.169	-0.523
-365.712	472.582	0.128	0.378
-364.698	262.916	0.087	0.199
-363.683	569.591	0.097	-0.312
-362.669	-113.394	-0.198	0.051
-361.654	49.846	-0.167	-0.206
-360.639	-200.000	-0.021	-0.273
-359.625	347.361	-0.025	-0.065
-358.610	347.471	0.082	-0.213
-357.596	-200.000	-0.003	0.477
-356.581	86.044	0.087	-0.126
-355.566	800.000	0.082	-0.349
-354.552	-36.169	0.526	0.370
-353.537	15.458	0.149	0.153
-352.523	-84.981	-0.117	-0.048
-351.508	-43.414	-0.402	0.265
-350.493	-68.174	0.175	-0.089
-349.479	29.671	-0.076	0.085
-348.464	-141.442	0.293	-0.038
-347.450	-114.992	0.368	0.091
-346.435	125.085	0.358	-0.592
-345.420	-109.698	0.619	0.169
-344.406	-104.268	-0.146	-0.044
-343.391	217.514	0.241	0.505
-342.377	459.069	0.009	-0.026
-341.362	241.149	0.032	-0.071
-340.348	-37.713	0.152	-0.105
-339.333	-14.468	0.208	0.175
-338.318	529.084	-0.070	0.218
-337.304	-200.000	0.034	-0.362
-336.289	70.539	-0.133	-0.180
-335.275	100.160	-0.175	0.266
-334.260	800.000	-0.019	0.108
-333.245	800.000	0.027	-0.114
-332.231	-74.498	-0.226	-0.106
-331.216	-9.634	0.242	0.210
-330.202	-59.056	0.507	-0.285
-329.187	95.622	0.114	-0.170
-328.172	375.091	0.072	-0.194
-327.158	-5.157	0.089	0.080
-326.143	48.691	0.378	0.463
-325.129	-136.032	0.272	0.041
-324.114	800.000	0.059	-0.234
-323.099	-183.677	-0.432	0.009
-322.085	-22.085	0.693	-0.549
-321.070	-200.000	0.004	-0.562
-320.056	-62.529	-0.284	-0.153
-319.041	-123.591	-0.649	-0.133
-318.026	-145.221	0.226	-0.026
-317.012	-77.243	0.246	-0.111
-315.997	115.680	-0.132	-0.211
-314.983	52.968	0.161	0.201
-313.968	82.884	0.261	0.371
-312.953	-22.305	0.153	-0.121
-311.939	-63.656	-0.119	0.063
-310.924	-182.131	-0.209	-0.005
-309.910	800.000	0.082	-0.345
-308.895	-32.424	-0.315	0.229
-307.880	9.929	-0.299	0.297
-306.866	25.385	0.099	-0.107
-305.851	800.000	-0.070	-0.393
-304.837	498.256	0.175	-0.528
-303.822	-101.497	-0.357	0.113
-302.807	800.000	-0.127	0.479
-301.793	25.335	-0.130	0.141
-300.778	-200.000	-0.039	0.284
-299.764	-64.985	0.461	-0.242
-298.749	39.099	0.186	0.217
-297.735	-50.882	0.096	0.059
-296.720	-22.616	0.425	-0.334
-295.705	286.565	-0.134	-0.316
-294.691	-76.377	0.450	0.206
-293.676	-152.510	-0.469	0.043
-292.662	-49.117	-0.215	0.134
-291.647	-78.518	-0.204	0.091
-290.632	-130.851	0.265	-0.046
-289.618	527.118	0.023	-0.072
-288.603	472.906	0.176	-0.520
-287.589	-171.157	0.499	-0.022
-286.574	-172.742	-0.597	0.024
-285.559	10.277	0.181	0.179
-284.545	58.767	-0.313	0.402
-283.530	-200.000	0.064	-0.448
-282.516	-131.053	-0.094	-0.016
-281.501	-105.194	0.573	0.169
-280.486	-68.638	0.242	0.121
-279.472	-5.191	0.185	0.166
-278.457	-200.000	-0.037	0.432
-277.443	-27.696	-0.238	0.179
-276.428	-24.650	-0.319	0.247
-275.413	-200.000	-0.010	0.196
-274.399	398.092	-0.126	0.344
-273.384	-159.421	0.151	0.011
-272.370	-76.120	-0.428	0.196
-271.355	-65.431	-0.250	-0.130
-270.340	-20.152	0.179	-0.144
-269.326	602.781	0.028	-0.093
-268.311	-57.775	-0.061	-0.035
-267.297	589.257	-0.114	0.369
-266.282	-200.000	-0.005	-0.205
-265.267	-117.787	0.476	-0.111
-264.253	-151.218	-0.233	0.022
-263.238	800.000	-0.102	-0.530
-262.224	-122.802	0.412	0.086
-261.209	300.088	-0.052	0.125
-260.195	39.796	-0.427	0.500
-259.180	-120.969	0.345	0.075
-258.165	84.966	0.229	-0.328
-257.151	268.996	0.116	0.266
-256.136	28.763	0.119	0.132
-255.122	-12.358	-0.308	-0.262
-254.107	192.728	-0.111	0.219
-253.092	-44.173	-0.141	-0.092
-252.078	512.937	-0.111	-0.338
-251.063	800.000	-0.093	-0.351
-250.049	271.856	-0.062	-0.142
-249.034	-200.000	0.017	-0.262
-248.019	121.922	-0.031	-0.050
-247.005	800.000	0.055	0.232
-245.990	238.446	-0.027	0.058
-244.976	-88.591	-0.163	-0.063
-243.961	45.647	-0.215	-0.259
-242.946	-84.727	0.167	0.068
-241.932	-138.378	0.367	-0.052
-240.917	244.995	0.053	0.116
-239.903	-200.000	0.012	0.138
-238.888	-84.717	0.146	0.059
-237.873	-48.301	0.371	0.232
-236.859	-82.230	0.634	-0.268
-235.844	-132.441	0.059	-0.010
-234.830	208.523	-0.110	-0.224
-233.815	136.969	-0.121	-0.206
-232.800	86.298	0.153	0.220
-231.786	-200.000	-0.012	0.083
-230.771	211.092	0.056	0.115
-229.757	-200.000	-0.002	0.442
-228.742	-185.881	-0.450	0.009
-227.727	-127.874	0.669	0.124
-226.713	55.333	-0.065	0.082
-225.698	41.815	-0.059	0.069
-224.684	-134.136	0.338	0.054
-223.669	-103.958	0.363	0.109
-222.655	77.486	-0.248	0.344
-221.640	-148.466	0.287	0.030
-220.625	233.164	0.238	0.512
-219.611	-72.286	-0.292	0.140
-218.596	361.450	-0.013	0.034
-217.582	-187.096	0.533	-0.009
-216.567	-26.132	-0.105	0.080
-215.552	35.598	-0.163	0.186
-214.538	-115.975	0.363	0.087
-213.523	-115.451	-0.460	-0.112
-212.509	-158.707	0.466	-0.034
-211.494	-63.170	-0.172	0.092
-210.479	-87.595	0.567	-0.222
-209.465	111.106	-0.187	0.294
-208.450	43.872	-0.197	0.234
-207.436	-115.124	0.393	0.096
-206.421	-78.185	0.542	0.241
-205.406	127.369	0.202	-0.334
-204.392	-113.632	-0.507	-0.128
-203.377	-72.076	0.244	0.117
-202.363	625.696	0.120	0.396
-201.348	152.842	0.288	0.514
-200.333	104.174	0.149	-0.228
-199.319	-157.750	0.420	0.032
-198.304	31.894	0.232	-0.260
-197.290	79.312	-0.047	-0.065
-196.275	-129.021	-0.229	-0.041
-195.260	29.279	-0.158	-0.174
-194.246	35.662	-0.081	-0.093
-193.231	-166.182	-0.336	0.018
-192.217	-165.032	-0.224	-0.013
-191.202	-137.404	-0.513	0.075
-190.187	199.302	0.101	-0.202
-189.173	48.252	-0.271	-0.330
-188.158	-47.387	-0.165	0.104
-187.144	-46.904	-0.357	-0.226
-186.129	-103.823	-0.518	0.156
-185.114	-117.388	0.741	-0.173
-184.100	-130.742	0.323	0.056
-183.085	-122.964	-0.094	0.020
-182.071	31.089	0.083	-0.092
-181.056	-68.163	-0.396	0.199
-180.042	-176.252	-0.310	0.010
-179.027	-68.054	-0.358	0.180
-178.012	-200.000	0.044	0.718
-176.998	0.414	0.302	0.280
-175.983	-1.528	-0.079	-0.072
-174.969	259.257	-0.056	0.125
-173.954	-0.903	0.142	0.130
-172.939	190.841	0.087	0.170
-171.925	-6.583	0.263	0.232
-170.910	-63.953	0.439	0.232
-169.896	-200.000	-0.024	-0.179
-168.881	-61.183	-0.030	0.016
-167.866	-8.240	0.275	-0.240
-166.852	35.676	-0.141	-0.161
-165.837	-0.553	-0.338	0.311
-164.823	7.572	0.268	-0.260
-163.808	45.238	0.244	0.293
-162.793	800.000	0.036	-0.152
-161.779	-145.928	0.479	0.054
-160.764	-4.853	0.016	0.014
-159.750	-130.305	-0.168	-0.029
-158.735	-54.032	-0.099	-0.058
-157.720	120.438	-0.275	0.444
-156.706	188.273	0.120	-0.234
-155.691	800.000	0.063	0.309
-154.677	-78.149	0.296	0.132
-153.662	-157.665	0.207	0.016
-152.647	249.121	0.247	-0.545
-151.633	-103.574	-0.176	-0.053
-150.618	-132.616	-0.380	-0.063
-149.604	-19.825	0.364	-0.291
-148.589	-88.158	0.402	0.155
-147.574	800.000	0.074	-0.386
-146.560	800.000	0.045	-0.172
-145.545	-99.442	-0.288	-0.094
-144.531	-200.000	0.008	0.139
-143.516	-200.000	0.006	0.049
-142.502	-35.931	0.226	0.158
-141.487	-155.259	-0.738	-0.061
-140.472	-138.965	-0.159	-0.022
-139.458	-65.624	0.186	-0.096
-138.443	21.978	-0.277	-0.293
-137.429	-200.000	0.006	0.547
-136.414	-200.000	0.032	0.440
-135.399	800.000	-0.086	0.359
-134.385	85.107	-0.112	0.160
-133.370	-33.063	0.131	-0.094
-132.356	-200.000	0.076	-0.452
-131.341	-200.000	-0.017	-0.276
-130.326	71.316	0.122	-0.164
-129.312	69.367	-0.150	-0.200
-128.297	363.890	-0.323	-0.847
-127.283	256.833	0.275	-0.614
-126.268	800.000	-0.153	-0.600
-125.253	55.089	-0.111	-0.140
-124.239	-57.758	0.139	-0.079
-123.224	-114.716	-0.508	0.125
-122.210	184.690	-0.237	-0.457
-121.195	-160.224	-0.511	-0.035
