DTS Sentinel unit serial number:	SN409020Multiplexer serial number:	ORYXHardware model number:	OX4-SRSoftware version number:	ORYX F/W v3.00 Oryx Data Collector v3.7.2.0data status	okinstallation	HaddamTimeLapsedifferential loss correction	single-endedforward channel	channel 3reverse channel	N/Adate	2011/06/21time	21:31:17forward acquisition time	30.00reverse acquisition time	0.00gamma	498.7831k internal	0.1762k external	0.1762temperature offset calibration	1.0074default loss term (dB/km)	0.3790temperature slope calibration	1.3530multiplexer offset coefficient	1.0000multiplexer slope coefficient	1.0000fibre end	0.00T internal ref (°C)	26.16T ext. ref 1 (°C)	19.60T ext. ref 2 (°C)	0.04length (m)	temperature (°C)	Stokes	anti-Stokes-747.200	149.287	0.139	-0.248
-746.185	136.739	0.266	0.460
-745.171	-200.000	0.005	0.218
-744.156	114.738	-0.433	0.699
-743.142	-91.133	-0.408	0.154
-742.127	-169.750	-0.351	-0.016
-741.112	-125.668	-0.200	-0.040
-740.098	479.122	-0.147	0.443
-739.083	-47.605	-0.482	-0.308
-738.069	18.691	-0.333	-0.352
-737.054	9.452	-0.244	-0.244
-736.039	-23.918	0.149	-0.118
-735.025	14.389	-0.174	-0.179
-734.010	-33.882	0.168	-0.122
-732.996	41.535	0.170	-0.203
-731.981	-102.891	-0.185	0.057
-730.966	800.000	-0.062	0.233
-729.952	-53.139	0.171	-0.103
-728.937	-200.000	0.075	-0.565
-727.923	-45.583	-0.149	-0.097
-726.908	-200.000	0.090	-0.798
-725.894	130.627	-0.059	0.100
-724.879	174.684	-0.268	-0.514
-723.864	-152.958	0.329	-0.030
-722.850	800.000	-0.123	0.492
-721.835	19.325	-0.418	0.443
-720.821	-9.301	-0.256	-0.225
-719.806	-137.340	0.191	-0.028
-718.791	-23.159	0.182	0.144
-717.777	-36.228	-0.332	0.236
-716.762	32.551	0.332	-0.378
-715.748	54.709	-0.178	0.227
-714.733	-27.176	0.422	0.323
-713.718	800.000	-0.025	0.133
-712.704	718.864	-0.069	-0.242
-711.689	-67.652	-0.041	-0.021
-710.675	-79.832	0.341	0.151
-709.660	-200.000	0.019	-0.272
-708.645	24.200	-0.141	-0.153
-707.631	180.065	-0.275	0.534
-706.616	-63.718	-0.379	-0.204
-705.602	-121.909	0.271	-0.058
-704.587	-36.673	0.332	-0.235
-703.572	76.217	-0.102	0.143
-702.558	800.000	0.142	0.539
-701.543	-77.613	0.104	-0.047
-700.529	-121.968	-0.352	0.076
-699.514	-125.591	-0.420	0.083
-698.499	-110.243	0.346	-0.094
-697.485	-103.896	0.081	-0.025
-696.470	745.449	0.073	0.261
-695.456	-59.092	-0.243	0.138
-694.441	167.385	-0.032	-0.060
-693.426	579.239	-0.114	0.369
-692.412	270.083	0.132	0.306
-691.397	-55.455	0.310	0.183
-690.383	-131.563	-0.089	0.015
-689.368	23.584	0.240	-0.260
-688.354	-76.004	0.226	0.105
-687.339	-84.076	-0.118	0.049
-686.324	800.000	0.065	0.291
-685.310	-171.153	0.214	-0.009
-684.295	43.605	0.422	-0.509
-683.281	-200.000	-0.342	-0.000
-682.266	-200.000	0.016	0.433
-681.251	17.436	0.067	0.070
-680.237	-17.284	-0.103	0.085
-679.222	11.591	0.092	-0.093
-678.208	-93.257	-0.160	0.058
-677.193	361.882	0.132	-0.350
-676.178	-193.603	0.368	-0.004
-675.164	84.303	-0.032	0.045
-674.149	764.383	-0.193	-0.694
-673.135	-200.000	0.007	0.298
-672.120	-14.954	0.232	-0.195
-671.105	-33.956	0.478	0.346
-670.091	-200.000	0.017	-0.328
-669.076	-126.860	0.398	0.077
-668.062	-87.653	0.443	-0.175
-667.047	-142.798	-0.417	0.053
-666.032	-47.288	0.186	-0.119
-665.018	34.995	0.149	-0.172
-664.003	-60.407	-0.053	0.030
-662.989	157.016	0.045	-0.082
-661.974	235.786	-0.157	0.342
-660.959	-13.115	0.155	0.133
-659.945	265.165	-0.132	0.305
-658.930	-200.000	0.003	0.425
-657.916	12.888	-0.906	0.921
-656.901	653.891	0.061	0.206
-655.886	-38.833	-0.205	-0.142
-654.872	-11.812	-0.295	-0.254
-653.857	-95.450	0.320	0.112
-652.843	255.688	0.218	0.495
-651.828	-138.274	-0.430	0.062
-650.814	-91.031	-0.372	0.140
-649.799	-31.584	0.251	-0.185
-648.784	98.997	0.092	-0.140
-647.770	-60.084	-0.492	0.275
-646.755	-200.000	-0.031	-0.265
-645.741	-200.000	0.012	0.213
-644.726	653.675	0.062	0.210
-643.711	-200.000	0.006	0.215
-642.697	107.140	0.088	0.137
-641.682	46.379	0.094	0.114
-640.668	-135.995	-0.224	0.034
-639.653	215.553	0.139	0.292
-638.638	-59.555	-0.102	-0.057
-637.624	159.766	0.270	0.496
-636.609	17.428	-0.118	0.123
-635.595	-40.277	-0.003	0.002
-634.580	-200.000	0.026	0.214
-633.565	-173.294	-0.237	-0.009
-632.551	-13.798	0.308	-0.262
-631.536	-162.943	-0.475	0.030
-630.522	26.867	-0.171	-0.188
-629.507	56.955	-0.270	0.346
-628.492	800.000	0.031	-0.176
-627.478	800.000	0.103	-0.565
-626.463	-19.221	-0.336	0.274
-625.449	-62.883	-0.501	0.271
-624.434	-89.595	0.258	-0.099
-623.419	267.505	-0.162	0.374
-622.405	19.461	-0.139	-0.147
-621.390	-88.457	-0.199	0.078
-620.376	-200.000	0.068	-0.641
-619.361	129.222	-0.238	0.400
-618.346	-145.080	-0.466	0.055
-617.332	-161.525	0.380	0.025
-616.317	132.821	0.126	0.214
-615.303	25.827	-0.116	0.127
-614.288	-200.000	-0.011	-0.112
-613.273	-52.884	0.288	-0.174
-612.259	48.924	-0.150	0.185
-611.244	-13.246	-0.458	-0.390
-610.230	186.740	0.079	-0.154
-609.215	-200.000	-0.013	0.174
-608.201	-43.058	-0.492	-0.327
-607.186	128.775	-0.243	-0.408
-606.171	182.241	0.154	-0.298
-605.157	-5.957	0.576	-0.516
-604.142	-145.121	0.092	0.011
-603.128	0.122	0.173	-0.161
-602.113	800.000	0.077	0.403
-601.098	32.336	0.107	-0.122
-600.084	-95.262	0.175	0.062
-599.069	800.000	-0.123	0.462
-598.055	800.000	-0.157	0.592
-597.040	-65.227	-0.141	0.075
-596.025	58.105	-0.153	-0.197
-595.011	-200.000	-0.019	-0.208
-593.996	-116.560	-0.287	-0.069
-592.982	-200.000	0.017	-0.242
-591.967	-16.428	0.170	0.141
-590.952	-141.230	0.544	-0.072
-589.938	234.443	-0.043	0.094
-588.923	-143.280	0.658	-0.082
-587.909	152.958	-0.160	0.287
-586.894	-187.740	-0.746	0.013
-585.879	800.000	0.072	-0.379
-584.865	-17.606	-0.350	-0.288
-583.850	737.966	0.087	0.308
-582.836	-166.716	-0.498	-0.027
-581.821	800.000	0.022	-0.120
-580.806	-200.000	-0.007	-0.165
-579.792	121.502	-0.402	-0.659
-578.777	-193.105	0.381	0.004
-577.763	277.274	0.099	-0.232
-576.748	800.000	0.053	-0.249
-575.733	-190.380	0.222	-0.003
-574.719	497.065	0.046	0.140
-573.704	235.465	0.138	0.301
-572.690	-177.742	-0.247	-0.008
-571.675	-66.362	-0.158	-0.082
-570.661	130.746	0.062	0.104
-569.646	-200.000	0.015	0.347
-568.631	38.283	0.239	0.279
-567.617	704.158	0.088	0.307
-566.602	800.000	0.149	-0.715
-565.588	800.000	0.116	-0.442
-564.573	-74.813	-0.354	0.166
-563.558	200.139	0.025	-0.050
-562.544	-200.000	0.274	0.000
-561.529	-117.969	0.946	-0.220
-560.515	300.396	0.045	0.108
-559.500	-62.470	-0.326	0.177
-558.485	130.510	0.115	0.193
-557.471	-200.000	0.018	-0.230
-556.456	124.574	-0.193	0.319
-555.442	50.611	0.072	-0.089
-554.427	89.242	-0.208	0.305
-553.412	336.023	0.086	-0.220
-552.398	68.779	-0.289	-0.390
-551.383	514.081	-0.032	-0.099
-550.369	-73.640	0.055	0.026
-549.354	-18.246	-0.587	-0.480
-548.339	800.000	0.068	0.336
-547.325	-47.507	-0.265	0.169
-546.310	315.979	0.063	0.156
-545.296	-200.000	0.021	0.588
-544.281	-68.871	-0.462	0.233
-543.266	-200.000	0.043	0.309
-542.252	-185.326	0.178	0.004
-541.237	263.658	-0.110	-0.251
-540.223	-157.160	0.517	-0.041
-539.208	-121.372	0.649	-0.140
-538.193	-13.304	0.345	-0.293
-537.179	354.228	0.105	-0.274
-536.164	69.165	0.061	-0.082
-535.150	-1.307	-0.322	-0.297
-534.135	170.844	0.098	-0.184
-533.121	-2.778	-0.126	0.115
-532.106	-15.918	-0.651	0.542
-531.091	96.593	0.196	0.295
-530.077	-200.000	0.062	-0.381
-529.062	-103.476	-0.392	0.120
-528.048	258.031	0.081	0.184
-527.033	-5.603	0.033	-0.029
-526.018	-79.996	-0.306	-0.134
-525.004	52.676	0.079	-0.099
-523.989	20.611	0.417	-0.441
-522.975	-117.767	-0.179	0.042
-521.960	135.022	0.258	-0.440
-520.945	289.529	-0.040	-0.096
-519.931	-60.210	-0.219	0.121
-518.916	74.685	-0.171	0.236
-517.902	-87.428	-0.123	0.048
-516.887	-62.147	-0.342	-0.186
-515.872	800.000	0.054	-0.251
-514.858	58.033	0.305	0.392
-513.843	800.000	0.109	0.450
-512.829	-88.323	-0.202	-0.079
-511.814	17.855	0.281	0.293
-510.799	-176.159	0.108	0.004
-509.785	-123.837	0.122	0.025
-508.770	-22.254	0.427	0.338
-507.756	298.699	0.185	-0.448
-506.741	-13.413	-0.089	0.075
-505.726	39.376	0.229	-0.269
-504.712	538.033	0.047	-0.145
-503.697	306.592	0.280	-0.685
-502.683	-200.000	-0.021	-0.149
-501.668	-200.000	-0.034	-0.343
-500.653	-146.212	0.187	0.021
-499.639	-110.057	0.160	0.043
-498.624	-81.271	-0.137	0.059
-497.610	-200.000	-0.047	0.344
-496.595	550.038	-0.089	0.281
-495.581	-107.503	0.303	-0.086
-494.566	77.432	-0.264	-0.368
-493.551	-109.764	-0.165	-0.045
-492.537	72.190	0.079	-0.108
-491.522	-28.446	0.484	0.364
-490.508	-0.668	-0.206	0.191
-489.493	-71.268	-0.182	0.089
-488.478	611.522	0.166	0.546
-487.464	-130.513	0.195	-0.034
-486.449	-49.083	-0.065	-0.041
-485.435	-71.471	-0.232	-0.113
-484.420	-160.710	0.241	0.016
-483.405	75.885	-0.313	0.432
-482.391	-200.000	0.007	-0.267
-481.376	767.151	0.022	0.079
-480.362	-200.000	-0.034	-0.238
-479.347	-183.969	-0.463	0.010
-478.332	30.948	-0.193	-0.216
-477.318	-82.382	0.557	-0.235
-476.303	435.273	-0.203	0.578
-475.289	-166.065	-0.885	0.048
-474.274	-200.000	0.017	-0.264
-473.259	-139.214	0.504	-0.070
-472.245	-78.404	-0.194	-0.086
-471.230	-126.306	-0.333	0.064
-470.216	749.347	-0.079	0.281
-469.201	-80.440	0.098	0.042
-468.186	-101.451	-0.282	-0.089
-467.172	-200.000	-0.389	0.000
-466.157	-74.909	0.407	-0.190
-465.143	-111.961	0.231	0.060
-464.128	65.263	-0.142	0.188
-463.113	30.061	-0.145	-0.161
-462.099	12.914	0.065	0.065
-461.084	800.000	-0.061	0.289
-460.070	43.630	-0.245	0.292
-459.055	-200.000	-0.024	0.216
-458.040	-11.685	0.418	-0.358
-457.026	-131.750	0.493	0.084
-456.011	800.000	-0.070	-0.270
-454.997	-156.174	-0.330	-0.027
-453.982	-200.000	-0.031	-0.342
-452.968	14.775	-0.081	-0.082
-451.953	-68.219	0.257	-0.130
-450.938	-81.708	-0.759	-0.323
-449.924	-24.309	0.195	0.152
-448.909	-62.656	0.569	0.307
-447.895	800.000	-0.035	0.171
-446.880	43.398	-0.104	0.124
-445.865	800.000	-0.022	0.126
-444.851	-118.503	0.548	0.126
-443.836	0.092	0.406	0.378
-442.822	-56.773	-0.008	0.005
-441.807	166.193	-0.088	0.164
-440.792	130.744	0.127	-0.212
-439.778	234.929	-0.131	-0.284
-438.763	694.249	-0.015	0.053
-437.749	-117.310	0.356	-0.084
-436.734	-31.672	0.198	-0.145
-435.719	551.638	-0.061	-0.193
-434.705	-19.439	-0.341	-0.275
-433.690	-162.443	-0.499	-0.032
-432.676	-200.000	-0.340	0.000
-431.661	7.844	0.358	0.350
-430.646	-200.000	-0.012	-0.240
-429.632	102.338	-0.096	-0.146
-428.617	3.099	-0.282	-0.267
-427.603	102.607	0.141	-0.216
-426.588	185.236	0.018	0.034
-425.573	-112.033	-0.566	0.147
-424.559	-200.000	-0.123	-0.802
-423.544	20.426	0.234	-0.247
-422.530	-175.725	-0.298	0.010
-421.515	-33.916	0.234	-0.168
-420.500	-200.000	-0.020	-0.312
-419.486	103.554	0.071	-0.109
-418.471	-182.689	-0.152	0.004
-417.457	-147.745	0.244	-0.026
-416.442	-108.445	-0.150	-0.042
-415.428	284.501	-0.156	0.367
-414.413	-96.186	-0.233	0.080
-413.398	28.511	-0.321	-0.354
-412.384	-79.297	0.329	0.145
-411.369	-200.000	-0.009	0.103
-410.355	38.027	-0.083	0.097
-409.340	-200.000	-0.040	-0.270
-408.325	59.968	-0.214	-0.275
-407.311	-166.264	-0.371	-0.020
-406.296	-200.000	-0.051	-0.347
-405.282	26.137	0.302	0.328
-404.267	148.148	0.170	-0.299
-403.252	-89.085	-0.105	-0.040
-402.238	172.962	0.062	-0.116
-401.223	102.650	-0.242	0.369
-400.209	672.851	-0.168	0.572
-399.194	19.354	-0.159	0.166
-398.179	-200.000	0.263	0.001
-397.165	-68.130	-0.608	-0.307
-396.150	800.000	0.164	-0.698
-395.136	569.560	0.122	0.388
-394.121	667.418	0.087	0.295
-393.106	146.775	0.210	-0.368
-392.092	-137.944	-0.241	0.035
-391.077	227.276	-0.105	-0.222
-390.063	800.000	0.123	0.455
-389.048	109.865	-0.093	-0.146
-388.033	-200.000	-0.041	-0.595
-387.019	88.368	0.112	-0.162
-386.004	385.551	0.084	0.226
-384.990	-200.000	-0.033	0.391
-383.975	-144.536	0.395	-0.047
-382.960	-78.988	0.451	0.199
-381.946	77.586	0.116	-0.161
-380.931	-183.024	0.485	-0.011
-379.917	-66.328	-0.524	-0.270
-378.902	-53.440	-0.249	-0.148
-377.888	800.000	-0.026	0.143
-376.873	-200.000	0.025	-0.213
-375.858	-110.278	-0.207	-0.056
-374.844	323.370	-0.232	0.579
-373.829	-11.666	-0.060	-0.051
-372.815	-10.891	-0.181	0.155
-371.800	233.814	0.215	0.462
-370.785	29.384	-0.294	0.325
-369.771	-176.271	-0.214	0.007
-368.756	-100.772	0.034	0.011
-367.742	-162.368	0.583	0.037
-366.727	-200.000	0.083	-0.558
-365.712	-5.693	-0.091	0.081
-364.698	-113.411	-0.243	-0.062
-363.683	-81.667	0.147	-0.063
-362.669	-97.422	0.373	0.126
-361.654	800.000	0.053	0.238
-360.639	-28.612	0.608	0.455
-359.625	-92.608	0.323	-0.117
-358.610	234.170	-0.193	0.415
-357.596	-200.000	-0.033	-0.202
-356.581	-126.525	-0.363	-0.069
-355.566	-90.929	0.248	0.092
-354.552	800.000	0.070	0.266
-353.537	-33.756	0.267	-0.191
-352.523	-126.503	-0.299	0.057
-351.508	70.201	0.140	0.188
-350.493	-85.927	-0.313	-0.125
-349.479	43.220	0.137	-0.163
-348.464	-59.879	-0.573	0.318
-347.450	216.516	0.161	-0.334
-346.435	183.352	0.295	0.569
-345.420	-172.377	-0.394	0.016
-344.406	8.322	-0.347	-0.339
-343.391	-200.000	0.001	-0.355
-342.377	-200.000	0.017	-0.362
-341.362	-46.332	-0.273	-0.174
-340.348	12.541	-0.103	-0.103
-339.333	800.000	-0.059	-0.252
-338.318	-105.772	0.527	-0.154
-337.304	147.593	-0.247	-0.434
-336.289	-168.777	0.232	-0.011
-335.275	-52.458	-0.115	-0.069
-334.260	27.981	-0.197	0.216
-333.245	-66.192	0.465	0.240
-332.231	-200.000	-0.041	-0.351
-331.216	17.931	0.286	-0.296
-330.202	-80.434	0.309	0.133
-329.187	-32.085	0.078	0.057
-328.172	-20.373	-0.143	-0.114
-327.158	-19.587	-0.280	0.225
-326.143	-150.198	-0.363	-0.036
-325.129	-158.610	-0.131	-0.010
-324.114	480.562	0.058	-0.171
-323.099	370.953	0.122	-0.322
-322.085	-35.619	-0.364	0.256
-321.070	-135.845	-0.278	-0.042
-320.056	-106.120	0.498	-0.144
-319.041	800.000	-0.113	0.526
-318.026	-200.000	0.052	-0.374
-317.012	136.854	0.066	-0.112
-315.997	193.446	0.183	-0.360
-314.983	36.344	0.117	0.134
-313.968	800.000	-0.163	0.601
-312.953	-55.192	-0.418	0.243
-311.939	-8.236	0.103	-0.090
-310.924	185.374	0.217	0.420
-309.910	800.000	0.090	0.452
-308.895	-200.000	0.028	0.211
-307.880	51.515	-0.199	-0.246
-306.866	-200.000	-0.027	0.202
-305.851	800.000	0.061	-0.346
-304.837	-149.948	0.134	-0.013
-303.822	8.049	0.157	-0.153
-302.807	259.579	0.047	0.107
-301.793	-169.641	-0.035	-0.002
-300.778	407.469	-0.082	-0.225
-299.764	-200.000	-0.011	-0.207
-298.749	335.088	0.180	-0.454
-297.735	800.000	0.047	-0.262
-296.720	-195.829	-0.411	-0.004
-295.705	-138.595	-0.302	0.043
-294.691	-34.698	-0.424	0.300
-293.676	15.664	-0.215	-0.219
-292.662	-41.600	0.435	-0.289
-291.647	23.058	0.381	-0.405
-290.632	-200.000	0.046	0.449
-289.618	-63.641	0.158	0.084
-288.603	-29.900	-0.328	0.242
-287.589	38.407	-0.138	0.159
-286.574	-136.490	-0.154	0.023
-285.559	800.000	-0.065	-0.336
-284.545	129.108	-0.020	0.034
-283.530	430.036	0.119	0.335
-282.516	222.083	-0.053	0.112
-281.501	627.374	0.095	-0.312
-280.486	-6.943	0.182	-0.160
-279.472	-146.885	0.301	-0.033
-278.457	-107.815	0.374	0.105
-277.443	-140.796	0.239	0.032
-276.428	-118.495	-0.107	0.024
-275.413	-30.313	0.125	-0.092
-274.399	51.948	0.215	-0.266
-273.384	-110.610	0.347	-0.092
-272.370	-130.575	-0.253	0.044
-271.355	88.403	0.093	0.135
-270.340	-139.677	-0.426	-0.058
-269.326	621.333	-0.046	0.150
-268.311	407.826	-0.133	0.367
-267.297	94.999	0.035	-0.052
-266.282	-181.854	0.172	0.004
-265.267	224.363	-0.213	0.448
-264.253	-158.813	0.272	0.020
-263.238	-154.344	0.307	0.026
-262.224	-123.577	-0.383	-0.078
-261.209	292.916	0.058	-0.138
-260.195	428.678	-0.130	0.365
-259.180	-63.915	-0.443	0.234
-258.165	150.296	0.228	0.402
-257.151	578.650	-0.047	0.150
-256.136	79.849	-0.289	-0.402
-255.122	-200.000	-0.082	-0.942
-254.107	27.393	-0.349	-0.380
-253.092	132.974	-0.404	0.678
-252.078	-161.104	0.251	-0.017
-251.063	-31.546	0.199	-0.144
-250.049	-200.000	-0.025	-0.168
-249.034	20.684	-0.275	-0.288
-248.019	-200.000	0.075	0.514
-247.005	-27.209	0.177	0.133
-245.990	-110.499	0.490	-0.131
-244.976	-120.851	0.483	0.104
-243.961	39.405	-0.195	0.227
-242.946	204.338	0.027	0.055
-241.932	343.234	0.030	-0.077
-240.917	427.635	0.130	0.364
-239.903	14.416	-0.135	-0.137
-238.888	-80.525	0.230	0.099
-237.873	117.615	-0.053	0.085
-236.859	631.265	0.091	-0.300
-235.844	46.148	-0.050	-0.059
-234.830	-200.000	0.018	0.180
-233.815	800.000	-0.115	0.483
-232.800	-0.742	0.378	0.346
-231.786	-31.409	-0.074	0.054
-230.771	205.090	-0.084	-0.169
-229.757	800.000	-0.028	-0.136
-228.742	-200.000	0.003	0.164
-227.727	-18.646	0.127	0.102
-226.713	800.000	-0.066	0.257
-225.698	-200.000	-0.391	0.001
-224.684	-26.960	0.147	0.111
-223.669	289.688	0.137	0.324
-222.655	-124.159	0.512	0.103
-221.640	-109.590	-0.236	-0.064
-220.625	27.412	-0.287	-0.312
-219.611	-200.000	0.002	-0.160
-218.596	-146.008	-0.425	-0.048
-217.582	-62.753	-0.447	-0.239
-216.567	-24.984	0.285	-0.218
-215.552	293.441	0.184	0.437
-214.538	11.195	0.396	0.392
-213.523	244.093	0.140	-0.305
-212.509	203.609	-0.201	0.403
-211.494	-167.840	0.251	0.013
-210.479	-200.000	-0.023	-0.159
-209.465	175.809	0.170	0.319
-208.450	-43.814	0.388	-0.252
-207.436	132.073	-0.390	-0.652
-206.421	-103.884	0.855	0.257
-205.406	303.231	0.118	0.285
-204.392	333.971	-0.162	-0.408
-203.377	-71.258	0.252	-0.122
-202.363	-70.280	0.093	-0.045
-201.348	6.068	0.272	-0.261
-200.333	800.000	0.070	0.298
-199.319	-200.000	-0.056	0.545
-198.304	-177.557	-0.191	-0.006
-197.290	-6.548	-0.238	0.209
-196.275	75.553	-0.014	0.019
-195.260	-135.749	-0.122	-0.019
-194.246	-102.849	0.481	-0.147
-193.231	203.428	0.118	0.238
-192.217	258.493	0.141	-0.315
-191.202	-76.959	0.754	0.339
-190.187	238.237	-0.139	-0.299
-189.173	800.000	0.077	-0.278
-188.158	800.000	-0.074	0.326
-187.144	-135.483	0.196	-0.030
-186.129	733.014	-0.107	0.374
-185.114	142.493	0.129	-0.222
-184.100	-20.974	-0.373	-0.295
-183.085	349.822	0.162	0.414
-182.071	80.139	0.216	0.300
-181.056	250.940	0.200	-0.440
-180.042	-200.000	0.007	-0.195
-179.027	-123.388	-0.224	0.046
-178.012	800.000	0.148	0.602
-176.998	-200.000	0.001	0.216
-175.983	-71.359	-0.280	-0.135
-174.969	800.000	-0.041	0.201
-173.954	-124.184	-0.488	-0.098
-172.939	-110.434	-0.245	0.065
-171.925	-152.896	-0.322	0.029
-170.910	68.238	0.307	0.406
-169.896	800.000	-0.090	0.332
-168.881	-107.972	-0.367	0.102
-167.866	-153.668	0.447	0.039
-166.852	11.107	0.479	-0.472
-165.837	-104.537	0.382	-0.113
-164.823	45.432	0.326	0.389
-163.808	113.619	0.148	0.232
-162.793	-200.000	0.054	0.376
-161.779	684.008	-0.055	-0.185
-160.764	291.116	-0.092	-0.216
-159.750	429.415	-0.076	0.213
-158.735	-162.603	0.228	-0.014
-157.720	275.747	0.019	0.043
-156.706	-125.767	-0.289	0.056
-155.691	259.504	0.098	-0.219
-154.677	-139.887	-0.132	0.018
-153.662	22.841	-0.246	-0.260
-152.647	-34.542	0.424	-0.299
-151.633	-122.898	-0.623	0.128
-150.618	-200.000	-0.031	-0.255
-149.604	-14.161	0.185	0.154
-148.589	730.327	0.119	0.413
-147.574	-111.951	0.378	-0.098
-146.560	621.172	-0.087	0.285
-145.545	165.842	0.075	0.138
-144.531	800.000	-0.121	0.444
-143.516	145.364	-0.201	-0.348
-142.502	-67.752	0.156	-0.078
-141.487	-157.504	-0.214	0.016
-140.472	158.232	-0.095	0.171
-139.458	-117.321	-0.211	-0.049
-138.443	-200.000	0.012	-0.244
-137.429	96.006	-0.113	-0.167
-136.414	-181.498	-0.198	-0.005
-135.399	71.883	0.033	0.044
-134.385	22.543	-0.443	0.467
-133.370	-16.663	-0.140	-0.114
-132.356	406.950	-0.120	0.327
-131.341	3.211	0.305	0.286
-130.326	-173.444	-0.076	-0.003
-129.312	800.000	-0.113	0.470
-128.297	36.451	0.153	-0.174
-127.283	-92.905	0.443	-0.159
-126.268	125.936	0.060	0.097
-125.253	10.270	-0.318	-0.311
-124.239	52.037	-0.030	-0.037
-123.224	-200.000	-0.053	-0.317
-122.210	800.000	-0.051	0.226
-121.195	800.000	0.084	0.344
