DTS Sentinel unit serial number:	SN409020Multiplexer serial number:	ORYXHardware model number:	OX4-SRSoftware version number:	ORYX F/W v3.00 Oryx Data Collector v3.7.2.0data status	okinstallation	HaddamTimeLapsedifferential loss correction	single-endedforward channel	channel 3reverse channel	N/Adate	2011/06/21time	17:26:17forward acquisition time	30.00reverse acquisition time	0.00gamma	498.7831k internal	0.1817k external	0.1817temperature offset calibration	1.0074default loss term (dB/km)	0.3790temperature slope calibration	1.3530multiplexer offset coefficient	1.0000multiplexer slope coefficient	1.0000fibre end	0.00T internal ref (°C)	33.91T ext. ref 1 (°C)	28.82T ext. ref 2 (°C)	0.26length (m)	temperature (°C)	Stokes	anti-Stokes-747.200	-200.000	-0.024	-0.611
-746.185	800.000	-0.066	0.316
-745.171	439.546	-0.133	0.373
-744.156	594.730	0.082	-0.260
-743.142	-200.000	0.007	0.274
-742.127	-105.347	0.380	-0.110
-741.112	-15.414	-0.190	-0.155
-740.098	262.637	0.274	0.610
-739.083	-200.000	-0.029	-0.200
-738.069	301.714	0.186	0.443
-737.054	-200.000	-0.004	0.205
-736.039	-60.611	-0.231	0.125
-735.025	76.531	-0.073	-0.100
-734.010	-100.885	-0.252	-0.079
-732.996	-33.481	0.099	-0.070
-731.981	-200.000	-0.011	-0.162
-730.966	-200.000	-0.014	0.119
-729.952	-129.086	0.249	0.044
-728.937	127.620	0.124	-0.201
-727.923	-200.000	-0.021	-0.514
-726.908	-118.837	-0.129	-0.029
-725.894	315.549	-0.186	0.451
-724.879	81.152	-0.451	-0.623
-723.864	53.387	0.176	-0.216
-722.850	280.499	0.258	0.592
-721.835	414.887	0.109	0.297
-720.821	-200.000	0.046	0.300
-719.806	320.447	-0.099	0.241
-718.791	313.030	0.088	0.213
-717.777	118.002	-0.043	0.068
-716.762	-106.168	0.356	0.102
-715.748	101.783	0.148	-0.221
-714.733	-110.480	0.237	-0.062
-713.718	3.409	-0.240	0.223
-712.704	800.000	-0.081	0.345
-711.689	-116.548	0.186	0.043
-710.675	-120.874	-0.568	-0.121
-709.660	800.000	-0.037	-0.168
-708.645	-147.961	0.317	-0.033
-707.631	80.868	0.383	0.529
-706.616	161.716	0.277	0.497
-705.602	-96.138	-0.171	-0.058
-704.587	-200.000	-0.043	-0.318
-703.572	-22.253	0.206	-0.160
-702.558	-57.006	0.271	-0.152
-701.543	-80.526	0.251	-0.106
-700.529	-20.392	0.035	-0.028
-699.514	49.918	0.185	-0.223
-698.499	800.000	0.063	0.301
-697.485	93.373	0.180	0.260
-696.470	297.190	0.173	-0.408
-695.456	59.233	0.266	0.335
-694.441	-200.000	0.004	-0.127
-693.426	-200.000	-0.002	0.216
-692.412	-7.308	0.033	-0.029
-691.397	4.998	0.086	-0.081
-690.383	-67.033	-0.305	0.153
-689.368	221.836	0.096	0.199
-688.354	426.478	0.023	-0.064
-687.339	-136.040	0.409	0.061
-686.324	800.000	0.006	0.028
-685.310	-143.444	-0.159	-0.019
-684.295	76.276	-0.096	-0.130
-683.281	116.010	-0.294	0.461
-682.266	-13.744	-0.107	0.089
-681.251	-111.998	0.224	-0.057
-680.237	800.000	-0.107	-0.450
-679.222	92.233	0.101	0.145
-678.208	-145.817	0.223	-0.025
-677.193	-32.500	0.125	-0.089
-676.178	76.858	0.207	-0.280
-675.164	800.000	0.026	-0.120
-674.149	-29.808	-0.070	0.051
-673.135	-200.000	0.004	0.027
-672.120	269.212	0.202	0.453
-671.105	-58.415	0.288	0.159
-670.091	-149.434	0.264	-0.026
-669.076	-13.460	0.383	0.317
-668.062	-170.863	-0.397	0.017
-667.047	-42.598	-0.339	0.220
-666.032	-200.000	-0.009	-0.134
-665.018	-164.493	-0.164	0.009
-664.003	537.250	0.170	0.519
-662.989	800.000	0.047	0.222
-661.974	-60.776	0.107	-0.058
-660.959	-72.928	-0.293	-0.137
-659.945	-200.000	0.020	-0.134
-658.930	-155.044	-0.210	-0.017
-657.916	-200.000	0.010	-0.223
-656.901	-91.308	-0.248	0.090
-655.886	51.405	0.045	-0.054
-654.872	73.048	-0.210	0.280
-653.857	-31.593	-0.199	0.143
-652.843	-188.627	-0.503	-0.008
-651.828	-98.553	-0.155	-0.050
-650.814	-200.000	-0.066	0.463
-649.799	-194.851	0.353	0.003
-648.784	-87.663	-0.673	0.258
-647.770	10.989	0.052	-0.050
-646.755	109.173	-0.228	0.349
-645.741	-25.084	-0.269	-0.203
-644.726	800.000	0.086	0.380
-643.711	-52.094	-0.166	-0.098
-642.697	-51.795	0.095	-0.056
-641.682	-200.000	-0.006	-0.264
-640.668	-120.416	0.619	0.133
-639.653	800.000	0.074	-0.398
-638.638	198.489	-0.064	-0.126
-637.624	-29.095	0.201	-0.146
-636.609	169.470	-0.108	-0.198
-635.595	-63.863	0.046	0.024
-634.580	484.796	-0.124	-0.362
-633.565	-37.471	0.194	0.131
-632.551	-55.694	-0.312	-0.177
-631.536	-200.000	0.016	-0.307
-630.522	109.380	-0.318	0.486
-629.507	-86.750	0.440	-0.171
-628.492	800.000	-0.028	0.150
-627.478	29.182	0.203	-0.220
-626.463	-55.328	0.600	-0.342
-625.449	-83.057	-0.322	0.132
-624.434	-92.233	0.304	0.109
-623.419	-200.000	0.047	-0.313
-622.405	-122.328	-0.132	0.027
-621.390	-200.000	-0.013	0.148
-620.376	-75.125	0.127	0.058
-619.361	-200.000	0.038	-0.298
-618.346	98.061	-0.056	-0.082
-617.332	-76.831	0.343	-0.152
-616.317	-17.949	-0.107	0.085
-615.303	-143.249	-0.571	0.069
-614.288	-127.066	-0.189	0.035
-613.273	-200.000	0.035	-0.209
-612.259	-8.085	0.342	0.293
-611.244	-200.000	0.060	-0.400
-610.230	76.422	-0.143	-0.194
-609.215	-145.581	-0.132	-0.015
-608.201	83.862	-0.087	-0.121
-607.186	-102.430	0.555	-0.168
-606.171	800.000	0.088	0.477
-605.157	87.879	0.165	0.234
-604.142	118.726	-0.199	0.314
-603.128	-119.182	-0.167	0.037
-602.113	-47.470	-0.538	-0.332
-601.098	-43.736	-0.445	-0.285
-600.084	-67.892	-0.335	-0.166
-599.069	17.187	-0.186	-0.188
-598.055	132.079	-0.143	0.234
-597.040	208.467	-0.050	-0.100
-596.025	-136.055	0.109	0.016
-595.011	-154.638	0.351	-0.029
-593.996	104.810	0.205	-0.308
-592.982	-126.803	0.505	0.094
-591.967	-85.437	0.089	0.035
-590.952	-14.182	-0.108	-0.088
-589.938	-82.982	-0.302	-0.123
-588.923	663.429	0.111	-0.366
-587.909	80.458	-0.231	-0.317
-586.894	34.394	-0.303	-0.336
-585.879	-200.000	0.058	-0.388
-584.865	-146.017	0.771	-0.086
-583.850	800.000	0.207	-0.764
-582.836	-106.364	0.207	-0.059
-581.821	-68.968	-0.291	-0.142
-580.806	-78.381	-0.285	-0.124
-579.792	10.611	-0.342	0.331
-578.777	-58.613	-0.112	0.062
-577.763	-169.423	0.283	0.013
-576.748	-138.449	-0.085	-0.012
-575.733	-54.231	-0.107	-0.062
-574.719	-83.596	-0.233	-0.094
-573.704	55.585	0.204	-0.251
-572.690	51.897	0.115	-0.140
-571.675	-41.728	-0.069	-0.045
-570.661	-96.997	-0.438	-0.145
-569.646	419.655	0.089	-0.243
-568.631	-149.815	-0.548	0.054
-567.617	-145.996	0.634	-0.071
-566.602	268.949	-0.219	0.490
-565.588	33.261	-0.116	0.127
-564.573	397.760	-0.048	-0.128
-563.558	-169.160	0.305	0.014
-562.544	161.747	-0.269	0.480
-561.529	-104.239	0.268	-0.079
-560.515	-170.168	-0.311	0.014
-559.500	-62.894	-0.090	0.047
-558.485	-82.426	-0.122	-0.050
-557.471	86.421	0.250	0.351
-556.456	-89.910	0.195	0.072
-555.442	-45.459	0.229	0.144
-554.427	145.576	0.069	0.118
-553.412	-200.000	0.013	-0.596
-552.398	-14.320	0.241	-0.197
-551.383	13.128	-0.409	-0.402
-550.369	4.718	0.024	0.022
-549.354	-113.272	-0.226	0.056
-548.339	-175.967	-0.434	-0.014
-547.325	-27.277	-0.408	-0.301
-546.310	-200.000	-0.024	-0.346
-545.296	23.745	-0.091	-0.096
-544.281	204.221	0.139	-0.275
-543.266	800.000	0.034	0.172
-542.252	-47.844	-0.268	0.165
-541.237	-79.069	0.213	0.091
-540.223	-74.683	0.320	-0.145
-539.208	-171.883	0.557	0.023
-538.193	-8.676	0.087	0.074
-537.179	95.860	0.118	0.171
-536.164	-74.783	0.195	0.089
-535.150	-70.890	0.651	-0.310
-534.135	582.374	0.087	-0.273
-533.121	-37.997	-0.022	-0.015
-532.106	-73.590	0.194	0.089
-531.091	-109.014	0.321	-0.086
-530.077	669.452	0.115	0.381
-529.062	114.451	0.189	0.293
-528.048	-82.083	-0.457	-0.189
-527.033	-200.000	-0.033	-0.210
-526.018	-102.541	0.130	0.039
-525.004	-35.168	0.386	0.266
-523.989	429.923	-0.011	-0.031
-522.975	11.544	0.240	0.234
-521.960	449.487	-0.107	-0.300
-520.945	-125.814	-0.364	0.069
-519.931	-48.978	0.359	-0.217
-518.916	142.641	-0.143	0.241
-517.902	-75.693	0.219	0.098
-516.887	-200.000	0.027	0.442
-515.872	423.878	0.076	0.209
-514.858	112.535	-0.167	0.258
-513.843	800.000	0.079	0.286
-512.829	800.000	0.041	0.171
-511.814	132.887	0.126	-0.207
-510.799	259.786	-0.210	-0.463
-509.785	-58.570	-0.212	0.116
-508.770	-160.808	-0.237	-0.016
-507.756	-179.264	0.288	-0.008
-506.741	-102.515	-0.603	-0.182
-505.726	164.865	0.105	-0.188
-504.712	800.000	0.071	-0.312
-503.697	529.637	-0.160	0.483
-502.683	218.659	-0.125	0.255
-501.668	-101.019	-0.830	-0.257
-500.653	-169.907	-0.154	0.007
-499.639	-10.110	0.143	-0.121
-498.624	13.799	-0.265	0.261
-497.610	179.865	-0.095	0.176
-496.595	51.228	-0.280	0.338
-495.581	114.208	-0.112	-0.174
-494.566	-94.901	0.137	-0.047
-493.551	-71.104	0.168	0.080
-492.537	148.843	-0.077	0.133
-491.522	-53.386	-0.233	-0.135
-490.508	41.285	-0.133	0.152
-489.493	146.423	-0.252	-0.430
-488.478	-90.032	-0.185	0.068
-487.464	252.136	0.080	-0.174
-486.449	-120.871	0.279	-0.059
-485.435	-92.902	-0.228	-0.080
-484.420	646.639	-0.081	0.265
-483.405	-51.613	-0.210	0.124
-482.391	-112.537	0.042	0.011
-481.376	-200.000	0.057	0.443
-480.362	-145.154	0.167	-0.019
-479.347	10.049	0.238	0.229
-478.332	-17.274	-0.100	0.079
-477.318	-174.258	0.176	0.006
-476.303	75.098	0.348	-0.465
-475.289	-160.407	-0.430	-0.029
-474.274	-34.052	0.461	-0.321
-473.259	-102.628	0.029	0.009
-472.245	-98.056	-0.448	-0.145
-471.230	-37.037	0.304	-0.206
-470.216	4.745	0.335	-0.312
-469.201	-200.000	0.102	0.572
-468.186	-148.687	-0.322	0.033
-467.172	-20.937	0.173	-0.134
-466.157	-134.120	0.034	-0.005
-465.143	-111.307	0.327	0.084
-464.128	-197.111	0.356	-0.003
-463.113	-200.000	-0.041	0.391
-462.099	-87.102	0.053	0.020
-461.084	800.000	0.082	-0.311
-460.070	-90.564	0.568	-0.207
-459.055	-134.374	0.497	0.076
-458.040	-200.000	0.024	-0.311
-457.026	77.926	-0.166	-0.225
-456.011	405.013	-0.251	-0.674
-454.997	-180.619	-0.305	-0.008
-453.982	-97.682	-0.111	0.036
-452.968	-92.935	0.350	0.123
-451.953	20.628	-0.085	0.087
-450.938	236.352	-0.014	0.029
-449.924	-200.000	-0.025	-0.317
-448.909	-172.732	-0.083	0.003
-447.895	135.521	0.129	-0.212
-446.880	47.560	-0.338	-0.399
-445.865	6.958	-0.155	-0.146
-444.851	179.718	0.222	-0.413
-443.836	55.138	0.044	0.054
-442.822	-157.578	0.240	0.018
-441.807	-1.870	0.210	-0.187
-440.792	-67.261	0.316	-0.157
-439.778	238.730	-0.150	-0.316
-438.763	-135.499	-0.527	0.079
-437.749	-42.487	-0.282	-0.181
-436.734	189.088	-0.048	-0.091
-435.719	23.226	0.341	0.354
-434.705	33.547	-0.218	0.239
-433.690	-119.251	-0.141	0.031
-432.676	263.436	0.105	0.232
-431.661	-36.756	0.427	-0.289
-430.646	800.000	0.054	-0.228
-429.632	-145.417	0.221	-0.025
-428.617	-154.791	0.157	0.013
-427.603	55.188	0.150	0.183
-426.588	-116.750	-0.222	-0.051
-425.573	23.961	0.064	-0.067
-424.559	-146.875	-0.077	-0.008
-423.544	114.690	-0.283	0.436
-422.530	-19.465	0.213	-0.166
-421.515	-109.703	0.241	0.064
-420.500	-103.499	-0.134	0.039
-419.486	-200.000	-0.061	0.392
-418.471	497.060	0.116	-0.338
-417.457	-150.649	-0.367	-0.035
-416.442	-13.356	0.336	0.276
-415.428	-102.685	0.595	0.178
-414.413	225.009	-0.065	0.133
-413.398	-7.015	-0.065	-0.056
-412.384	-39.369	0.234	0.155
-411.369	-123.589	0.416	-0.083
-410.355	800.000	-0.039	0.182
-409.340	-16.301	-0.136	-0.109
-408.325	-200.000	-0.013	-0.204
-407.311	-183.245	-0.097	0.002
-406.296	-185.604	0.363	-0.007
-405.282	-200.000	-0.006	0.043
-404.267	16.582	-0.085	0.085
-403.252	-101.911	-0.115	-0.035
-402.238	-167.207	-0.079	-0.004
-401.223	176.029	-0.238	-0.438
-400.209	800.000	-0.121	0.620
-399.194	-154.406	0.242	0.020
-398.179	126.859	0.122	0.196
-397.165	162.357	-0.062	-0.109
-396.150	-104.716	0.101	-0.029
-395.136	800.000	-0.051	0.275
-394.121	-129.591	0.539	-0.093
-393.106	-142.087	0.277	0.034
-392.092	280.262	-0.149	-0.338
-391.077	-176.630	0.073	-0.002
-390.063	-121.767	-0.163	-0.034
-389.048	-141.392	-0.310	-0.039
-388.033	-39.745	-0.309	-0.204
-387.019	-200.000	-0.019	-0.160
-386.004	83.927	-0.107	-0.148
-384.990	-80.506	0.276	0.116
-383.975	6.113	-0.287	0.268
-382.960	198.906	0.177	0.343
-381.946	800.000	-0.121	-0.428
-380.931	-45.849	0.416	-0.258
-379.917	-7.265	0.168	-0.143
-378.902	-200.000	-0.002	-0.883
-377.888	748.834	0.118	-0.402
-376.873	-76.851	-0.168	0.074
-375.858	-139.885	0.290	0.038
-374.844	-198.331	0.113	0.001
-373.829	-21.077	-0.052	-0.040
-372.815	-94.787	-0.293	0.100
-371.800	-129.053	0.686	-0.120
-370.785	-145.154	0.205	-0.023
-369.771	21.393	-0.265	-0.272
-368.756	188.537	-0.222	-0.421
-367.742	-200.000	-0.017	0.268
-366.727	340.100	0.182	-0.450
-365.712	-9.623	-0.093	0.078
-364.698	-52.246	0.204	-0.119
-363.683	-33.244	-0.245	-0.171
-362.669	-82.873	0.127	0.051
-361.654	-50.067	-0.264	0.158
-360.639	-119.681	-0.213	0.046
-359.625	145.109	0.192	0.325
-358.610	-93.325	0.583	0.203
-357.596	-99.551	0.183	0.058
-356.581	98.504	-0.120	-0.175
-355.566	475.450	0.039	-0.112
-354.552	-106.578	0.399	-0.111
-353.537	800.000	-0.084	0.458
-352.523	-26.913	-0.079	0.058
-351.508	166.450	-0.271	0.486
-350.493	42.822	-0.327	0.376
-349.479	66.861	-0.144	-0.186
-348.464	219.277	-0.151	-0.305
-347.450	-104.710	-0.583	0.168
-346.435	-103.704	-0.168	-0.049
-345.420	-84.147	0.706	-0.281
-344.406	800.000	-0.089	0.324
-343.391	-200.000	-0.011	0.300
-342.377	1.459	0.321	0.291
-341.362	-103.012	0.314	-0.093
-340.348	-33.544	0.491	0.341
-339.333	121.505	-0.186	0.293
-338.318	-157.250	-0.269	-0.020
-337.304	-200.000	-0.015	-0.186
-336.289	183.905	-0.022	-0.042
-335.275	-111.486	0.506	-0.129
-334.260	-108.418	-0.196	-0.053
-333.245	-56.636	-0.537	0.298
-332.231	6.606	-0.089	-0.083
-331.216	-152.731	-0.184	0.016
-330.202	800.000	0.044	0.179
-329.187	291.926	-0.094	0.216
-328.172	50.996	0.389	0.465
-327.158	800.000	0.075	-0.344
-326.143	-81.517	0.641	-0.264
-325.129	130.310	-0.137	-0.222
-324.114	38.053	0.102	-0.114
-323.099	-174.289	0.187	0.007
-322.085	-121.643	0.056	0.012
-321.070	89.966	-0.148	-0.208
-320.056	-92.290	-0.238	-0.084
-319.041	112.181	-0.134	0.204
-318.026	-142.756	0.424	-0.051
-317.012	-9.525	-0.352	0.295
-315.997	-171.225	-0.304	0.013
-314.983	-132.194	0.362	0.059
-313.968	-42.613	0.343	-0.219
-312.953	-118.979	-0.212	-0.046
-311.939	-200.000	0.020	-0.233
-310.924	5.131	0.237	0.220
-309.910	-144.773	0.199	0.023
-308.895	800.000	-0.014	-0.058
-307.880	247.132	-0.075	0.159
-306.866	509.696	-0.146	0.429
-305.851	800.000	0.068	0.280
-304.837	-2.335	-0.463	0.409
-303.822	-200.000	0.007	-0.044
-302.807	86.624	-0.106	-0.147
-301.793	-200.000	0.030	-0.205
-300.778	-170.712	-0.375	-0.016
-299.764	-42.548	-0.172	-0.110
-298.749	-76.174	-0.658	0.291
-297.735	800.000	-0.090	0.339
-296.720	295.404	0.156	0.361
-295.705	-6.062	0.211	-0.181
-294.691	-19.489	0.295	0.230
-293.676	-80.052	0.163	-0.068
-292.662	-131.295	-0.032	-0.005
-291.647	-80.295	-0.229	-0.096
-290.632	-168.424	-0.460	0.022
-289.618	-48.693	-0.257	-0.155
-288.603	800.000	0.095	-0.379
-287.589	-104.864	-0.145	0.042
-286.574	239.447	0.133	0.279
-285.559	-21.470	0.075	-0.057
-284.545	84.555	0.197	-0.271
-283.530	-200.000	-0.014	0.189
-282.516	53.843	-0.209	0.253
-281.501	427.654	-0.198	0.541
-280.486	800.000	-0.057	0.309
-279.472	-76.253	-0.095	0.042
-278.457	-33.797	0.489	0.338
-277.443	-200.000	0.013	0.586
-276.428	-171.814	-0.087	-0.004
-275.413	458.155	-0.100	0.281
-274.399	220.897	0.202	-0.410
-273.384	607.033	-0.056	0.176
-272.370	192.461	-0.031	0.060
-271.355	-74.860	-0.122	0.055
-270.340	123.656	-0.369	-0.583
-269.326	244.384	-0.154	0.327
-268.311	-21.366	-0.346	-0.265
-267.297	542.052	-0.119	0.357
-266.282	-157.126	0.553	-0.042
-265.267	402.549	-0.058	-0.155
-264.253	-200.000	0.004	0.258
-263.238	-73.461	0.650	-0.297
-262.224	125.099	0.087	-0.138
-261.209	-160.786	-0.410	-0.027
-260.195	533.931	-0.134	0.402
-259.180	717.229	0.127	0.427
-258.165	-200.000	-0.071	0.535
-257.151	1.013	0.141	-0.127
-256.136	-197.698	0.302	0.002
-255.122	229.088	0.117	0.240
-254.107	-151.921	0.301	0.027
-253.092	-93.074	-0.167	0.058
-252.078	-159.748	0.340	0.023
-251.063	-40.835	0.470	0.305
-250.049	-176.870	-0.225	0.007
-249.034	-123.630	-0.386	-0.076
-248.019	-153.403	-0.410	-0.035
-247.005	650.249	0.147	-0.476
-245.990	-200.000	0.045	-0.427
-244.976	-111.902	-0.303	-0.076
-243.961	-113.843	0.199	-0.048
-242.946	67.268	-0.078	-0.100
-241.932	190.216	0.164	0.311
-240.917	-200.000	-0.022	0.253
-239.903	-48.721	-0.540	0.324
-238.888	-96.265	0.166	0.055
-237.873	-144.203	0.596	-0.069
-236.859	183.041	-0.176	-0.326
-235.844	248.229	-0.182	0.388
-234.830	-54.357	-0.231	-0.131
-233.815	129.820	0.187	0.301
-232.800	-140.979	-0.527	0.067
-231.786	-163.935	-0.195	-0.011
-230.771	-106.969	-0.340	0.094
-229.757	-115.448	-0.209	-0.049
-228.742	25.127	0.160	0.167
-227.727	-138.645	-0.274	-0.037
-226.713	-74.750	-0.394	-0.177
-225.698	800.000	-0.169	0.631
-224.684	-104.194	-0.455	0.132
-223.669	8.112	-0.601	0.566
-222.655	107.448	-0.158	0.236
-221.640	-41.134	0.227	-0.146
-220.625	-159.104	0.582	-0.041
-219.611	-69.948	-0.059	0.028
-218.596	-116.433	-0.350	-0.080
-217.582	188.594	0.120	0.226
-216.567	38.722	0.426	0.476
-215.552	486.123	-0.170	-0.487
-214.538	-200.000	-0.011	-0.218
-213.523	192.267	0.142	0.269
-212.509	-51.934	0.326	0.190
-211.494	-101.759	0.302	-0.091
-210.479	-83.151	-0.288	0.115
-209.465	82.564	0.206	0.281
-208.450	-183.506	-0.195	-0.004
-207.436	418.601	0.126	-0.341
-206.421	800.000	0.074	-0.288
-205.406	800.000	-0.105	-0.511
-204.392	281.050	0.140	0.314
-203.377	732.359	0.188	-0.633
-202.363	-123.881	-0.289	0.057
-201.348	205.546	-0.084	0.164
-200.333	-127.146	-0.173	0.031
-199.319	1.999	0.324	-0.293
-198.304	300.962	-0.105	0.244
-197.290	800.000	0.024	0.115
-196.275	-30.595	0.063	0.044
-195.260	-200.000	-0.008	0.190
-194.246	795.507	-0.032	-0.112
-193.231	105.008	-0.113	0.167
-192.217	-94.682	0.438	-0.148
-191.202	217.560	-0.204	0.408
-190.187	-200.000	0.045	-0.261
-189.173	-60.332	-0.171	-0.091
-188.158	-172.658	0.383	0.015
-187.144	-192.439	0.139	0.002
-186.129	62.274	-0.289	0.361
-185.114	-62.050	0.322	0.168
-184.100	-31.280	-0.051	-0.036
-183.085	-4.834	0.128	0.110
-182.071	-28.045	-0.495	-0.358
-181.056	209.254	-0.116	0.229
-180.042	116.037	0.392	-0.602
-179.027	-27.422	0.219	0.159
-178.012	398.426	-0.135	-0.355
-176.998	-97.896	-0.172	0.055
-175.983	480.655	-0.084	0.239
-174.969	232.249	0.191	-0.395
-173.954	800.000	-0.029	0.146
-172.939	-43.388	-0.218	0.138
-171.925	-83.254	0.300	0.120
-170.910	-200.000	0.008	-0.299
-169.896	-200.000	-0.023	-0.345
-168.881	40.434	0.101	0.114
-167.866	-41.847	-0.418	0.268
-166.852	-66.936	0.427	0.210
-165.837	-114.733	-0.153	0.036
-164.823	188.097	-0.153	0.287
-163.808	45.071	0.246	0.284
-162.793	-71.744	-0.507	-0.236
-161.779	-200.000	-0.019	0.326
-160.764	83.527	-0.208	-0.285
-159.750	34.355	-0.339	0.370
-158.735	-200.000	0.040	0.588
-157.720	-200.000	-0.013	-0.210
-156.706	-78.192	0.211	-0.090
-155.691	-43.278	0.149	-0.094
-154.677	-99.490	0.557	-0.174
-153.662	29.557	-0.283	0.302
-152.647	-161.693	-0.320	-0.020
-151.633	-78.378	-0.422	0.180
-150.618	-8.317	-0.089	-0.075
-149.604	-121.525	0.636	-0.131
-148.589	800.000	-0.030	-0.133
-147.574	-145.667	-0.372	0.041
-146.560	20.436	-0.261	0.264
-145.545	21.025	-0.252	-0.255
-144.531	-200.000	-0.038	-0.247
-143.516	-200.000	-0.010	0.257
-142.502	-200.000	0.049	-0.343
-141.487	-9.788	0.201	-0.167
-140.472	69.659	-0.043	0.056
-139.458	-73.632	0.489	0.222
-138.443	800.000	0.062	0.227
-137.429	-200.000	0.048	-0.364
-136.414	17.089	0.263	0.260
-135.399	-200.000	-0.034	0.248
-134.385	408.314	0.036	-0.096
-133.370	-10.709	0.060	0.050
-132.356	-104.520	-0.054	0.015
-131.341	-200.000	0.034	-0.557
-130.326	-7.967	0.175	-0.148
-129.312	-200.000	0.074	-0.465
-128.297	-200.000	-0.060	-0.409
-127.283	140.160	0.100	-0.165
-126.268	-200.000	0.001	-0.433
-125.253	-200.000	0.047	-0.317
-124.239	171.475	-0.068	0.123
-123.224	-156.780	-0.395	-0.030
