DTS Sentinel unit serial number:	SN409020Multiplexer serial number:	ORYXHardware model number:	OX4-SRSoftware version number:	ORYX F/W v3.00 Oryx Data Collector v3.7.2.0data status	okinstallation	HaddamTimeLapsedifferential loss correction	single-endedforward channel	channel 3reverse channel	N/Adate	2011/06/22time	10:11:16forward acquisition time	30.00reverse acquisition time	0.00gamma	498.7831k internal	0.1813k external	0.1813temperature offset calibration	1.0074default loss term (dB/km)	0.3790temperature slope calibration	1.3530multiplexer offset coefficient	1.0000multiplexer slope coefficient	1.0000fibre end	0.00T internal ref (°C)	29.47T ext. ref 1 (°C)	26.70T ext. ref 2 (°C)	0.22length (m)	temperature (°C)	Stokes	anti-Stokes-747.200	-141.156	-0.170	-0.022
-746.185	-200.000	-0.038	0.232
-745.171	-200.000	0.041	-0.472
-744.156	-53.203	0.314	0.184
-743.142	76.357	-0.137	0.186
-742.127	24.781	0.254	0.270
-741.112	2.648	-0.286	-0.266
-740.098	95.337	0.247	0.361
-739.083	290.357	-0.111	-0.259
-738.069	800.000	-0.065	0.297
-737.054	-200.000	-0.007	-0.319
-736.039	-49.622	0.084	0.051
-735.025	162.825	0.284	0.512
-734.010	83.549	0.296	0.415
-732.996	11.339	0.107	-0.105
-731.981	-87.079	-0.203	-0.079
-730.966	257.012	-0.213	-0.472
-729.952	261.848	0.218	-0.486
-728.937	-171.620	0.370	0.015
-727.923	-116.759	-0.456	0.107
-726.908	-68.858	-0.162	0.080
-725.894	800.000	0.027	0.115
-724.879	-96.673	-0.096	0.032
-723.864	-157.617	-0.473	-0.036
-722.850	-158.751	0.308	0.022
-721.835	-80.403	0.537	0.229
-720.821	12.138	0.164	-0.162
-719.806	-70.414	-0.061	-0.029
-718.791	-142.584	0.033	-0.004
-717.777	-84.378	-0.314	0.126
-716.762	800.000	-0.077	-0.338
-715.748	-76.349	-0.327	-0.147
-714.733	108.197	-0.104	-0.160
-713.718	94.191	-0.200	-0.292
-712.704	-200.000	-0.057	-0.510
-711.689	170.093	0.037	0.069
-710.675	-200.000	0.022	0.430
-709.660	55.173	0.072	0.090
-708.645	-200.000	-0.007	-0.139
-707.631	-122.096	0.175	-0.036
-706.616	615.534	-0.063	0.203
-705.602	-135.444	-0.341	-0.052
-704.587	800.000	-0.096	0.384
-703.572	-41.765	0.242	-0.159
-702.558	-147.595	0.228	-0.024
-701.543	-9.815	0.246	0.210
-700.529	272.243	-0.060	0.136
-699.514	46.860	0.327	0.389
-698.499	-200.000	-0.026	-0.192
-697.485	-100.860	0.299	0.094
-696.470	-200.000	-0.019	-0.525
-695.456	-200.000	-0.005	-0.385
-694.441	315.641	-0.097	-0.235
-693.426	-7.023	-0.039	-0.034
-692.412	54.757	-0.109	-0.134
-691.397	4.005	-0.169	-0.158
-690.383	-129.328	-0.086	-0.015
-689.368	-95.959	-0.265	-0.090
-688.354	67.900	-0.269	-0.353
-687.339	36.935	-0.088	0.100
-686.324	360.521	0.144	0.370
-685.310	181.842	-0.102	0.194
-684.295	-117.190	-0.502	-0.116
-683.281	-83.798	0.333	-0.135
-682.266	-116.573	-0.316	0.074
-681.251	-89.295	0.330	0.124
-680.237	-53.795	0.301	-0.175
-679.222	-115.033	0.341	-0.082
-678.208	-78.019	-0.428	-0.188
-677.193	-83.620	0.189	-0.077
-676.178	-200.000	-0.023	-0.142
-675.164	-200.000	0.027	0.285
-674.149	800.000	0.087	0.405
-673.135	-106.491	-0.289	0.082
-672.120	-130.299	-0.181	0.031
-671.105	-118.545	-0.357	-0.080
-670.091	-129.945	0.294	-0.051
-669.076	-200.000	0.000	0.058
-668.062	-67.676	-0.113	-0.056
-667.047	53.667	-0.119	-0.146
-666.032	-100.913	0.245	0.077
-665.018	-118.471	0.103	0.023
-664.003	-64.644	0.184	-0.095
-662.989	159.916	-0.155	0.278
-661.974	104.340	-0.355	-0.535
-660.959	32.882	0.164	-0.182
-659.945	454.003	-0.119	0.338
-658.930	317.884	0.176	-0.427
-657.916	-166.066	0.343	0.018
-656.901	-121.316	0.384	-0.081
-655.886	23.559	-0.149	-0.157
-654.872	59.759	0.271	-0.343
-653.857	28.201	0.402	-0.434
-652.843	-67.105	-0.275	0.138
-651.828	-51.219	0.215	-0.128
-650.814	-4.597	0.271	-0.239
-649.799	234.099	-0.072	-0.152
-648.784	-200.000	-0.050	0.302
-647.770	32.183	0.098	0.108
-646.755	-200.000	-0.022	-0.278
-645.741	33.898	0.021	-0.023
-644.726	-33.083	0.189	-0.134
-643.711	2.616	-0.166	0.153
-642.697	-90.024	0.307	-0.114
-641.682	-178.712	-0.072	0.002
-640.668	-28.945	-0.161	0.118
-639.653	-156.046	-0.459	-0.037
-638.638	-135.773	0.302	0.045
-637.624	245.667	0.093	-0.200
-636.609	-3.530	-0.445	0.395
-635.595	125.334	0.088	0.142
-634.580	-73.403	-0.290	-0.135
-633.565	-52.139	-0.343	-0.203
-632.551	180.393	-0.190	-0.358
-631.536	-116.380	0.336	-0.079
-630.522	-64.932	0.196	-0.101
-629.507	-200.000	-0.001	0.045
-628.492	-84.359	-0.118	-0.048
-627.478	-6.813	0.331	0.287
-626.463	-99.674	-0.558	0.178
-625.449	-80.374	-0.178	-0.076
-624.434	78.486	0.208	0.284
-623.419	-139.661	0.194	-0.026
-622.405	171.233	-0.282	-0.517
-621.390	61.895	-0.237	0.301
-620.376	-200.000	0.009	0.051
-619.361	-114.284	0.118	-0.029
-618.346	46.492	-0.133	-0.158
-617.332	-142.899	0.140	0.017
-616.317	713.884	0.047	0.160
-615.303	-135.640	-0.630	-0.094
-614.288	-200.000	0.055	0.363
-613.273	34.397	-0.043	-0.048
-612.259	47.229	0.101	-0.120
-611.244	-73.768	-0.363	0.168
-610.230	67.401	-0.260	0.339
-609.215	800.000	-0.068	0.330
-608.201	-200.000	0.003	-0.087
-607.186	800.000	-0.084	-0.408
-606.171	-72.015	-0.263	0.124
-605.157	36.559	0.231	0.261
-604.142	9.201	-0.173	-0.167
-603.128	-200.000	0.001	0.291
-602.113	-200.000	-0.006	0.200
-601.098	458.786	0.058	-0.165
-600.084	22.388	0.355	0.370
-599.069	235.577	-0.135	0.286
-598.055	800.000	-0.199	0.717
-597.040	-200.000	-0.016	0.225
-596.025	70.743	-0.101	-0.134
-595.011	4.556	0.117	0.110
-593.996	379.006	-0.019	-0.050
-592.982	-79.797	-0.412	0.176
-591.967	-200.000	0.012	0.142
-590.952	-130.758	-0.383	0.065
-589.938	109.033	0.133	0.203
-588.923	-200.000	0.034	0.702
-587.909	419.928	-0.170	0.465
-586.894	-133.743	-0.244	-0.038
-585.879	21.961	0.047	-0.049
-584.865	-100.405	-0.153	-0.048
-583.850	-57.126	-0.239	0.134
-582.836	721.016	0.066	0.227
-581.821	-99.341	-0.200	0.064
-580.806	-200.000	0.001	0.016
-579.792	-64.325	0.147	-0.076
-578.777	-50.187	0.182	-0.110
-577.763	800.000	-0.042	-0.171
-576.748	-155.539	-0.476	-0.039
-575.733	311.855	-0.077	0.184
-574.719	-200.000	-0.005	-0.262
-573.704	15.050	0.133	-0.133
-572.690	172.895	0.240	0.441
-571.675	5.044	0.308	-0.289
-570.661	-48.656	-0.253	0.154
-569.646	-7.425	-0.200	-0.173
-568.631	-61.661	-0.297	0.158
-567.617	128.902	0.277	0.451
-566.602	-12.540	-0.269	-0.224
-565.588	-200.000	0.019	0.155
-564.573	702.537	-0.090	0.304
-563.558	167.729	-0.122	0.222
-562.544	329.102	0.080	0.196
-561.529	800.000	0.042	0.220
-560.515	-200.000	-0.016	-0.093
-559.500	275.189	-0.116	-0.263
-558.485	-114.179	-0.445	-0.109
-557.471	800.000	-0.072	-0.273
-556.456	179.857	0.105	0.196
-555.442	218.765	-0.043	-0.087
-554.427	9.911	-0.293	0.283
-553.412	-99.068	-0.846	-0.271
-552.398	-156.969	-0.220	-0.017
-551.383	-95.652	0.257	-0.087
-550.369	-145.299	0.299	-0.034
-549.354	-124.905	0.372	-0.072
-548.339	-57.218	-0.120	0.067
-547.325	-129.018	-0.298	-0.053
-546.310	-51.145	-0.131	0.078
-545.296	-118.819	0.461	0.102
-544.281	66.751	-0.103	0.134
-543.266	-200.000	-0.002	-0.255
-542.252	-200.000	0.058	0.551
-541.237	479.988	-0.158	0.460
-540.223	93.304	-0.026	0.038
-539.208	800.000	0.086	-0.418
-538.193	18.581	0.282	-0.287
-537.179	408.160	0.107	0.289
-536.164	48.830	0.134	0.161
-535.150	-80.794	0.083	-0.035
-534.135	-8.937	-0.273	-0.232
-533.121	-136.605	0.545	0.079
-532.106	800.000	0.194	-0.777
-531.091	260.118	-0.118	0.260
-530.077	302.094	0.204	-0.482
-529.062	-64.765	0.156	-0.080
-528.048	260.140	-0.034	0.075
-527.033	695.601	0.103	0.347
-526.018	18.458	0.031	-0.031
-525.004	-160.979	-0.123	-0.008
-523.989	-165.798	0.273	0.015
-522.975	-111.800	0.208	-0.053
-521.960	-158.861	0.399	0.029
-520.945	21.625	0.062	0.064
-519.931	-5.677	-0.138	-0.120
-518.916	753.253	-0.105	-0.363
-517.902	470.077	0.105	0.301
-516.887	-14.273	0.106	-0.087
-515.872	800.000	0.032	-0.129
-514.858	-68.899	-0.377	0.184
-513.843	-200.000	-0.028	0.295
-512.829	192.608	0.024	0.046
-511.814	-86.258	-0.632	-0.246
-510.799	-54.107	0.135	-0.078
-509.785	800.000	0.112	-0.410
-508.770	13.137	0.010	0.009
-507.756	-131.345	0.380	-0.063
-506.741	800.000	-0.018	-0.102
-505.726	-160.458	-0.055	0.004
-504.712	4.271	0.312	0.291
-503.697	-200.000	0.009	0.314
-502.683	102.135	-0.048	0.071
-501.668	177.647	0.092	-0.171
-500.653	-42.304	-0.151	0.098
-499.639	800.000	0.017	-0.077
-498.624	-200.000	-0.071	0.668
-497.610	-170.208	0.192	0.008
-496.595	-129.119	-0.371	0.065
-495.581	-200.000	0.080	0.474
-494.566	106.353	-0.159	0.240
-493.551	-79.747	-0.399	-0.170
-492.537	209.297	0.079	-0.157
-491.522	23.793	-0.290	-0.303
-490.508	763.510	0.019	0.067
-489.493	-200.000	-0.005	-0.103
-488.478	-16.452	-0.204	0.164
-487.464	87.509	0.136	0.192
-486.449	51.232	-0.169	-0.203
-485.435	-183.687	-0.251	0.005
-484.420	800.000	0.066	0.241
-483.405	800.000	0.070	-0.334
-482.391	800.000	-0.068	-0.334
-481.376	51.946	0.085	-0.103
-480.362	-123.341	-0.180	-0.036
-479.347	-45.051	-0.252	0.159
-478.332	-122.247	0.717	-0.148
-477.318	-14.046	0.269	-0.220
-476.303	-101.739	0.299	-0.091
-475.289	-16.159	-0.061	0.049
-474.274	471.371	-0.128	-0.368
-473.259	-60.433	-0.241	0.129
-472.245	-200.000	-0.035	0.663
-471.230	-70.476	-0.689	-0.330
-470.216	-116.487	0.183	0.042
-469.201	233.545	0.082	-0.171
-468.186	-36.708	0.468	-0.319
-467.172	-200.000	0.076	0.435
-466.157	-69.957	0.543	-0.262
-465.143	-83.728	0.016	0.006
-464.128	-107.421	-0.112	-0.031
-463.113	-86.128	-0.396	0.154
-462.099	-108.401	0.355	-0.097
-461.084	-98.884	0.294	0.094
-460.070	131.351	0.166	-0.271
-459.055	185.464	-0.222	-0.419
-458.040	148.906	-0.067	0.116
-457.026	-197.997	0.079	-0.001
-456.011	-200.000	0.008	0.399
-454.997	-200.000	0.082	0.462
-453.982	-200.000	0.032	-0.396
-452.968	-152.281	0.340	0.031
-451.953	262.866	-0.104	0.229
-450.938	260.445	-0.187	-0.412
-449.924	-200.000	0.002	0.116
-448.909	62.947	0.162	-0.206
-447.895	-20.047	-0.138	-0.108
-446.880	-50.974	-0.250	0.148
-445.865	9.641	0.166	-0.159
-444.851	-49.882	0.389	0.234
-443.836	-61.836	-0.371	-0.196
-442.822	-200.000	0.050	-0.312
-441.807	-29.105	-0.288	-0.209
-440.792	93.848	-0.151	-0.218
-439.778	573.154	0.079	0.244
-438.763	-130.793	-0.136	0.023
-437.749	16.319	0.138	0.138
-436.734	-106.737	0.511	-0.143
-435.719	-200.000	0.066	-0.375
-434.705	-95.094	-0.359	0.122
-433.690	-156.252	0.316	0.025
-432.676	800.000	-0.128	-0.451
-431.661	-48.806	0.490	-0.297
-430.646	-200.000	0.074	0.684
-429.632	83.644	0.164	0.227
-428.617	-200.000	0.039	-0.398
-427.603	-105.595	-0.236	-0.067
-426.588	-155.401	0.393	0.032
-425.573	745.171	-0.090	0.309
-424.559	224.284	-0.265	-0.545
-423.544	-100.998	0.383	-0.118
-422.530	-150.272	0.277	-0.027
-421.515	-17.711	0.427	-0.339
-420.500	491.480	0.157	-0.456
-419.486	22.494	0.038	-0.039
-418.471	-50.794	0.145	0.086
-417.457	254.232	-0.102	0.221
-416.442	-141.098	-0.425	0.054
-415.428	-5.189	-0.075	0.065
-414.413	-8.050	0.371	0.317
-413.398	800.000	0.146	-0.724
-412.384	-149.352	-0.302	0.030
-411.369	-33.332	-0.167	-0.116
-410.355	-90.585	-0.220	-0.080
-409.340	151.812	-0.188	0.325
-408.325	-134.135	-0.508	0.079
-407.311	-2.653	-0.076	-0.067
-406.296	-84.581	-0.381	0.151
-405.282	-29.993	0.204	0.147
-404.267	42.683	-0.218	-0.252
-403.252	-70.273	0.215	-0.103
-402.238	-17.181	-0.072	-0.058
-401.223	800.000	-0.044	-0.215
-400.209	-151.534	-0.163	-0.015
-399.194	-81.158	0.218	0.091
-398.179	62.061	-0.244	0.308
-397.165	93.798	-0.046	0.067
-396.150	363.155	-0.139	0.356
-395.136	2.437	-0.072	-0.066
-394.121	23.820	0.535	0.558
-393.106	-200.000	0.055	0.481
-392.092	79.364	-0.168	0.228
-391.077	31.007	-0.161	0.174
-390.063	217.213	0.168	-0.340
-389.048	800.000	-0.129	-0.459
-388.033	258.516	0.187	0.409
-387.019	127.722	-0.279	0.449
-386.004	12.310	0.204	-0.199
-384.990	-152.932	0.278	-0.025
-383.975	93.310	-0.200	0.286
-382.960	800.000	0.035	0.160
-381.946	-148.883	0.105	0.011
-380.931	80.359	-0.086	0.117
-379.917	-200.000	-0.055	0.461
-378.902	-132.931	-0.275	0.044
-377.888	-200.000	0.013	0.245
-376.873	800.000	-0.016	-0.068
-375.858	-21.291	-0.465	-0.358
-374.844	-126.122	-0.338	-0.063
-373.829	-200.000	-0.023	-0.285
-372.815	162.619	0.165	0.293
-371.800	-21.533	-0.333	0.256
-370.785	-57.354	-0.261	-0.145
-369.771	422.737	0.221	-0.602
-368.756	109.848	-0.171	-0.259
-367.742	7.611	-0.208	-0.197
-366.727	-10.972	-0.096	-0.080
-365.712	44.038	0.099	0.115
-364.698	-16.734	-0.263	-0.210
-363.683	-21.107	-0.423	-0.326
-362.669	-200.000	-0.007	-0.139
-361.654	794.820	0.093	0.326
-360.639	674.625	0.028	-0.093
-359.625	363.887	0.085	-0.218
-358.610	-200.000	-0.045	-0.628
-357.596	-200.000	0.030	-0.328
-356.581	-0.720	-0.291	0.260
-355.566	-93.267	0.310	-0.108
-354.552	-200.000	0.021	-0.198
-353.537	-126.362	0.358	0.067
-352.523	-128.895	0.070	-0.012
-351.508	-28.738	0.179	0.130
-350.493	346.069	-0.210	0.523
-349.479	577.101	-0.167	-0.520
-348.464	-105.618	0.452	0.128
-347.450	14.209	0.247	-0.243
-346.435	29.349	0.247	0.265
-345.420	107.814	-0.346	-0.521
-344.406	-13.759	0.180	0.147
-343.391	7.235	0.420	0.395
-342.377	-28.129	-0.322	-0.235
-341.362	-200.000	-0.016	-0.131
-340.348	-153.046	-0.109	-0.010
-339.333	-86.703	0.145	-0.056
-338.318	-79.485	-0.124	0.053
-337.304	-147.892	-0.454	-0.047
-336.289	165.233	0.061	-0.110
-335.275	800.000	-0.090	-0.456
-334.260	-72.746	0.120	-0.056
-333.245	0.258	0.130	-0.117
-332.231	-119.735	0.413	-0.089
-331.216	23.799	0.160	0.167
-330.202	111.865	-0.232	-0.354
-329.187	-75.349	-0.358	-0.160
-328.172	212.738	-0.125	-0.251
-327.158	-67.106	0.103	-0.051
-326.143	-119.540	0.317	-0.069
-325.129	-22.705	-0.247	0.188
-324.114	-88.389	-0.129	0.048
-323.099	-101.005	0.731	-0.225
-322.085	-103.667	-0.141	-0.041
-321.070	-145.108	-0.150	0.017
-320.056	-200.000	-0.064	0.382
-319.041	-73.570	0.469	0.215
-318.026	-200.000	0.001	-0.162
-317.012	-200.000	-0.014	-0.485
-315.997	15.921	0.373	0.370
-314.983	800.000	-0.090	0.403
-313.968	-88.112	0.124	-0.047
-312.953	0.122	-0.237	-0.213
-311.939	586.636	0.164	-0.512
-310.924	4.246	0.287	0.265
-309.910	-92.889	0.316	0.111
-308.895	-19.346	0.314	-0.245
-307.880	-121.067	0.372	0.078
-306.866	800.000	-0.044	0.199
-305.851	-10.716	-0.151	-0.126
-304.837	-131.107	-0.718	0.119
-303.822	-200.000	0.003	-0.062
-302.807	541.979	0.089	0.270
-301.793	-135.653	0.360	0.053
-300.778	235.026	0.242	0.505
-299.764	647.572	0.062	-0.200
-298.749	-200.000	-0.004	-0.646
-297.735	403.138	0.110	-0.293
-296.720	800.000	-0.060	-0.274
-295.705	92.341	0.079	-0.112
-294.691	-105.755	0.156	0.044
-293.676	195.676	0.099	0.191
-292.662	-95.201	0.275	-0.093
-291.647	37.197	0.198	-0.221
-290.632	573.141	0.202	-0.625
-289.618	-9.476	-0.089	0.075
-288.603	46.313	-0.242	0.283
-287.589	-46.275	-0.342	0.211
-286.574	131.429	0.260	0.423
-285.559	140.163	-0.083	0.138
-284.545	-55.848	0.131	-0.073
-283.530	97.999	0.096	0.140
-282.516	388.953	0.036	-0.093
-281.501	230.317	-0.150	0.311
-280.486	-137.591	0.564	0.079
-279.472	800.000	-0.062	0.314
-278.457	-200.000	0.015	0.203
-277.443	-200.000	-0.057	-0.602
-276.428	397.382	0.038	0.101
-275.413	62.046	-0.044	-0.056
-274.399	-200.000	0.048	-0.480
-273.384	-111.602	0.567	0.144
-272.370	-29.616	-0.130	-0.093
-271.355	6.840	-0.231	-0.217
-270.340	472.175	-0.067	-0.191
-269.326	-29.748	-0.581	-0.417
-268.311	-139.561	0.249	0.033
-267.297	442.180	0.093	0.256
-266.282	75.976	-0.124	0.166
-265.267	108.709	-0.158	-0.238
-264.253	-200.000	-0.008	0.055
-263.238	241.725	0.217	-0.458
-262.224	800.000	-0.040	0.199
-261.209	-92.378	-0.307	0.108
-260.195	-68.669	0.321	-0.156
-259.180	7.129	0.326	-0.306
-258.165	95.678	0.236	0.340
-257.151	450.481	-0.167	0.466
-256.136	-23.354	0.270	0.204
-255.122	142.246	-0.184	0.308
-254.107	108.695	-0.480	-0.724
-253.092	98.700	-0.255	-0.371
-252.078	76.810	-0.434	0.581
-251.063	37.427	0.205	-0.228
-250.049	-87.570	0.252	0.095
-249.034	-32.968	0.146	-0.101
-248.019	-200.000	-0.032	0.450
-247.005	800.000	0.142	0.612
-245.990	-46.163	0.307	0.189
-244.976	-17.369	-0.588	0.465
-243.961	20.598	0.186	0.189
-242.946	-70.587	-0.422	-0.200
-241.932	-114.216	0.369	-0.089
-240.917	800.000	-0.070	-0.255
-239.903	-77.669	0.440	0.190
-238.888	-55.109	0.210	-0.119
-237.873	35.626	0.279	0.308
-236.859	-200.000	-0.086	0.646
-235.844	-200.000	0.036	-0.261
-234.830	146.279	-0.158	-0.267
-233.815	59.924	0.068	-0.085
-232.800	-117.235	-0.137	0.031
-231.786	-95.706	-0.231	0.077
-230.771	-173.406	-0.422	0.016
-229.757	-133.991	0.186	-0.029
-228.742	-200.000	-0.010	-0.309
-227.727	800.000	-0.042	-0.189
-226.713	-80.380	0.064	0.027
-225.698	25.254	0.483	0.504
-224.684	-200.000	-0.030	-0.306
-223.669	-200.000	0.051	0.609
-222.655	368.554	-0.196	-0.501
-221.640	-3.142	0.182	0.159
-220.625	150.434	-0.135	-0.231
-219.611	-200.000	-0.014	-0.307
-218.596	74.739	-0.238	-0.315
-217.582	-51.018	0.130	-0.076
-216.567	41.442	-0.118	0.134
-215.552	295.474	0.241	-0.556
-214.538	-105.403	0.705	-0.200
-213.523	-200.000	-0.029	-0.226
-212.509	187.891	0.123	0.231
-211.494	97.379	-0.083	-0.120
-210.479	-68.731	0.250	-0.121
-209.465	383.838	-0.036	0.094
-208.450	-200.000	-0.018	0.348
-207.436	-21.486	-0.375	0.287
-206.421	800.000	-0.059	-0.300
-205.406	61.243	-0.122	-0.153
-204.392	-200.000	-0.014	-0.218
-203.377	79.382	-0.123	-0.166
-202.363	-128.671	-0.118	-0.021
-201.348	26.438	0.279	-0.293
-200.333	800.000	0.092	0.492
-199.319	-62.930	0.172	0.089
-198.304	-13.275	0.093	0.076
-197.290	800.000	0.088	-0.366
-196.275	-10.988	0.247	-0.204
-195.260	-200.000	0.052	-0.325
-194.246	-135.697	-0.244	0.036
-193.231	269.157	0.166	0.367
-192.217	-165.634	0.525	-0.028
-191.202	-74.499	0.111	-0.050
-190.187	-108.057	-0.186	-0.050
-189.173	800.000	0.032	-0.171
-188.158	-165.838	-0.269	0.014
-187.144	-181.500	0.271	0.007
-186.129	789.985	-0.111	0.384
-185.114	800.000	-0.102	0.524
-184.100	255.879	0.186	0.401
-183.085	-167.763	0.585	-0.029
-182.071	-22.652	-0.210	0.159
-181.056	-11.195	0.232	0.192
-180.042	-200.000	0.013	0.530
-179.027	58.752	-0.153	0.189
-178.012	166.964	0.025	0.045
-176.998	800.000	-0.063	-0.248
-175.983	44.576	0.292	-0.336
-174.969	-25.213	-0.358	-0.266
-173.954	800.000	0.055	0.293
-172.939	-171.140	0.267	-0.011
-171.925	44.002	0.109	0.125
-170.910	800.000	0.026	-0.131
-169.896	-200.000	-0.005	0.158
-168.881	-78.076	-0.265	0.114
-167.866	-140.085	-0.179	-0.023
-166.852	392.525	0.028	0.073
-165.837	-200.000	0.017	0.304
-164.823	-9.965	-0.219	-0.182
-163.808	-200.000	0.003	0.080
-162.793	-85.368	-0.472	-0.184
-161.779	-130.342	-0.334	0.056
-160.764	-51.604	0.047	-0.027
-159.750	45.832	-0.216	-0.250
-158.735	-65.931	-0.451	-0.225
-157.720	-200.000	-0.001	-0.229
-156.706	46.533	0.176	0.204
-155.691	162.915	0.424	-0.749
-154.677	53.186	0.112	0.134
-153.662	132.437	-0.107	-0.173
-152.647	-58.415	0.381	-0.207
-151.633	-154.702	-0.060	-0.005
-150.618	-57.722	-0.131	0.071
-149.604	486.859	-0.110	-0.316
-148.589	-153.470	0.283	-0.024
-147.574	-39.646	0.152	-0.100
-146.560	-122.858	0.143	-0.029
-145.545	187.207	0.195	-0.365
-144.531	-40.020	-0.326	-0.213
-143.516	800.000	0.027	-0.101
-142.502	-144.579	-0.385	0.044
-141.487	-32.002	0.160	0.112
-140.472	-122.460	-0.121	-0.024
-139.458	-81.001	0.098	-0.041
-138.443	254.649	-0.191	-0.411
-137.429	-98.946	-0.138	0.044
-136.414	294.057	0.107	0.246
-135.399	-200.000	-0.054	-0.581
-134.385	-93.328	0.241	0.083
-133.370	294.517	-0.109	-0.252
-132.356	49.077	0.150	-0.177
-131.341	67.011	-0.139	0.178
-130.326	-140.546	0.431	0.055
-129.312	416.450	0.100	0.268
-128.297	-130.824	-0.259	0.043
-127.283	163.466	0.209	-0.368
-126.268	4.242	-0.170	-0.156
-125.253	-125.434	-0.146	0.028
-124.239	14.100	0.203	-0.197
-123.224	90.613	-0.287	-0.404
-122.210	-55.353	0.231	0.130
-121.195	529.684	0.142	-0.422
