DTS Sentinel unit serial number:	SN409020Multiplexer serial number:	ORYXHardware model number:	OX4-SRSoftware version number:	ORYX F/W v3.00 Oryx Data Collector v3.7.2.0data status	okinstallation	HaddamTimeLapsedifferential loss correction	single-endedforward channel	channel 3reverse channel	N/Adate	2011/06/22time	01:46:17forward acquisition time	30.00reverse acquisition time	0.00gamma	498.7831k internal	0.1751k external	0.1751temperature offset calibration	1.0074default loss term (dB/km)	0.3790temperature slope calibration	1.3530multiplexer offset coefficient	1.0000multiplexer slope coefficient	1.0000fibre end	0.00T internal ref (°C)	22.44T ext. ref 1 (°C)	17.73T ext. ref 2 (°C)	0.01length (m)	temperature (°C)	Stokes	anti-Stokes-747.200	-135.915	0.382	0.059
-746.185	-163.287	0.198	0.012
-745.171	-158.032	0.167	0.013
-744.156	800.000	-0.075	0.327
-743.142	53.264	0.162	-0.207
-742.127	-93.553	-0.223	0.082
-741.112	-32.636	0.163	0.120
-740.098	259.865	0.042	0.096
-739.083	-166.199	0.226	-0.013
-738.069	800.000	-0.104	0.393
-737.054	-162.651	0.128	-0.008
-736.039	549.229	-0.052	0.166
-735.025	-103.918	-0.138	0.042
-734.010	-189.347	0.457	0.007
-732.996	734.742	-0.027	0.097
-731.981	249.291	0.145	0.327
-730.966	420.936	0.054	-0.153
-729.952	-200.000	-0.007	0.052
-728.937	21.340	-0.397	-0.428
-727.923	-145.940	0.522	0.061
-726.908	85.898	0.323	-0.472
-725.894	-2.821	0.552	0.512
-724.879	10.941	-0.196	-0.198
-723.864	-132.556	-0.080	-0.013
-722.850	-200.000	0.002	0.383
-721.835	110.600	0.271	-0.433
-720.821	-118.282	0.210	-0.049
-719.806	44.211	0.144	-0.176
-718.791	-128.235	0.224	-0.042
-717.777	46.777	-0.129	-0.159
-716.762	576.356	-0.077	0.251
-715.748	-200.000	-0.020	-0.296
-714.733	-11.037	-0.673	-0.588
-713.718	-131.780	-0.555	0.096
-712.704	-36.038	-0.199	0.142
-711.689	-66.020	0.188	-0.099
-710.675	-157.529	0.326	0.026
-709.660	-200.000	-0.049	0.429
-708.645	-70.517	0.718	-0.359
-707.631	799.384	0.081	-0.300
-706.616	-140.343	0.195	-0.027
-705.602	800.000	0.048	-0.252
-704.587	-200.000	0.063	-0.528
-703.572	277.384	-0.105	-0.248
-702.558	-130.570	0.176	-0.031
-701.543	-71.266	-0.300	0.149
-700.529	-163.235	0.137	0.009
-699.514	0.512	0.282	-0.267
-698.499	436.149	-0.132	0.382
-697.485	19.951	0.077	0.082
-696.470	-139.065	0.134	-0.019
-695.456	-10.206	0.182	-0.160
-694.441	-200.000	-0.011	-0.242
-693.426	-200.000	-0.019	0.240
-692.412	236.861	-0.097	-0.213
-691.397	-132.093	-0.549	-0.094
-690.383	488.729	-0.085	0.258
-689.368	0.690	-0.105	0.099
-688.354	800.000	-0.075	0.370
-687.339	800.000	0.053	-0.203
-686.324	143.888	-0.324	0.574
-685.310	185.985	0.102	0.201
-684.295	-53.355	-0.144	-0.087
-683.281	-200.000	-0.027	0.202
-682.266	-189.691	-0.444	0.007
-681.251	-200.000	0.019	-0.206
-680.237	-98.912	0.076	-0.025
-679.222	800.000	0.104	-0.557
-678.208	323.898	-0.129	-0.327
-677.193	144.435	0.191	-0.339
-676.178	24.018	-0.348	0.380
-675.164	226.097	0.247	0.532
-674.149	-114.531	0.247	-0.062
-673.135	-133.968	0.360	-0.059
-672.120	-88.302	-0.167	-0.066
-671.105	107.065	-0.227	0.358
-670.091	732.950	0.194	-0.691
-669.076	-200.000	-0.007	-0.259
-668.062	-86.340	0.143	0.058
-667.047	33.231	-0.189	0.217
-666.032	800.000	-0.048	0.274
-665.018	-116.651	0.078	-0.019
-664.003	-48.787	-0.167	0.106
-662.989	-143.850	-0.411	-0.051
-661.974	40.900	0.196	0.234
-660.959	297.651	-0.157	0.384
-659.945	800.000	0.024	0.120
-658.930	10.372	-0.250	-0.252
-657.916	-148.983	0.264	0.028
-656.901	115.332	0.084	0.137
-655.886	-196.449	-0.580	-0.005
-654.872	-43.116	-0.093	0.062
-653.857	-62.605	-0.329	0.180
-652.843	800.000	0.027	-0.141
-651.828	158.935	0.012	-0.022
-650.814	-113.740	-0.103	0.026
-649.799	759.087	-0.090	0.324
-648.784	524.467	0.175	-0.547
-647.770	-60.772	-0.276	-0.154
-646.755	-200.000	0.003	-0.084
-645.741	800.000	0.016	-0.086
-644.726	-200.000	-0.034	-0.242
-643.711	-170.363	0.372	0.017
-642.697	-101.270	0.128	-0.041
-641.682	-117.186	-0.133	-0.032
-640.668	-54.316	-0.196	-0.117
-639.653	-19.595	-0.071	-0.058
-638.638	17.342	0.234	0.245
-637.624	-82.015	0.141	-0.060
-636.609	-200.000	-0.007	0.169
-635.595	-200.000	0.079	0.671
-634.580	690.045	-0.099	0.343
-633.565	-85.392	0.094	0.038
-632.551	-200.000	-0.037	0.469
-631.536	5.752	0.444	0.434
-630.522	-200.000	-0.019	-0.190
-629.507	-200.000	-0.038	0.248
-628.492	-200.000	-0.024	0.180
-627.478	-192.592	0.205	-0.002
-626.463	-24.417	-0.119	0.094
-625.449	-25.371	-0.337	0.263
-624.434	800.000	0.024	-0.101
-623.419	39.271	0.102	0.121
-622.405	229.108	0.171	0.370
-621.390	28.082	-0.203	0.226
-620.376	-140.740	-0.181	-0.024
-619.361	-120.647	-0.664	-0.147
-618.346	56.055	0.338	-0.434
-617.332	113.692	0.075	0.120
-616.317	188.599	0.143	0.284
-615.303	266.603	-0.163	-0.378
-614.288	-89.769	0.332	-0.128
-613.273	800.000	-0.066	-0.264
-612.259	-200.000	0.098	-0.590
-611.244	-170.652	0.036	-0.002
-610.230	372.475	-0.107	-0.289
-609.215	800.000	0.118	-0.622
-608.201	-182.346	0.071	0.002
-607.186	-94.929	0.170	-0.060
-606.171	65.041	0.106	0.142
-605.157	-58.691	0.582	0.332
-604.142	-200.000	-0.051	0.393
-603.128	-37.773	-0.251	-0.176
-602.113	-100.314	0.287	0.093
-601.098	-200.000	0.024	-0.341
-600.084	-40.757	-0.205	0.140
-599.069	-117.564	0.054	0.013
-598.055	145.820	-0.307	0.545
-597.040	-168.252	0.390	0.020
-596.025	-23.859	-0.354	-0.279
-595.011	36.260	-0.191	0.222
-593.996	-122.706	-0.148	-0.031
-592.982	-67.981	0.260	-0.133
-591.967	173.638	-0.084	0.161
-590.952	-200.000	-0.009	-0.282
-589.938	-109.684	-0.393	0.108
-588.923	491.161	-0.175	0.533
-587.909	-200.000	-0.037	-0.422
-586.894	78.798	0.208	-0.294
-585.879	-37.338	-0.126	-0.089
-584.865	16.088	-0.280	-0.292
-583.850	-96.298	0.090	-0.031
-582.836	-200.000	-0.049	0.386
-581.821	184.566	0.201	0.394
-580.806	-101.076	0.443	-0.142
-579.792	59.154	0.230	-0.299
-578.777	-122.511	0.549	0.117
-577.763	-85.909	-0.463	0.188
-576.748	29.507	0.144	-0.161
-575.733	-30.693	0.380	-0.283
-574.719	-135.552	-0.291	-0.045
-573.704	52.306	0.091	0.115
-572.690	507.971	-0.137	0.420
-571.675	-19.241	0.345	-0.282
-570.661	540.133	0.050	0.157
-569.646	-200.000	0.065	0.830
-568.631	-56.233	0.070	-0.041
-567.617	-200.000	0.026	-0.322
-566.602	800.000	-0.055	-0.252
-565.588	-98.375	0.460	-0.154
-564.573	57.965	-0.203	-0.263
-563.558	263.835	-0.079	0.182
-562.544	-200.000	0.020	-0.302
-561.529	217.535	0.166	-0.349
-560.515	10.228	-0.387	-0.388
-559.500	-14.185	-0.130	0.111
-558.485	16.984	0.352	0.367
-557.471	-35.261	0.292	0.209
-556.456	-101.678	0.389	0.124
-555.442	-67.882	-0.443	0.227
-554.427	-13.433	-0.102	0.087
-553.412	-62.477	-0.648	0.354
-552.398	-200.000	0.078	-0.461
-551.383	-81.343	-0.309	-0.134
-550.369	-30.048	-0.186	-0.139
-549.354	-4.690	-0.319	-0.290
-548.339	225.649	0.113	0.241
-547.325	-200.000	-0.015	0.398
-546.310	-0.813	0.440	0.411
-545.296	800.000	0.065	-0.315
-544.281	216.244	-0.044	-0.092
-543.266	-99.835	0.505	0.166
-542.252	-200.000	-0.096	0.573
-541.237	-78.589	-0.195	0.088
-540.223	-177.315	-0.473	-0.015
-539.208	30.156	-0.062	-0.070
-538.193	260.644	0.052	-0.119
-537.179	-200.000	-0.017	-0.243
-536.164	690.450	0.055	0.189
-535.150	427.744	0.055	-0.158
-534.135	-200.000	0.006	-0.142
-533.121	-90.916	-0.366	0.138
-532.106	295.905	0.131	0.319
-531.091	264.604	-0.158	0.364
-530.077	-136.778	0.078	-0.012
-529.062	55.275	-0.129	0.165
-528.048	-131.263	-0.259	-0.045
-527.033	135.669	0.213	0.366
-526.018	58.804	0.203	0.263
-525.004	-200.000	0.006	-0.107
-523.989	129.762	-0.255	-0.431
-522.975	231.040	0.191	-0.414
-521.960	125.019	0.135	0.225
-520.945	75.436	-0.179	0.249
-519.931	11.740	-0.068	0.068
-518.916	-200.000	0.019	0.193
-517.902	-134.621	-0.213	-0.034
-516.887	-19.379	0.297	0.242
-515.872	255.444	0.193	-0.438
-514.858	-17.901	0.279	-0.230
-513.843	41.478	-0.112	-0.134
-512.829	28.452	-0.183	0.204
-511.814	800.000	-0.095	0.423
-510.799	313.931	0.156	-0.387
-509.785	-88.885	-0.037	-0.014
-508.770	-47.247	-0.533	0.341
-507.756	36.835	-0.352	0.410
-506.741	70.061	-0.287	0.390
-505.726	86.109	-0.317	-0.460
-504.712	102.734	0.197	0.304
-503.697	127.903	0.142	-0.239
-502.683	-84.605	0.126	0.052
-501.668	-200.000	0.007	-0.320
-500.653	346.181	0.079	-0.206
-499.639	18.270	-0.214	-0.225
-498.624	-28.108	-0.157	0.119
-497.610	-117.430	0.191	0.045
-496.595	255.971	-0.086	-0.194
-495.581	-200.000	-0.001	0.233
-494.566	325.316	0.105	0.264
-493.551	425.537	-0.171	0.488
-492.537	226.146	-0.114	-0.245
-491.522	39.496	0.186	-0.219
-490.508	-155.333	0.327	0.028
-489.493	43.242	0.085	0.102
-488.478	-158.536	-0.476	0.036
-487.464	-200.000	-0.054	-0.948
-486.449	135.871	-0.126	-0.216
-485.435	-200.000	0.058	-0.459
-484.420	-90.264	0.093	-0.036
-483.405	-127.663	-0.021	0.004
-482.391	37.183	0.059	0.069
-481.376	-200.000	-0.023	0.412
-480.362	427.590	0.143	0.408
-479.347	266.451	0.023	0.053
-478.332	-25.411	-0.295	-0.229
-477.318	676.828	0.065	-0.224
-476.303	538.581	-0.105	-0.331
-475.289	-200.000	0.009	0.172
-474.274	500.483	-0.116	-0.354
-473.259	291.355	-0.075	0.181
-472.245	-102.449	-0.437	-0.136
-471.230	773.518	0.056	0.201
-470.216	0.231	0.182	-0.170
-469.201	800.000	-0.093	-0.507
-468.186	-136.019	-0.188	-0.029
-467.172	-132.359	-0.316	-0.053
-466.157	2.809	-0.398	0.379
-465.143	-53.918	-0.372	0.222
-464.128	-193.545	-0.363	0.004
-463.113	163.628	0.137	-0.255
-462.099	-37.679	0.245	0.171
-461.084	-95.531	-0.792	-0.277
-460.070	162.585	-0.170	0.314
-459.055	-200.000	-0.008	-0.153
-458.040	-129.551	-0.330	-0.059
-457.026	-174.407	0.337	0.013
-456.011	143.490	0.329	0.578
-454.997	223.051	0.171	0.363
-453.982	82.376	0.176	0.251
-452.968	-6.975	-0.139	0.124
-451.953	-95.131	-0.428	0.151
-450.938	622.301	0.096	-0.318
-449.924	105.593	0.180	-0.279
-448.909	-75.920	0.125	-0.058
-447.895	-146.923	-0.137	-0.015
-446.880	-13.224	-0.193	-0.164
-445.865	55.644	0.202	0.257
-444.851	-200.000	0.031	0.401
-443.836	-200.000	0.017	0.103
-442.822	800.000	-0.033	0.186
-441.807	-19.331	0.237	-0.192
-440.792	-130.488	-0.589	0.104
-439.778	76.718	-0.245	0.342
-438.763	-7.392	-0.068	-0.060
-437.749	43.649	-0.306	0.367
-436.734	68.697	0.052	-0.070
-435.719	-175.562	0.275	0.010
-434.705	96.679	0.306	-0.461
-433.690	204.322	-0.132	0.269
-432.676	800.000	0.012	0.066
-431.661	-79.795	0.184	-0.081
-430.646	-104.585	0.556	0.167
-429.632	800.000	0.058	-0.224
-428.617	-30.456	-0.182	-0.135
-427.603	4.417	0.324	0.312
-426.588	65.518	0.192	-0.255
-425.573	-64.493	0.047	-0.025
-424.559	-89.564	0.187	0.071
-423.544	-50.303	-0.148	0.092
-422.530	182.070	-0.208	0.404
-421.515	-51.829	0.265	0.161
-420.500	-5.288	0.460	-0.415
-419.486	-47.225	-0.151	0.096
-418.471	309.040	-0.197	-0.486
-417.457	800.000	-0.031	0.148
-416.442	-57.634	-0.406	-0.233
-415.428	-200.000	-0.014	0.103
-414.413	-200.000	0.006	-0.094
-413.398	-79.616	0.154	0.068
-412.384	67.551	0.314	-0.421
-411.369	-125.363	0.480	-0.095
-410.355	293.519	-0.193	0.464
-409.340	-149.625	0.607	-0.062
-408.325	3.700	0.162	0.155
-407.311	44.430	0.385	0.464
-406.296	93.628	0.243	0.361
-405.282	-200.000	-0.029	-0.241
-404.267	-130.576	0.306	-0.054
-403.252	19.688	0.329	-0.346
-402.238	-125.064	-0.247	0.049
-401.223	-50.987	0.115	-0.070
-400.209	125.711	-0.181	0.300
-399.194	-96.099	-0.280	-0.097
-398.179	122.191	0.025	-0.041
-397.165	-1.078	0.398	-0.368
-396.150	-87.292	-0.434	-0.172
-395.136	-175.811	0.132	-0.005
-394.121	-46.863	0.306	-0.195
-393.106	78.556	0.129	0.181
-392.092	550.541	-0.126	-0.398
-391.077	-200.000	-0.041	-0.326
-390.063	-70.901	-0.495	0.243
-389.048	397.201	-0.035	0.097
-388.033	-195.913	-0.256	0.002
-387.019	-129.945	-0.228	0.041
-386.004	234.812	0.222	-0.481
-384.990	525.534	0.056	-0.175
-383.975	213.127	-0.068	-0.142
-382.960	493.817	-0.079	0.238
-381.946	-200.000	0.006	0.123
-380.931	46.511	0.097	-0.118
-379.917	-200.000	0.039	-0.263
-378.902	-15.210	0.395	-0.330
-377.888	-200.000	0.025	-0.321
-376.873	-2.760	0.305	-0.279
-375.858	-74.571	-0.214	0.101
-374.844	319.165	0.125	-0.312
-373.829	800.000	-0.088	-0.349
-372.815	-108.804	0.263	0.073
-371.800	-200.000	-0.003	0.273
-370.785	-200.000	-0.042	-0.266
-369.771	789.189	-0.149	0.539
-368.756	-200.000	-0.008	-0.092
-367.742	-200.000	0.010	0.114
-366.727	-68.703	-0.130	-0.065
-365.712	800.000	0.038	0.201
-364.698	60.049	0.312	0.404
-363.683	-200.000	0.003	-0.492
-362.669	-135.514	-0.130	0.020
-361.654	176.325	0.074	0.142
-360.639	-48.781	-0.137	-0.086
-359.625	-86.416	0.351	-0.140
-358.610	216.740	-0.125	-0.262
-357.596	48.597	0.310	0.380
-356.581	-24.952	-0.141	0.110
-355.566	-28.780	0.341	0.256
-354.552	283.012	-0.014	0.034
-353.537	-95.806	0.327	-0.114
-352.523	157.283	0.176	0.320
-351.508	-200.000	-0.031	-0.410
-350.493	-200.000	0.013	0.101
-349.479	197.427	0.216	-0.433
-348.464	121.501	-0.405	-0.661
-347.450	-130.800	-0.434	-0.075
-346.435	-90.559	0.360	-0.135
-345.420	-73.491	0.233	0.111
-344.406	609.288	-0.027	-0.088
-343.391	-14.399	0.424	0.357
-342.377	-131.875	-0.634	0.107
-341.362	24.160	-0.218	-0.235
-340.348	10.488	0.143	-0.143
-339.333	800.000	-0.049	-0.186
-338.318	294.085	0.145	0.347
-337.304	230.862	-0.124	0.267
-336.289	800.000	-0.068	-0.373
-335.275	-57.819	0.173	0.099
-334.260	-196.513	-0.599	0.005
-333.245	-197.577	-0.358	0.003
-332.231	-23.502	0.156	-0.122
-331.216	-106.227	-0.225	-0.065
-330.202	318.181	-0.023	-0.057
-329.187	337.433	-0.131	0.333
-328.172	800.000	0.057	0.294
-327.158	-52.462	-0.538	0.324
-326.143	-200.000	0.231	0.001
-325.129	2.590	-0.208	-0.196
-324.114	-200.000	-0.053	-0.346
-323.099	-39.581	-0.350	0.239
-322.085	-26.473	0.473	0.362
-321.070	-200.000	0.020	-0.348
-320.056	-90.319	0.343	-0.129
-319.041	-200.000	0.009	0.486
-318.026	-110.996	-0.075	0.020
-317.012	800.000	-0.033	0.148
-315.997	4.871	-0.402	-0.386
-314.983	-200.000	0.001	0.252
-313.968	209.830	0.053	-0.108
-312.953	-13.279	0.308	-0.261
-311.939	-200.000	-0.019	-0.550
-310.924	-200.000	-0.011	-0.286
-309.910	-39.800	0.117	-0.080
-308.895	-65.173	-0.240	0.126
-307.880	-66.164	0.352	-0.182
-306.866	329.689	-0.063	-0.160
-305.851	-200.000	-0.003	-0.387
-304.837	-154.715	0.215	-0.018
-303.822	-200.000	-0.020	0.242
-302.807	421.415	-0.194	0.546
-301.793	-200.000	0.069	0.403
-300.778	-90.774	-0.098	0.037
-299.764	-126.867	-0.289	0.055
-298.749	100.099	0.232	-0.352
-297.735	87.634	0.129	-0.187
-296.720	-106.356	0.050	-0.014
-295.705	-91.770	0.301	-0.111
-294.691	-143.389	0.402	0.050
-293.676	-45.706	0.029	-0.018
-292.662	-152.399	0.325	-0.030
-291.647	-9.575	-0.120	0.104
-290.632	-133.937	-0.135	0.022
-289.618	-200.000	-0.042	-0.645
-288.603	-200.000	0.000	0.074
-287.589	800.000	-0.045	0.233
-286.574	-64.735	-0.539	0.284
-285.559	17.054	-0.282	0.292
-284.545	-200.000	0.042	0.296
-283.530	85.900	0.061	0.088
-282.516	-150.446	-0.360	0.036
-281.501	-118.157	0.058	-0.013
-280.486	800.000	-0.057	-0.217
-279.472	59.700	-0.096	0.124
-278.457	-200.000	-0.005	0.227
-277.443	132.447	-0.099	0.167
-276.428	-106.593	-0.234	-0.068
-275.413	-200.000	-0.002	-0.066
-274.399	-200.000	0.007	0.068
-273.384	-3.873	-0.399	0.360
-272.370	637.532	0.088	0.293
-271.355	-57.772	-0.192	-0.109
-270.340	92.190	0.414	-0.609
-269.326	368.952	0.072	-0.191
-268.311	193.889	-0.301	-0.596
-267.297	800.000	-0.132	-0.634
-266.282	78.069	-0.197	-0.275
-265.267	-133.297	0.569	0.093
-264.253	-23.129	-0.217	0.170
-263.238	285.856	-0.202	0.477
-262.224	710.883	0.063	0.218
-261.209	800.000	0.063	-0.289
-260.195	800.000	-0.109	-0.471
-259.180	-48.414	0.270	0.169
-258.165	-90.847	0.733	-0.274
-257.151	-200.000	0.003	0.076
-256.136	214.955	0.189	0.393
-255.122	-200.000	0.043	-0.412
-254.107	-31.706	0.282	0.206
-253.092	5.133	0.130	0.124
-252.078	-1.683	0.230	0.211
-251.063	-50.108	-0.429	0.264
-250.049	-60.681	0.183	0.101
-249.034	800.000	0.115	0.425
-248.019	-6.404	-0.521	0.462
-247.005	-133.428	-0.402	0.065
-245.990	129.094	0.239	-0.398
-244.976	299.006	-0.117	0.281
-243.961	-61.249	-0.305	0.167
-242.946	-113.308	0.374	0.095
-241.932	-129.683	0.059	-0.011
-240.917	95.804	0.168	0.250
-239.903	-200.000	-0.028	0.260
-238.888	-62.222	-0.247	-0.134
-237.873	-200.000	0.036	-0.407
-236.859	-7.842	0.230	-0.202
-235.844	-32.680	0.249	-0.180
-234.830	117.908	-0.157	-0.252
-233.815	-131.409	0.462	0.079
-232.800	-150.790	0.146	-0.014
-231.786	-200.000	-0.112	-0.654
-230.771	-200.000	0.003	0.272
-229.757	-82.421	-0.307	-0.129
-228.742	-118.964	-0.358	-0.081
-227.727	-12.593	-0.331	0.281
-226.713	-163.091	0.067	0.004
-225.698	-154.296	-0.388	-0.034
-224.684	-47.480	0.515	-0.325
-223.669	-95.301	0.305	-0.106
-222.655	-3.269	-0.289	-0.262
-221.640	-200.000	-0.013	-0.205
-220.625	-85.734	-0.033	0.013
-219.611	-11.033	0.167	0.143
-218.596	50.243	-0.405	-0.498
-217.582	27.246	-0.124	-0.136
-216.567	-200.000	0.111	0.831
-215.552	-90.445	0.377	0.141
-214.538	-20.483	-0.181	-0.145
-213.523	-106.991	0.533	0.152
-212.509	-200.000	0.002	0.059
-211.494	-115.159	0.589	0.144
-210.479	-200.000	0.016	-0.253
-209.465	65.326	0.030	-0.040
-208.450	800.000	-0.043	0.208
-207.436	-10.188	0.436	0.376
-206.421	665.849	0.067	-0.226
-205.406	-46.112	0.205	0.131
-204.392	478.908	0.185	-0.549
-203.377	138.987	-0.094	0.161
-202.363	28.304	-0.026	0.029
-201.348	-29.580	0.116	0.086
-200.333	-200.000	0.002	0.176
-199.319	-125.797	-0.473	0.092
-198.304	-137.479	0.135	0.020
-197.290	-200.000	0.042	0.463
-196.275	800.000	-0.080	0.375
-195.260	-7.059	0.178	0.157
-194.246	-9.998	0.118	-0.102
-193.231	-115.453	-0.392	0.095
-192.217	-200.000	-0.015	0.330
-191.202	73.269	-0.189	-0.258
-190.187	-2.037	-0.514	0.469
-189.173	184.972	0.254	0.491
-188.158	-80.525	0.463	-0.200
-187.144	-152.661	-0.058	0.005
-186.129	-47.725	0.377	0.237
-185.114	-171.515	-0.104	-0.004
-184.100	14.131	-0.322	-0.326
-183.085	800.000	-0.058	-0.311
-182.071	-40.150	-0.239	-0.161
-181.056	48.640	-0.048	-0.059
-180.042	-98.195	0.276	-0.092
-179.027	-91.070	-0.079	-0.029
-178.012	609.008	-0.065	0.211
-176.998	-153.370	0.074	-0.007
-175.983	-136.631	-0.222	-0.033
-174.969	-29.309	-0.081	-0.060
-173.954	-200.000	0.003	0.272
-172.939	-200.000	-0.014	0.467
-171.925	-200.000	0.010	0.196
-170.910	228.188	-0.220	0.467
-169.896	-200.000	0.048	-0.383
-168.881	800.000	0.142	-0.719
-167.866	-37.860	-0.260	-0.179
-166.852	57.138	0.186	-0.236
-165.837	304.154	0.055	-0.133
-164.823	11.709	-0.296	0.295
-163.808	-200.000	-0.029	-0.286
-162.793	-85.383	-0.312	0.126
-161.779	-101.002	-0.119	-0.038
-160.764	-67.473	0.249	0.126
-159.750	-103.583	0.277	-0.084
-158.735	495.379	-0.054	-0.161
-157.720	-117.695	-0.138	-0.032
-156.706	217.418	-0.021	0.043
-155.691	365.536	-0.034	-0.088
-154.677	-164.027	-0.175	0.010
-153.662	156.119	-0.289	-0.519
-152.647	-148.822	0.314	-0.033
-151.633	-0.055	0.105	-0.097
-150.618	51.981	0.311	-0.384
-149.604	-23.330	0.179	-0.139
-148.589	-72.684	0.217	-0.104
-147.574	13.809	0.212	0.214
-146.560	637.943	0.023	-0.077
-145.545	-79.268	0.262	-0.115
-144.531	-200.000	0.065	-0.412
-143.516	-3.329	0.236	0.213
-142.502	33.971	0.352	-0.397
-141.487	-171.404	-0.362	-0.015
-140.472	-110.775	-0.425	-0.113
-139.458	800.000	-0.042	0.218
-138.443	-183.535	0.316	0.007
-137.429	88.531	0.207	-0.299
-136.414	-200.000	0.010	-0.120
-135.399	93.414	-0.088	0.129
-134.385	800.000	-0.126	0.665
-133.370	-145.574	0.176	-0.020
-132.356	-70.410	-0.273	0.134
-131.341	-200.000	0.010	0.266
-130.326	-79.192	-0.340	0.149
-129.312	-64.489	-0.477	0.250
-128.297	-200.000	-0.047	-0.482
-127.283	-200.000	0.038	0.449
-126.268	10.239	0.186	0.183
-125.253	-80.065	-0.309	-0.134
-124.239	-84.812	-0.535	-0.217
-123.224	-117.638	0.612	0.142
-122.210	544.860	0.146	0.454
