DTS Sentinel unit serial number:	SN409020Multiplexer serial number:	ORYXHardware model number:	OX4-SRSoftware version number:	ORYX F/W v3.00 Oryx Data Collector v3.7.2.0data status	okinstallation	HaddamTimeLapsedifferential loss correction	single-endedforward channel	channel 3reverse channel	N/Adate	2011/06/22time	01:21:17forward acquisition time	30.00reverse acquisition time	0.00gamma	498.7831k internal	0.1751k external	0.1751temperature offset calibration	1.0074default loss term (dB/km)	0.3790temperature slope calibration	1.3530multiplexer offset coefficient	1.0000multiplexer slope coefficient	1.0000fibre end	0.00T internal ref (°C)	22.50T ext. ref 1 (°C)	17.79T ext. ref 2 (°C)	0.01length (m)	temperature (°C)	Stokes	anti-Stokes-747.200	-121.640	-0.266	0.058
-746.185	-66.824	-0.321	-0.168
-745.171	-77.990	0.152	-0.069
-744.156	251.325	0.238	0.539
-743.142	-116.838	0.501	-0.121
-742.127	-104.597	0.336	0.102
-741.112	-120.481	-0.230	-0.051
-740.098	800.000	-0.032	0.122
-739.083	800.000	-0.058	-0.271
-738.069	245.427	0.162	0.363
-737.054	-174.653	0.382	0.014
-736.039	-112.565	-0.273	-0.072
-735.025	-89.744	-0.494	0.191
-734.010	14.635	0.117	0.121
-732.996	133.184	0.320	0.549
-731.981	800.000	-0.060	-0.297
-730.966	787.517	-0.032	-0.119
-729.952	-80.862	-0.217	-0.095
-728.937	800.000	-0.136	-0.634
-727.923	521.739	0.118	-0.370
-726.908	800.000	-0.121	-0.451
-725.894	-116.060	0.056	0.014
-724.879	-200.000	0.040	-0.281
-723.864	-200.000	0.016	-0.216
-722.850	-147.059	0.342	0.038
-721.835	-109.146	-0.378	0.106
-720.821	79.553	0.145	-0.207
-719.806	-73.296	-0.547	-0.264
-718.791	-7.721	-0.308	-0.276
-717.777	-48.111	0.232	-0.148
-716.762	-127.666	0.088	-0.017
-715.748	554.557	0.018	-0.057
-714.733	-156.823	0.716	-0.058
-713.718	7.341	-0.082	0.081
-712.704	-65.016	0.489	0.261
-711.689	-200.000	0.004	0.066
-710.675	-117.600	0.485	0.115
-709.660	-2.277	-0.188	-0.175
-708.645	-200.000	0.002	-0.209
-707.631	800.000	-0.101	0.562
-706.616	88.372	-0.214	-0.316
-705.602	-106.511	0.437	0.128
-704.587	-159.518	0.605	0.044
-703.572	-127.542	-0.406	-0.077
-702.558	-97.105	0.289	-0.100
-701.543	-62.525	0.202	0.111
-700.529	-67.786	-0.317	-0.164
-699.514	-200.000	-0.015	-0.187
-698.499	150.655	-0.156	-0.281
-697.485	637.487	-0.045	-0.152
-696.470	-52.884	-0.376	-0.229
-695.456	98.824	0.287	-0.440
-694.441	-200.000	-0.020	0.413
-693.426	-166.286	0.372	-0.020
-692.412	317.918	0.116	0.292
-691.397	-200.000	-0.058	-0.484
-690.383	-153.925	-0.448	0.040
-689.368	500.741	-0.110	-0.338
-688.354	-60.953	-0.404	-0.225
-687.339	-51.142	0.576	-0.357
-686.324	109.823	0.146	-0.232
-685.310	-200.000	0.009	0.133
-684.295	-140.459	-0.239	0.033
-683.281	54.029	-0.091	0.116
-682.266	-31.337	-0.226	-0.168
-681.251	-53.596	-0.280	-0.169
-680.237	-68.752	-0.145	0.074
-679.222	-144.686	0.147	-0.018
-678.208	421.181	-0.206	-0.587
-677.193	-44.283	-0.587	-0.389
-676.178	-106.113	-0.397	0.117
-675.164	-81.538	0.333	-0.144
-674.149	-200.000	-0.073	-0.438
-673.135	-100.411	0.166	-0.054
-672.120	551.722	0.098	0.314
-671.105	-200.000	0.010	0.118
-670.091	-151.604	0.368	0.036
-669.076	442.215	-0.162	-0.473
-668.062	151.918	0.146	-0.264
-667.047	-142.433	-0.458	0.059
-666.032	-23.117	0.124	0.099
-665.018	-87.220	-0.264	-0.106
-664.003	-36.679	-0.395	-0.280
-662.989	-167.318	-0.052	0.003
-661.974	-41.753	-0.236	0.160
-660.959	-185.527	0.086	-0.002
-659.945	56.279	-0.229	-0.294
-658.930	-176.582	-0.659	0.022
-657.916	142.601	0.117	0.206
-656.901	-193.684	-0.229	-0.003
-655.886	-15.668	0.191	-0.161
-654.872	-49.454	0.057	-0.036
-653.857	-87.439	-0.229	-0.091
-652.843	-66.095	-0.270	0.142
-651.828	214.349	-0.054	-0.113
-650.814	136.811	-0.307	0.531
-649.799	-20.637	-0.625	0.507
-648.784	-151.062	0.237	-0.023
-647.770	-92.794	-0.914	-0.336
-646.755	-107.129	-0.227	0.066
-645.741	-54.097	-0.412	0.247
-644.726	800.000	-0.079	-0.357
-643.711	340.719	0.109	0.283
-642.697	306.547	-0.184	0.454
-641.682	87.858	-0.294	0.431
-640.668	-58.130	0.114	-0.065
-639.653	-200.000	-0.017	-0.113
-638.638	239.423	0.035	-0.077
-637.624	149.107	-0.118	0.211
-636.609	-200.000	0.012	0.241
-635.595	-92.378	0.070	-0.026
-634.580	122.216	0.256	-0.423
-633.565	25.770	0.513	-0.565
-632.551	-200.000	0.055	-0.353
-631.536	-200.000	0.007	-0.607
-630.522	155.431	-0.165	-0.302
-629.507	-69.748	0.208	-0.105
-628.492	-16.815	0.288	-0.241
-627.478	-5.163	0.295	-0.268
-626.463	-200.000	-0.026	0.243
-625.449	-200.000	-0.001	0.011
-624.434	200.084	0.071	0.145
-623.419	-200.000	0.012	-0.193
-622.405	800.000	0.026	0.150
-621.390	-36.529	-0.431	-0.306
-620.376	-83.077	1.140	-0.483
-619.361	-100.025	-0.456	0.149
-618.346	-62.078	0.579	-0.318
-617.332	-162.753	0.047	0.003
-616.317	-34.737	-0.396	-0.285
-615.303	-200.000	0.040	-0.296
-614.288	-157.988	0.115	0.009
-613.273	-81.820	0.216	0.093
-612.259	111.635	-0.047	-0.076
-611.244	-200.000	0.032	0.679
-610.230	87.297	0.334	0.489
-609.215	274.234	-0.015	0.035
-608.201	33.224	-0.077	0.088
-607.186	800.000	-0.073	-0.274
-606.171	-174.101	0.045	-0.002
-605.157	800.000	0.053	-0.255
-604.142	23.659	-0.265	-0.288
-603.128	136.726	-0.101	-0.174
-602.113	201.199	-0.092	-0.189
-601.098	-67.223	-0.188	0.097
-600.084	-172.609	-0.382	0.016
-599.069	229.601	0.171	0.370
-598.055	800.000	0.090	0.336
-597.040	42.188	0.362	0.434
-596.025	-64.710	-0.491	0.262
-595.011	207.464	-0.141	-0.291
-593.996	-131.551	-0.546	-0.094
-592.982	180.249	-0.144	-0.280
-591.967	800.000	0.024	0.130
-590.952	-12.761	-0.368	0.316
-589.938	231.661	-0.280	-0.609
-588.923	-81.401	-0.394	0.170
-587.909	-96.201	0.180	0.063
-586.894	96.347	-0.194	0.293
-585.879	-34.650	0.252	0.181
-584.865	-200.000	0.042	0.268
-583.850	-113.231	0.118	-0.031
-582.836	-18.331	-0.297	0.245
-581.821	-109.931	-0.426	0.117
-580.806	12.597	0.185	0.188
-579.792	589.343	-0.118	-0.387
-578.777	271.636	-0.213	0.498
-577.763	-200.000	-0.105	0.729
-576.748	-59.584	0.352	-0.199
-575.733	800.000	-0.047	0.221
-574.719	-75.522	0.217	-0.101
-573.704	-73.313	0.267	-0.128
-572.690	-43.783	-0.174	-0.116
-571.675	-35.469	0.175	0.125
-570.661	-80.110	-0.341	0.150
-569.646	-57.358	0.252	0.145
-568.631	-84.038	0.169	0.071
-567.617	139.793	0.113	0.196
-566.602	-72.273	-0.380	-0.185
-565.588	186.873	-0.127	0.250
-564.573	-66.048	0.645	-0.338
-563.558	68.457	0.067	-0.091
-562.544	-135.199	-0.499	0.078
-561.529	-150.324	-0.379	-0.038
-560.515	63.942	0.234	-0.311
-559.500	-182.305	-0.529	-0.013
-558.485	-34.264	-0.179	0.129
-557.471	-43.698	0.241	0.160
-556.456	-67.362	0.485	0.250
-555.442	-51.874	-0.187	-0.114
-554.427	-89.068	-0.087	0.034
-553.412	-200.000	-0.012	0.242
-552.398	237.994	-0.208	-0.457
-551.383	381.236	0.052	0.141
-550.369	-200.000	0.078	0.467
-549.354	171.825	-0.205	-0.389
-548.339	143.775	-0.151	-0.266
-547.325	-200.000	0.016	0.261
-546.310	-74.304	-0.462	0.219
-545.296	-141.506	0.160	-0.021
-544.281	785.952	-0.047	-0.170
-543.266	-83.010	0.168	0.071
-542.252	-88.966	-0.328	0.127
-541.237	270.413	0.145	0.337
-540.223	800.000	-0.053	-0.284
-539.208	-82.158	-0.519	-0.222
-538.193	58.670	-0.226	-0.293
-537.179	-130.199	-0.382	-0.068
-536.164	-135.379	-0.478	0.074
-535.150	-74.551	-0.398	0.188
-534.135	80.719	0.198	0.281
-533.121	-51.094	-0.263	0.162
-532.106	-200.000	0.008	0.056
-531.091	-129.576	-0.064	-0.012
-530.077	-124.249	-0.210	0.043
-529.062	308.586	-0.154	0.381
-528.048	157.813	-0.069	-0.126
-527.033	95.198	-0.246	-0.370
-526.018	746.670	0.059	0.211
-525.004	-200.000	-0.058	-0.442
-523.989	-99.417	-0.528	-0.174
-522.975	-135.722	0.468	0.072
-521.960	800.000	0.092	-0.372
-520.945	132.733	0.177	0.302
-519.931	-39.713	-0.062	0.043
-518.916	-4.014	0.181	0.165
-517.902	135.654	-0.174	0.299
-516.887	134.944	0.164	0.280
-515.872	-7.032	-0.249	-0.223
-514.858	-24.534	-0.236	-0.184
-513.843	-103.771	0.544	-0.167
-512.829	-62.210	-0.185	-0.101
-511.814	92.628	0.223	-0.331
-510.799	-119.646	-0.172	0.039
-509.785	-113.938	0.722	0.183
-508.770	-102.272	0.343	-0.108
-507.756	-94.933	-0.308	-0.109
-506.741	22.996	-0.141	-0.152
-505.726	-91.726	0.829	0.308
-504.712	-103.882	0.451	-0.138
-503.697	800.000	-0.149	0.561
-502.683	509.333	0.077	-0.238
-501.668	-31.242	0.323	-0.239
-500.653	186.586	0.039	0.076
-499.639	-120.063	0.386	0.086
-498.624	-175.073	0.239	-0.009
-497.610	-200.000	-0.049	-0.390
-496.595	-200.000	-0.005	-0.105
-495.581	417.531	0.056	0.159
-494.566	-115.538	0.214	-0.052
-493.551	181.664	0.111	-0.216
-492.537	-200.000	-0.012	-0.113
-491.522	-133.901	-0.380	0.061
-490.508	8.804	-0.178	0.176
-489.493	309.948	-0.120	0.297
-488.478	-58.226	-0.231	-0.132
-487.464	282.448	-0.111	-0.263
-486.449	267.647	0.194	-0.449
-485.435	-200.000	0.001	0.097
-484.420	-181.173	-0.518	0.013
-483.405	-43.259	-0.258	0.171
-482.391	-107.641	0.257	0.073
-481.376	-165.778	0.278	0.015
-480.362	-121.985	0.509	0.109
-479.347	-139.369	0.176	0.025
-478.332	39.213	0.134	0.158
-477.318	773.546	-0.075	-0.270
-476.303	33.441	-0.199	0.227
-475.289	-78.907	-0.522	0.232
-474.274	-29.652	0.139	0.104
-473.259	-48.972	0.124	-0.078
-472.245	-98.991	0.154	-0.051
-471.230	-20.791	0.452	-0.364
-470.216	-111.600	0.407	-0.108
-469.201	800.000	-0.026	0.133
-468.186	-2.916	-0.244	0.223
-467.172	27.913	0.407	-0.451
-466.157	65.065	-0.249	0.330
-465.143	800.000	-0.055	0.245
-464.128	139.455	0.399	-0.691
-463.113	280.499	0.051	-0.120
-462.099	-200.000	-0.065	0.556
-461.084	-200.000	0.011	0.178
-460.070	365.773	-0.231	0.614
-459.055	86.055	0.054	0.078
-458.040	-112.137	-0.203	-0.053
-457.026	18.260	0.192	-0.201
-456.011	-88.291	-0.417	-0.163
-454.997	-200.000	-0.035	-0.263
-453.982	-25.608	0.212	0.164
-452.968	245.251	0.197	0.436
-451.953	127.284	0.054	-0.090
-450.938	-200.000	-0.022	-0.267
-449.924	-59.213	-0.510	0.288
-448.909	-81.364	0.571	-0.246
-447.895	-137.390	0.212	-0.031
-446.880	-46.852	0.147	-0.094
-445.865	800.000	-0.098	0.555
-444.851	-29.508	-0.171	0.128
-443.836	-32.005	0.188	0.138
-442.822	-57.296	0.320	-0.184
-441.807	-75.282	-0.397	-0.185
-440.792	282.233	-0.171	-0.405
-439.778	244.207	0.306	-0.678
-438.763	-15.938	0.109	-0.091
-437.749	228.847	-0.076	0.163
-436.734	65.716	0.198	-0.263
-435.719	603.153	-0.157	-0.514
-434.705	-133.450	-0.444	-0.072
-433.690	666.849	-0.020	-0.069
-432.676	68.180	0.078	-0.105
-431.661	216.096	-0.101	-0.211
-430.646	-53.132	-0.227	0.136
-429.632	-100.549	-0.148	-0.048
-428.617	-200.000	-0.006	-0.048
-427.603	800.000	-0.052	0.258
-426.588	-138.220	0.578	0.083
-425.573	398.405	0.279	0.771
-424.559	-120.532	-0.032	0.007
-423.544	-86.437	0.283	0.114
-422.530	-200.000	0.011	-0.252
-421.515	-112.598	0.130	-0.034
-420.500	-87.304	0.463	-0.183
-419.486	-200.000	-0.034	-0.378
-418.471	235.669	-0.170	0.369
-417.457	-78.846	-0.185	-0.082
-416.442	97.507	-0.141	-0.213
-415.428	24.049	-0.294	0.318
-414.413	-149.685	0.175	0.018
-413.398	-82.684	0.538	0.227
-412.384	161.410	-0.219	-0.403
-411.369	-26.231	-0.329	-0.253
-410.355	357.468	0.176	-0.461
-409.340	-110.208	-0.309	0.084
-408.325	-106.635	0.279	0.081
-407.311	-21.765	-0.178	-0.142
-406.296	-43.584	0.272	-0.179
-405.282	-200.000	0.091	0.531
-404.267	0.091	0.187	0.175
-403.252	-76.088	-0.345	0.159
-402.238	-107.634	0.194	0.055
-401.223	800.000	-0.125	-0.672
-400.209	141.754	0.153	-0.267
-399.194	-42.433	-0.290	-0.193
-398.179	800.000	-0.021	-0.111
-397.165	38.199	-0.217	-0.253
-396.150	144.539	0.237	-0.416
-395.136	-63.910	0.119	-0.064
-394.121	-69.972	0.177	-0.088
-393.106	-200.000	0.038	0.415
-392.092	-141.643	0.234	0.030
-391.077	-11.064	0.197	-0.170
-390.063	35.973	-0.052	-0.060
-389.048	800.000	-0.091	-0.348
-388.033	-93.809	-0.509	0.183
-387.019	-200.000	-0.017	0.105
-386.004	800.000	-0.094	0.378
-384.990	526.149	-0.132	-0.408
-383.975	421.147	0.034	-0.095
-382.960	-200.000	0.064	0.388
-381.946	18.294	0.171	-0.179
-380.931	-8.700	0.158	-0.139
-379.917	-47.224	0.105	-0.067
-378.902	250.619	0.078	-0.174
-377.888	-52.515	-0.423	-0.255
-376.873	-144.260	0.479	0.058
-375.858	-36.967	0.215	-0.150
-374.844	-200.000	0.058	-0.364
-373.829	-155.269	-0.486	-0.041
-372.815	-117.976	0.022	-0.005
-371.800	-98.945	0.455	0.150
-370.785	-40.198	0.234	0.159
-369.771	425.959	0.217	-0.615
-368.756	-121.199	0.493	-0.107
-367.742	586.508	-0.096	0.310
-366.727	156.538	-0.314	-0.569
-365.712	-145.713	0.406	-0.047
-364.698	64.799	0.076	0.101
-363.683	-138.371	-0.517	0.074
-362.669	527.676	0.053	-0.164
-361.654	3.749	0.162	0.155
-360.639	-31.119	0.341	-0.251
-359.625	-28.577	0.217	-0.163
-358.610	-141.291	0.413	-0.054
-357.596	-183.468	-0.201	0.004
-356.581	319.382	0.068	-0.171
-355.566	374.092	-0.184	0.493
-354.552	-18.587	-0.163	0.133
-353.537	-126.284	0.329	-0.064
-352.523	-200.000	-0.021	0.137
-351.508	310.098	-0.110	-0.270
-350.493	31.546	0.378	-0.425
-349.479	-165.418	0.336	-0.019
-348.464	129.354	0.161	-0.269
-347.450	-93.220	-0.273	-0.099
-346.435	280.463	-0.178	0.417
-345.420	-200.000	0.027	-0.227
-344.406	-94.372	-0.433	0.154
-343.391	800.000	0.123	-0.446
-342.377	-34.053	-0.326	0.234
-341.362	335.631	-0.142	0.360
-340.348	-87.588	-0.039	0.015
-339.333	-1.068	-0.188	0.174
-338.318	171.646	0.138	-0.261
-337.304	800.000	0.103	0.422
-336.289	81.322	0.118	-0.166
-335.275	-97.153	0.416	-0.141
-334.260	-40.209	0.121	-0.082
-333.245	-200.000	0.028	-0.299
-332.231	800.000	0.034	-0.187
-331.216	-23.576	-0.175	0.137
-330.202	17.895	0.201	-0.210
-329.187	-174.003	-0.231	-0.009
-328.172	-177.964	0.257	0.008
-327.158	-42.749	0.295	-0.196
-326.143	-200.000	-0.056	0.458
-325.129	800.000	0.030	0.154
-324.114	95.777	-0.136	-0.203
-323.099	70.688	-0.302	0.409
-322.085	-92.478	-0.359	-0.131
-321.070	-96.821	0.420	-0.143
-320.056	432.446	-0.014	-0.041
-319.041	36.422	0.053	-0.061
-318.026	11.794	0.046	-0.046
-317.012	800.000	-0.036	0.170
-315.997	-42.217	-0.140	-0.093
-314.983	140.466	-0.146	-0.252
-313.968	800.000	0.075	0.272
-312.953	-145.692	-0.090	0.010
-311.939	800.000	0.046	-0.181
-310.924	-180.085	0.280	0.008
-309.910	176.557	-0.387	-0.737
-308.895	-105.269	-0.429	-0.127
-307.880	78.591	0.258	0.361
-306.866	-28.513	0.220	-0.165
-305.851	-109.903	-0.235	-0.064
-304.837	201.365	-0.171	-0.346
-303.822	-12.163	-0.101	-0.087
-302.807	800.000	-0.074	-0.345
-301.793	-27.874	-0.210	-0.158
-300.778	-45.959	0.337	0.216
-299.764	-52.415	-0.528	0.318
-298.749	-139.425	-0.125	0.017
-297.735	314.338	0.062	0.153
-296.720	729.043	0.044	0.154
-295.705	785.451	-0.065	-0.236
-294.691	137.431	-0.131	0.224
-293.676	-68.080	-0.237	-0.120
-292.662	-101.089	0.286	0.091
-291.647	-200.000	0.047	0.315
-290.632	-200.000	0.001	0.480
-289.618	-162.233	0.563	0.036
-288.603	-73.166	0.492	0.234
-287.589	584.393	0.118	0.379
-286.574	-69.808	0.507	-0.251
-285.559	800.000	-0.061	0.240
-284.545	66.468	-0.060	0.080
-283.530	-48.988	0.186	-0.116
-282.516	-143.501	-0.290	-0.036
-281.501	-84.003	0.607	-0.250
-280.486	800.000	-0.072	-0.269
-279.472	89.271	-0.115	0.167
-278.457	18.253	-0.101	0.105
-277.443	-59.994	-0.103	0.057
-276.428	153.769	-0.170	-0.304
-275.413	151.621	-0.035	-0.063
-274.399	-200.000	0.008	-0.249
-273.384	800.000	0.122	-0.639
-272.370	-52.545	0.442	0.265
-271.355	-21.797	-0.358	-0.284
-270.340	-200.000	0.010	-0.354
-269.326	560.202	0.084	0.266
-268.311	-15.214	-0.433	0.360
-267.297	-200.000	0.014	0.176
-266.282	-101.387	-0.250	0.079
-265.267	-200.000	0.059	0.373
-264.253	-109.067	0.583	0.161
-263.238	170.892	-0.059	0.110
-262.224	-51.201	0.139	-0.085
-261.209	-28.319	-0.136	0.102
-260.195	-200.000	-0.009	-0.177
-259.180	-200.000	-0.029	0.246
-258.165	249.782	0.163	0.361
-257.151	32.709	0.312	-0.352
-256.136	-82.792	0.180	-0.076
-255.122	-49.061	-0.302	0.188
-254.107	-55.299	-0.310	-0.181
-253.092	-119.759	0.229	-0.051
-252.078	800.000	-0.066	0.322
-251.063	-55.654	-0.285	-0.166
-250.049	-65.495	0.105	-0.055
-249.034	183.284	0.165	-0.318
-248.019	-200.000	-0.030	0.468
-247.005	160.354	0.202	-0.368
-245.990	-6.003	-0.367	0.326
-244.976	13.411	0.131	-0.132
-243.961	-11.939	0.312	-0.266
-242.946	522.437	0.046	-0.140
-241.932	33.301	-0.212	0.240
-240.917	81.341	-0.082	0.115
-239.903	-25.569	-0.225	-0.173
-238.888	-128.244	0.231	-0.043
-237.873	-46.340	0.277	0.177
-236.859	4.528	-0.252	-0.241
-235.844	-33.736	-0.347	0.249
-234.830	719.599	-0.094	0.328
-233.815	-67.827	-0.245	-0.124
-232.800	217.729	-0.032	-0.067
-231.786	84.446	-0.160	0.228
-230.771	-122.085	0.259	0.055
-229.757	-149.746	-0.104	0.011
-228.742	-71.739	-0.204	-0.099
-227.727	-200.000	0.009	0.136
-226.713	-0.197	-0.260	-0.241
-225.698	800.000	-0.091	-0.425
-224.684	55.819	-0.259	-0.327
-223.669	-84.728	0.245	0.100
-222.655	-22.249	-0.296	-0.233
-221.640	48.229	0.097	0.118
-220.625	800.000	-0.169	0.868
-219.611	-115.320	0.394	-0.096
-218.596	800.000	-0.057	0.277
-217.582	800.000	0.065	0.244
-216.567	229.516	0.105	-0.225
-215.552	-187.803	0.227	-0.004
-214.538	437.612	0.068	-0.195
-213.523	26.214	-0.106	-0.115
-212.509	-200.000	-0.052	-0.351
-211.494	667.748	-0.105	0.357
-210.479	274.275	0.226	0.522
-209.465	-48.194	0.247	0.154
-208.450	134.672	0.212	-0.358
-207.436	800.000	0.052	0.282
-206.421	-200.000	0.046	0.456
-205.406	-89.564	-0.213	-0.081
-204.392	-178.220	-0.325	-0.010
-203.377	138.514	0.116	-0.199
-202.363	-54.143	-0.360	0.212
-201.348	-160.082	0.272	0.019
-200.333	499.730	0.104	-0.313
-199.319	800.000	-0.075	-0.427
-198.304	-136.390	-0.353	0.053
-197.290	-200.000	-0.027	-0.288
-196.275	92.087	-0.311	0.456
-195.260	47.620	-0.055	0.066
-194.246	-109.712	0.453	0.123
-193.231	-200.000	0.043	-0.349
-192.217	-133.958	-0.116	-0.018
-191.202	800.000	-0.004	-0.019
-190.187	49.315	0.287	0.351
-189.173	-70.436	-0.528	0.259
-188.158	-146.611	-0.544	-0.061
-187.144	-200.000	-0.024	-0.185
-186.129	-127.939	0.055	0.010
-185.114	57.775	-0.307	0.390
-184.100	-85.994	0.332	0.133
-183.085	78.293	0.267	0.371
-182.071	364.751	-0.113	0.296
-181.056	673.000	0.079	0.266
-180.042	-127.370	0.418	0.078
-179.027	-185.822	-0.390	-0.007
-178.012	152.250	-0.082	0.145
-176.998	-20.379	-0.461	0.368
-175.983	-128.583	-0.111	-0.020
-174.969	138.597	0.222	0.379
-173.954	800.000	0.098	0.400
-172.939	-100.516	-0.191	0.061
-171.925	-68.226	-0.175	-0.088
-170.910	-10.200	0.120	-0.103
-169.896	-107.992	0.452	-0.127
-168.881	475.032	-0.073	-0.216
-167.866	218.033	0.191	0.398
-166.852	-101.652	-0.380	0.119
-165.837	-76.914	0.232	-0.105
-164.823	-190.771	0.195	-0.003
-163.808	543.595	0.077	0.240
-162.793	-154.418	-0.249	0.021
-161.779	597.294	0.145	-0.469
-160.764	-142.293	0.149	-0.019
-159.750	-129.963	0.357	-0.063
-158.735	-76.830	0.227	0.102
-157.720	-97.097	-0.110	-0.037
-156.706	-200.000	-0.026	0.544
-155.691	25.515	0.265	0.286
-154.677	109.547	0.090	0.141
-153.662	61.257	0.039	-0.050
-152.647	-45.423	-0.282	0.181
-151.633	195.281	-0.134	0.265
-150.618	49.834	0.111	-0.136
-149.604	-200.000	0.004	0.348
-148.589	-150.008	-0.496	-0.050
-147.574	265.436	0.208	-0.473
-146.560	240.246	-0.072	-0.156
-145.545	-82.206	-0.055	0.023
-144.531	282.524	-0.173	0.404
-143.516	-55.729	-0.268	-0.155
-142.502	-94.963	0.641	-0.223
-141.487	-52.718	0.138	-0.082
-140.472	-101.093	0.283	0.089
-139.458	-89.058	-0.639	-0.244
-138.443	131.334	0.280	-0.468
-137.429	-200.000	-0.003	-0.401
-136.414	-58.469	0.244	-0.137
-135.399	31.036	-0.081	0.090
-134.385	-175.647	0.096	0.003
-133.370	108.625	-0.122	-0.190
-132.356	-71.975	0.758	0.364
-131.341	351.605	-0.147	0.380
-130.326	36.447	-0.133	0.153
-129.312	-200.000	0.030	0.281
-128.297	0.231	0.265	-0.245
-127.283	-99.947	0.371	0.119
-126.268	-30.018	0.263	0.194
-125.253	156.462	-0.109	0.196
-124.239	28.365	-0.236	0.258
-123.224	-86.261	0.204	0.081
