DTS Sentinel unit serial number:	SN409020Multiplexer serial number:	ORYXHardware model number:	OX4-SRSoftware version number:	ORYX F/W v3.00 Oryx Data Collector v3.7.2.0data status	okinstallation	HaddamTimeLapsedifferential loss correction	single-endedforward channel	channel 3reverse channel	N/Adate	2011/06/21time	23:21:17forward acquisition time	30.00reverse acquisition time	0.00gamma	498.7831k internal	0.1753k external	0.1753temperature offset calibration	1.0074default loss term (dB/km)	0.3790temperature slope calibration	1.3530multiplexer offset coefficient	1.0000multiplexer slope coefficient	1.0000fibre end	0.00T internal ref (°C)	23.31T ext. ref 1 (°C)	18.76T ext. ref 2 (°C)	0.05length (m)	temperature (°C)	Stokes	anti-Stokes-747.200	26.244	-0.205	0.227
-746.185	326.445	-0.148	0.378
-745.171	32.327	0.177	0.203
-744.156	-53.835	0.653	0.394
-743.142	-200.000	-0.021	-0.156
-742.127	-71.326	0.235	0.116
-741.112	800.000	-0.042	0.201
-740.098	119.160	-0.222	-0.364
-739.083	159.605	-0.106	-0.196
-738.069	76.184	0.214	0.300
-737.054	-88.033	-0.362	0.143
-736.039	-60.132	-0.604	-0.341
-735.025	84.433	0.399	-0.579
-734.010	193.454	-0.290	-0.584
-732.996	-59.703	-0.383	0.217
-731.981	-156.277	-0.154	-0.013
-730.966	-200.000	0.008	0.103
-729.952	148.973	0.171	0.307
-728.937	74.827	0.283	-0.395
-727.923	-200.000	-0.005	0.325
-726.908	-59.800	-0.197	-0.111
-725.894	306.191	-0.188	-0.465
-724.879	506.004	0.044	-0.137
-723.864	-200.000	-0.006	0.221
-722.850	52.719	0.043	-0.055
-721.835	-112.983	-0.457	0.119
-720.821	788.827	0.047	0.173
-719.806	102.233	-0.346	-0.536
-718.791	241.851	0.266	-0.591
-717.777	-13.048	0.242	0.208
-716.762	-105.565	0.172	-0.051
-715.748	-66.870	0.359	-0.187
-714.733	310.390	0.126	0.314
-713.718	800.000	-0.032	-0.123
-712.704	153.224	-0.170	-0.310
-711.689	-13.689	-0.167	-0.143
-710.675	-94.733	0.715	0.256
-709.660	-200.000	0.018	0.294
-708.645	-133.465	0.421	0.069
-707.631	-52.454	0.510	0.312
-706.616	238.004	-0.087	-0.193
-705.602	-200.000	-0.039	0.276
-704.587	6.730	-0.179	-0.177
-703.572	128.632	-0.065	0.110
-702.558	-14.079	0.174	-0.149
-701.543	-64.857	0.366	0.195
-700.529	-13.079	0.090	0.078
-699.514	539.776	-0.096	0.305
-698.499	79.450	-0.126	-0.179
-697.485	29.402	-0.077	0.087
-696.470	111.117	0.277	0.443
-695.456	-74.742	0.297	0.140
-694.441	-149.635	-0.251	-0.026
-693.426	29.240	0.296	-0.332
-692.412	800.000	-0.084	-0.435
-691.397	-76.588	-0.229	0.106
-690.383	-186.211	0.105	0.002
-689.368	-83.233	0.561	0.237
-688.354	-89.114	-0.300	0.117
-687.339	-52.788	-0.233	0.141
-686.324	274.918	0.172	0.404
-685.310	-7.735	0.182	-0.162
-684.295	-200.000	0.037	-0.853
-683.281	-108.610	-0.158	-0.045
-682.266	-107.591	-0.403	-0.116
-681.251	228.979	-0.015	-0.031
-680.237	-4.838	0.230	0.209
-679.222	209.197	-0.086	-0.180
-678.208	94.176	-0.227	-0.341
-677.193	12.770	0.198	-0.202
-676.178	-95.532	-0.337	0.119
-675.164	-200.000	-0.081	0.655
-674.149	-109.239	0.259	0.072
-673.135	-94.896	-0.336	-0.120
-672.120	-200.000	0.007	0.153
-671.105	367.520	-0.188	0.505
-670.091	-178.499	0.148	0.004
-669.076	286.481	0.225	-0.540
-668.062	77.172	0.117	0.165
-667.047	-200.000	0.002	-0.320
-666.032	654.838	-0.072	-0.247
-665.018	-117.882	0.338	0.080
-664.003	-14.356	0.091	0.078
-662.989	-110.619	-0.199	-0.054
-661.974	-68.842	0.705	-0.358
-660.959	115.849	0.405	-0.656
-659.945	134.035	-0.384	-0.659
-658.930	-110.005	0.345	0.095
-657.916	3.168	-0.161	-0.155
-656.901	-119.390	0.724	-0.165
-655.886	-200.000	0.028	-0.393
-654.872	-64.230	-0.164	0.088
-653.857	8.949	-0.017	0.017
-652.843	379.421	-0.018	-0.049
-651.828	-49.945	-0.422	-0.264
-650.814	-63.667	0.233	0.126
-649.799	651.673	0.173	0.589
-648.784	-97.308	-0.324	-0.111
-647.770	128.115	-0.350	-0.590
-646.755	800.000	0.059	-0.294
-645.741	-49.557	-0.363	0.228
-644.726	-120.143	0.311	-0.070
-643.711	800.000	-0.052	-0.245
-642.697	-37.369	0.162	0.114
-641.682	-58.054	-0.461	-0.265
-640.668	243.865	-0.167	0.371
-639.653	52.517	0.439	-0.554
-638.638	800.000	-0.052	-0.294
-637.624	800.000	-0.068	-0.317
-636.609	-152.399	-0.304	0.029
-635.595	-94.377	-0.224	-0.080
-634.580	-150.915	-0.287	-0.028
-633.565	-12.029	-0.305	-0.264
-632.551	800.000	-0.108	0.490
-631.536	-121.327	-0.246	-0.054
-630.522	-113.213	-0.283	-0.073
-629.507	-132.741	-0.164	0.028
-628.492	-95.596	0.396	0.139
-627.478	-49.053	-0.096	0.060
-626.463	19.304	0.265	-0.281
-625.449	365.326	-0.082	-0.220
-624.434	-73.983	0.167	0.080
-623.419	-200.000	-0.047	-0.437
-622.405	800.000	0.045	0.232
-621.390	535.087	0.079	-0.249
-620.376	28.322	0.168	-0.188
-619.361	26.795	0.100	0.110
-618.346	545.853	-0.043	0.138
-617.332	116.198	-0.100	0.162
-616.317	-200.000	-0.059	-0.457
-615.303	-121.232	0.302	0.066
-614.288	-46.279	0.096	-0.062
-613.273	-118.851	0.617	-0.142
-612.259	-99.101	-0.282	-0.094
-611.244	-109.637	-0.299	-0.083
-610.230	-8.798	-0.172	0.152
-609.215	-2.961	-0.113	0.104
-608.201	-107.980	-0.310	0.088
-607.186	-200.000	-0.018	0.476
-606.171	-28.198	0.337	0.256
-605.157	-11.028	0.145	-0.126
-604.142	758.918	-0.041	0.148
-603.128	-157.704	-0.023	-0.002
-602.113	-200.000	-0.003	-0.081
-601.098	-143.054	-0.317	0.040
-600.084	-64.450	0.535	0.286
-599.069	-129.421	-0.218	0.040
-598.055	-119.930	0.349	0.079
-597.040	52.042	0.220	-0.276
-596.025	-54.222	-0.127	-0.076
-595.011	-118.958	0.569	-0.130
-593.996	96.807	0.112	0.169
-592.982	-63.845	-0.080	0.043
-591.967	84.886	0.086	0.125
-590.952	-21.041	-0.323	0.260
-589.938	217.470	-0.162	-0.341
-588.923	-62.568	0.402	0.219
-587.909	194.673	0.214	-0.429
-586.894	-76.412	-0.250	-0.115
-585.879	-65.448	0.389	0.205
-584.865	-200.000	0.002	0.088
-583.850	-51.762	0.082	-0.050
-582.836	-59.602	-0.385	-0.217
-581.821	-79.870	0.283	-0.125
-580.806	74.405	-0.450	0.624
-579.792	-200.000	-0.033	0.261
-578.777	758.612	0.079	0.283
-577.763	-103.343	-0.322	-0.099
-576.748	-100.064	0.331	0.108
-575.733	-87.402	0.255	0.101
-574.719	15.715	-0.214	0.222
-573.704	-51.015	0.108	0.067
-572.690	132.122	0.343	0.584
-571.675	182.310	-0.121	0.236
-570.661	800.000	0.070	-0.270
-569.646	-81.973	-0.149	-0.064
-568.631	170.803	-0.249	-0.472
-567.617	112.797	-0.177	-0.283
-566.602	-93.783	-0.225	-0.081
-565.588	628.954	-0.057	0.190
-564.573	50.857	-0.114	-0.142
-563.558	-99.844	0.362	-0.119
-562.544	-21.382	-0.368	0.295
-561.529	-89.925	-0.297	0.114
-560.515	-132.553	0.308	-0.052
-559.500	-120.415	-0.286	-0.064
-558.485	47.720	-0.371	0.456
-557.471	88.807	0.049	-0.072
-556.456	82.900	-0.083	0.120
-555.442	-77.591	-0.169	0.077
-554.427	61.605	-0.277	-0.364
-553.412	88.077	-0.262	0.384
-552.398	257.765	-0.120	-0.272
-551.383	73.781	-0.227	-0.313
-550.369	-9.516	-0.249	0.218
-549.354	-95.421	0.293	0.103
-548.339	785.726	0.043	-0.156
-547.325	-200.000	-0.007	0.089
-546.310	6.543	-0.210	0.206
-545.296	-40.935	-0.434	0.295
-544.281	-140.651	-0.298	0.040
-543.266	800.000	-0.089	0.384
-542.252	-29.473	0.137	0.103
-541.237	-143.193	-0.517	-0.065
-540.223	-200.000	-0.026	0.151
-539.208	-90.277	-0.278	-0.106
-538.193	109.867	0.078	0.123
-537.179	-200.000	0.019	0.224
-536.164	800.000	0.073	-0.269
-535.150	30.484	-0.324	-0.364
-534.135	2.095	0.077	-0.073
-533.121	-91.834	0.209	-0.078
-532.106	-5.731	-0.166	-0.149
-531.091	800.000	0.100	-0.445
-530.077	-113.916	0.221	0.056
-529.062	-177.797	-0.281	-0.009
-528.048	-89.210	0.213	0.082
-527.033	-200.000	0.046	0.379
-526.018	95.070	-0.092	0.138
-525.004	121.255	0.282	0.463
-523.989	-99.263	-0.158	0.052
-522.975	-200.000	0.001	-0.020
-521.960	800.000	0.075	0.378
-520.945	31.745	0.176	0.199
-519.931	741.642	-0.075	0.266
-518.916	638.984	-0.068	-0.228
-517.902	-200.000	0.010	-0.140
-516.887	-141.984	0.078	0.010
-515.872	193.147	0.037	-0.073
-514.858	-200.000	-0.005	-0.182
-513.843	-144.064	0.267	0.033
-512.829	-8.691	-0.233	0.205
-511.814	-181.580	0.368	0.009
-510.799	-122.840	-0.250	-0.053
-509.785	-92.515	-0.191	0.070
-508.770	-87.943	0.169	0.067
-507.756	-151.166	0.347	0.034
-506.741	-158.802	0.389	-0.029
-505.726	800.000	-0.074	-0.311
-504.712	-95.393	-0.615	-0.216
-503.697	153.340	-0.100	-0.181
-502.683	-1.515	0.464	-0.430
-501.668	147.980	0.019	-0.033
-500.653	-143.599	-0.299	0.037
-499.639	-200.000	-0.004	0.683
-498.624	-6.979	-0.245	-0.218
-497.610	163.265	0.218	-0.404
-496.595	-137.253	0.232	0.034
-495.581	502.651	0.066	-0.200
-494.566	27.864	0.248	-0.274
-493.551	-61.776	-0.298	0.163
-492.537	-33.072	-0.282	0.205
-491.522	79.590	0.199	-0.281
-490.508	-16.964	0.384	0.318
-489.493	131.304	-0.236	0.399
-488.478	-121.987	0.187	0.040
-487.464	390.123	-0.147	-0.401
-486.449	67.092	0.284	0.380
-485.435	-51.580	0.030	-0.018
-484.420	748.826	0.043	0.152
-483.405	-200.000	-0.004	-0.235
-482.391	-110.736	0.182	0.049
-481.376	-36.723	0.729	-0.513
-480.362	-134.168	-0.147	0.024
-479.347	273.364	-0.085	0.197
-478.332	800.000	0.053	0.204
-477.318	40.071	-0.526	0.621
-476.303	-0.417	0.250	0.233
-475.289	32.649	0.174	0.198
-474.274	533.030	0.146	0.456
-473.259	525.376	-0.116	0.362
-472.245	-174.850	0.549	-0.020
-471.230	625.603	0.086	0.286
-470.216	800.000	-0.047	-0.228
-469.201	-175.230	0.306	-0.011
-468.186	-76.318	-0.077	0.035
-467.172	268.860	0.112	0.258
-466.157	-7.996	0.078	-0.069
-465.143	-200.000	-0.062	-0.537
-464.128	47.332	-0.134	-0.164
-463.113	-62.336	0.321	-0.175
-462.099	-81.977	-0.200	0.085
-461.084	165.329	-0.207	0.386
-460.070	-101.459	0.361	0.114
-459.055	229.828	-0.080	-0.173
-458.040	-44.601	-0.113	-0.074
-457.026	-131.606	0.202	-0.035
-456.011	126.781	-0.100	-0.166
-454.997	-198.878	0.374	0.003
-453.982	-125.872	-0.275	0.054
-452.968	97.343	-0.191	-0.288
-451.953	67.410	-0.136	-0.182
-450.938	199.654	-0.104	-0.209
-449.924	-143.037	-0.114	0.014
-448.909	22.733	-0.071	-0.076
-447.895	-73.813	0.513	0.243
-446.880	100.270	0.303	0.461
-445.865	-104.168	0.141	0.043
-444.851	330.870	-0.050	-0.126
-443.836	-82.474	0.084	-0.036
-442.822	-13.697	-0.322	-0.273
-441.807	451.478	-0.084	-0.245
-440.792	-2.521	0.115	-0.105
-439.778	-138.869	0.798	-0.113
-438.763	80.718	-0.064	-0.090
-437.749	16.771	0.099	-0.102
-436.734	58.023	0.191	0.245
-435.719	-105.841	-0.416	0.122
-434.705	294.521	-0.065	0.157
-433.690	-53.453	0.242	0.145
-432.676	-119.378	0.195	0.044
-431.661	-54.621	0.444	0.262
-430.646	155.988	-0.115	-0.208
-429.632	31.276	0.221	-0.249
-428.617	-200.000	0.030	-0.194
-427.603	-80.336	-0.154	-0.067
-426.588	139.366	-0.340	-0.587
-425.573	5.573	0.135	-0.130
-424.559	-102.322	0.315	-0.098
-423.544	-200.000	0.057	-0.393
-422.530	122.472	-0.219	-0.359
-421.515	180.075	-0.192	0.370
-420.500	-200.000	-0.030	-0.288
-419.486	-200.000	-0.009	-0.131
-418.471	-127.098	-0.235	0.045
-417.457	800.000	0.065	-0.303
-416.442	-82.145	-0.385	-0.164
-415.428	71.330	0.274	-0.373
-414.413	248.648	-0.190	-0.422
-413.398	-117.618	-0.503	0.118
-412.384	208.228	-0.165	0.338
-411.369	-200.000	0.262	-0.001
-410.355	-15.537	-0.091	-0.076
-409.340	5.813	-0.063	-0.061
-408.325	-99.160	0.454	-0.149
-407.311	-134.299	-0.095	-0.015
-406.296	86.402	-0.157	-0.227
-405.282	1.279	0.087	-0.082
-404.267	-101.536	0.247	-0.078
-403.252	-200.000	-0.050	-0.306
-402.238	147.552	-0.194	-0.343
-401.223	499.422	-0.062	-0.188
-400.209	-200.000	0.018	-0.499
-399.194	123.193	-0.239	-0.392
-398.179	178.802	0.122	-0.234
-397.165	-52.911	0.130	0.078
-396.150	13.187	0.192	-0.194
-395.136	9.995	0.320	0.318
-394.121	-140.011	0.718	0.098
-393.106	-9.050	0.259	-0.227
-392.092	-17.578	0.415	0.341
-391.077	-115.633	-0.420	0.102
-390.063	-92.618	-0.293	-0.107
-389.048	-200.000	0.039	-0.444
-388.033	-92.137	0.716	-0.263
-387.019	-139.152	-0.397	0.056
-386.004	32.251	0.327	-0.369
-384.990	68.029	0.239	0.320
-383.975	-6.026	0.109	0.098
-382.960	-142.695	0.356	-0.045
-381.946	-191.064	0.509	-0.007
-380.931	-88.694	0.193	-0.075
-379.917	-79.872	0.326	-0.143
-378.902	-29.554	-0.313	-0.234
-377.888	-18.861	0.062	-0.051
-376.873	-51.449	-0.035	0.021
-375.858	-57.156	0.080	0.046
-374.844	11.965	-0.096	-0.097
-373.829	-14.180	-0.510	0.430
-372.815	-200.000	-0.010	0.147
-371.800	70.994	0.115	0.156
-370.785	-158.443	-0.152	-0.011
-369.771	-72.000	0.457	0.221
-368.756	-12.759	0.555	0.472
-367.742	673.207	0.078	0.267
-366.727	197.407	-0.080	0.161
-365.712	-55.301	-0.358	-0.210
-364.698	40.559	0.190	0.224
-363.683	-200.000	-0.013	-0.444
-362.669	-113.529	0.129	-0.033
-361.654	-27.206	-0.497	-0.378
-360.639	-47.427	-0.376	-0.238
-359.625	632.588	0.091	-0.304
-358.610	-200.000	-0.006	-0.707
-357.596	72.247	-0.030	-0.041
-356.581	-68.382	0.308	0.156
-355.566	-135.200	0.561	0.087
-354.552	707.500	0.088	0.305
-353.537	-200.000	-0.008	0.209
-352.523	-96.236	-0.377	-0.130
-351.508	-51.120	0.231	0.141
-350.493	-110.352	0.532	-0.143
-349.479	-9.545	0.222	0.193
-348.464	-41.666	0.263	0.176
-347.450	153.460	-0.108	0.194
-346.435	-86.795	-0.317	-0.126
-345.420	-167.092	0.397	-0.021
-344.406	364.076	0.158	-0.417
-343.391	-157.393	-0.297	0.023
-342.377	-38.224	-0.218	0.150
-341.362	-108.318	-0.346	0.097
-340.348	-58.177	0.354	-0.201
-339.333	27.469	0.202	0.222
-338.318	-200.000	-0.226	0.001
-337.304	-85.760	0.525	0.211
-336.289	-101.556	-0.346	-0.109
-335.275	-119.048	-0.753	-0.171
-334.260	-120.870	-0.269	-0.059
-333.245	800.000	0.055	-0.273
-332.231	25.528	0.552	0.599
-331.216	-106.728	0.377	0.109
-330.202	2.808	0.144	0.136
-329.187	-91.241	-0.380	0.141
-328.172	-165.405	-0.056	0.003
-327.158	-163.281	-0.332	-0.020
-326.143	35.310	-0.363	-0.415
-325.129	-51.737	-0.391	0.237
-324.114	-122.505	0.510	-0.107
-323.099	-200.000	0.028	-0.187
-322.085	96.510	-0.157	-0.234
-321.070	136.452	0.215	0.367
-320.056	-200.000	0.011	-0.064
-319.041	33.703	-0.162	-0.184
-318.026	800.000	0.021	-0.102
-317.012	-200.000	0.024	-0.456
-315.997	-42.952	-0.336	0.222
-314.983	-91.759	-0.376	0.139
-313.968	-62.726	0.187	-0.101
-312.953	-102.573	0.231	-0.071
-311.939	-22.586	-0.178	-0.140
-310.924	-70.957	0.421	0.206
-309.910	402.656	0.045	0.125
-308.895	-7.401	-0.301	0.266
-307.880	-164.019	-0.362	0.022
-306.866	-30.965	0.344	-0.253
-305.851	146.788	-0.149	0.261
-304.837	248.595	0.159	-0.352
-303.822	-119.050	0.300	-0.068
-302.807	205.813	0.236	0.479
-301.793	-200.000	0.079	-0.488
-300.778	61.955	-0.418	-0.544
-299.764	214.770	0.127	0.264
-298.749	-49.426	-0.269	-0.167
-297.735	-61.728	-0.224	-0.122
-296.720	30.491	-0.346	0.386
-295.705	-51.542	0.090	-0.054
-294.691	-111.570	-0.187	0.049
-293.676	544.164	-0.154	0.481
-292.662	186.643	0.233	0.454
-291.647	321.066	0.126	-0.314
-290.632	-150.089	0.496	0.050
-289.618	23.414	0.351	0.376
-288.603	366.237	-0.043	-0.114
-287.589	-167.724	0.458	0.023
-286.574	-200.000	0.007	0.268
-285.559	-196.179	-0.857	-0.008
-284.545	260.998	0.128	0.290
-283.530	-163.010	0.429	0.027
-282.516	166.721	-0.129	-0.239
-281.501	2.083	-0.229	0.215
-280.486	-102.222	0.296	0.092
-279.472	288.607	0.256	0.607
-278.457	800.000	-0.176	0.782
-277.443	71.678	-0.127	-0.171
-276.428	89.041	0.049	-0.070
-275.413	64.063	0.350	-0.459
-274.399	374.568	-0.039	-0.103
-273.384	-81.289	-0.194	-0.083
-272.370	-153.276	-0.503	-0.045
-271.355	15.142	0.042	-0.043
-270.340	-200.000	0.000	0.051
-269.326	-109.862	-0.135	-0.037
-268.311	118.942	0.110	-0.178
-267.297	320.376	-0.029	-0.072
-266.282	20.715	0.361	-0.380
-265.267	-142.810	0.509	-0.064
-264.253	-123.167	0.140	0.029
-263.238	800.000	-0.142	0.529
-262.224	107.560	-0.397	0.616
-261.209	29.969	-0.250	0.278
-260.195	8.932	0.294	0.288
-259.180	72.154	-0.152	-0.207
-258.165	77.768	-0.193	0.268
-257.151	-145.096	-0.206	0.024
-256.136	428.527	-0.122	-0.344
-255.122	800.000	0.052	-0.233
-254.107	800.000	-0.025	0.128
-253.092	-27.873	-0.196	0.147
-252.078	99.229	0.356	-0.536
-251.063	-133.582	0.310	0.050
-250.049	125.345	-0.101	-0.167
-249.034	-169.907	0.395	0.018
-248.019	-146.932	0.185	0.020
-247.005	144.258	-0.100	0.175
-245.990	-200.000	-0.032	0.275
-244.976	-119.423	0.124	-0.028
-243.961	76.382	0.158	0.218
-242.946	-98.489	0.280	0.093
-241.932	-167.672	-0.136	-0.007
-240.917	-80.485	-0.143	-0.062
-239.903	-108.616	0.358	0.099
-238.888	276.600	0.173	-0.400
-237.873	192.480	0.115	0.226
-236.859	-200.000	0.020	-0.123
-235.844	32.809	0.148	-0.167
-234.830	-59.092	0.260	0.145
-233.815	19.904	0.242	0.254
-232.800	800.000	-0.011	-0.044
-231.786	3.048	-0.149	-0.140
-230.771	367.254	-0.138	-0.364
-229.757	800.000	0.085	-0.313
-228.742	-77.674	-0.258	0.115
-227.727	800.000	-0.013	0.067
-226.713	-83.785	-0.501	-0.207
-225.698	-22.077	-0.285	-0.225
-224.684	561.832	-0.199	0.629
-223.669	-30.162	-0.297	0.219
-222.655	-3.582	-0.095	-0.086
-221.640	-108.185	0.385	0.108
-220.625	133.548	-0.214	0.361
-219.611	68.047	-0.121	0.161
-218.596	-137.707	-0.376	0.054
-217.582	-200.000	0.023	0.282
-216.567	-161.316	0.265	-0.018
-215.552	-200.000	-0.039	0.455
-214.538	-140.281	-0.371	-0.050
-213.523	33.256	-0.416	-0.469
-212.509	-162.299	0.325	-0.021
-211.494	-200.000	0.010	-0.082
-210.479	-37.931	-0.426	0.293
-209.465	-200.000	0.028	0.542
-208.450	-82.917	-0.327	-0.137
-207.436	-54.471	-0.527	0.309
-206.421	-200.000	-0.034	0.415
-205.406	-200.000	0.298	0.002
-204.392	800.000	0.144	-0.588
-203.377	-90.595	-0.322	0.120
-202.363	-68.242	-0.281	0.141
-201.348	-142.157	-0.200	0.026
-200.333	-8.794	-0.143	0.125
-199.319	-38.430	0.116	0.079
-198.304	66.320	-0.067	-0.089
-197.290	-126.725	-0.338	0.064
-196.275	-12.598	0.099	0.084
-195.260	-91.069	0.291	-0.108
-194.246	-71.158	-0.380	0.184
-193.231	-200.000	0.045	-0.551
-192.217	-54.917	0.232	0.135
-191.202	-103.157	-0.353	0.108
-190.187	352.428	-0.081	-0.209
-189.173	175.188	-0.328	0.619
-188.158	-49.998	-0.322	0.198
-187.144	64.310	-0.071	0.093
-186.129	-44.109	0.524	-0.340
-185.114	-87.217	-0.197	-0.077
-184.100	551.696	0.110	-0.343
-183.085	-125.728	-0.338	-0.066
-182.071	-16.379	-0.482	-0.396
-181.056	-200.000	0.084	-0.857
-180.042	117.905	-0.268	0.430
-179.027	-5.369	-0.169	0.150
-178.012	-105.275	0.525	0.154
-176.998	-64.159	0.291	0.154
-175.983	242.674	0.033	0.072
-174.969	-111.618	-0.158	-0.041
-173.954	-141.720	-0.542	-0.070
-172.939	-200.000	-0.011	0.260
-171.925	-75.896	0.316	0.144
-170.910	-143.237	0.211	-0.026
-169.896	-77.023	0.180	-0.081
-168.881	-200.000	-0.009	-0.264
-167.866	371.851	-0.124	-0.329
-166.852	-89.230	0.105	0.040
-165.837	-93.400	-0.116	-0.041
-164.823	-200.000	-0.022	0.219
-163.808	-200.000	0.077	0.522
-162.793	-161.050	-0.189	-0.013
-161.779	119.033	-0.137	0.221
-160.764	-96.269	0.512	0.175
-159.750	-60.737	0.174	-0.095
-158.735	-53.744	-0.293	0.173
-157.720	-119.799	-0.256	-0.057
-156.706	-19.286	0.382	-0.307
-155.691	-34.911	-0.215	-0.152
-154.677	-166.879	0.669	0.035
-153.662	305.132	0.145	-0.351
-152.647	-200.000	-0.020	0.292
-151.633	-132.342	-0.240	-0.040
-150.618	-174.383	-0.328	-0.012
-149.604	61.845	0.346	0.447
-148.589	-35.134	0.309	-0.217
-147.574	5.240	-0.473	-0.452
-146.560	73.709	-0.317	-0.431
-145.545	-135.009	0.218	-0.034
-144.531	561.169	-0.060	0.187
-143.516	-105.884	-0.151	-0.044
-142.502	35.047	0.117	0.133
-141.487	491.554	0.137	-0.410
-140.472	-48.218	-0.341	0.213
-139.458	-101.595	0.218	0.068
-138.443	148.233	0.031	-0.054
-137.429	490.704	0.095	-0.282
-136.414	-84.104	0.306	0.125
-135.399	115.086	0.323	0.512
-134.385	-118.266	-0.579	0.132
-133.370	-21.440	-0.332	-0.262
-132.356	-100.416	-0.172	0.055
-131.341	-85.218	0.281	0.113
-130.326	-21.957	-0.165	-0.129
-129.312	-168.116	-0.525	-0.026
-128.297	583.030	-0.047	-0.151
-127.283	-145.139	-0.598	0.070
-126.268	-165.974	0.133	0.007
-125.253	-60.174	-0.464	-0.255
-124.239	8.538	0.207	-0.202
-123.224	-81.954	0.259	0.109
-122.210	73.257	0.135	-0.183
-121.195	-62.986	-0.264	0.140
