DTS Sentinel unit serial number:	SN409020Multiplexer serial number:	ORYXHardware model number:	OX4-SRSoftware version number:	ORYX F/W v3.00 Oryx Data Collector v3.7.2.0data status	okinstallation	HaddamTimeLapsedifferential loss correction	single-endedforward channel	channel 3reverse channel	N/Adate	2011/06/22time	02:26:17forward acquisition time	30.00reverse acquisition time	0.00gamma	498.7831k internal	0.1751k external	0.1751temperature offset calibration	1.0074default loss term (dB/km)	0.3790temperature slope calibration	1.3530multiplexer offset coefficient	1.0000multiplexer slope coefficient	1.0000fibre end	0.00T internal ref (°C)	22.37T ext. ref 1 (°C)	17.52T ext. ref 2 (°C)	0.02length (m)	temperature (°C)	Stokes	anti-Stokes-747.200	417.637	-0.072	-0.204
-746.185	480.925	0.157	0.476
-745.171	800.000	-0.033	-0.155
-744.156	-177.906	-0.446	-0.014
-743.142	-107.052	-0.487	-0.142
-742.127	-148.683	0.174	-0.019
-741.112	-111.112	0.556	0.150
-740.098	121.283	-0.050	-0.083
-739.083	216.636	-0.136	0.288
-738.069	-200.000	0.046	0.308
-737.054	-118.951	0.256	-0.059
-736.039	30.238	-0.108	-0.123
-735.025	-89.738	-0.216	0.083
-734.010	-3.068	-0.080	-0.074
-732.996	-139.339	-0.206	0.029
-731.981	247.411	-0.070	-0.157
-730.966	-76.297	0.304	0.142
-729.952	23.400	0.387	-0.422
-728.937	68.110	0.208	0.283
-727.923	-110.995	0.668	-0.181
-726.908	113.266	-0.069	-0.112
-725.894	-92.369	0.230	0.086
-724.879	-147.031	-0.419	0.047
-723.864	-149.564	0.328	0.034
-722.850	526.160	-0.060	0.187
-721.835	168.777	-0.127	0.240
-720.821	-104.910	-0.519	-0.157
-719.806	-109.611	0.354	0.098
-718.791	-94.126	0.262	0.095
-717.777	61.118	0.248	0.327
-716.762	-127.107	-0.363	0.070
-715.748	105.226	0.073	-0.115
-714.733	307.957	-0.221	-0.549
-713.718	-65.258	-0.181	0.096
-712.704	39.713	0.305	0.363
-711.689	-17.590	-0.311	0.259
-710.675	800.000	-0.068	0.349
-709.660	800.000	0.055	-0.257
-708.645	-68.022	-0.122	-0.063
-707.631	-130.566	0.536	0.095
-706.616	-200.000	-0.033	0.493
-705.602	-133.092	-0.231	-0.038
-704.587	399.830	0.053	0.149
-703.572	-200.000	-0.002	-0.254
-702.558	258.459	0.077	-0.176
-701.543	-126.983	0.171	0.033
-700.529	247.028	0.275	0.619
-699.514	59.930	0.309	-0.405
-698.499	91.560	-0.177	0.265
-697.485	-96.929	-0.511	-0.176
-696.470	-98.678	-0.465	-0.156
-695.456	-98.369	-0.352	-0.119
-694.441	-200.000	0.028	0.210
-693.426	-67.173	-0.334	0.174
-692.412	624.412	-0.038	-0.127
-691.397	42.052	0.275	-0.331
-690.383	412.401	0.067	0.190
-689.368	-130.159	-0.489	0.088
-688.354	-57.489	-0.441	-0.256
-687.339	269.569	-0.146	-0.342
-686.324	-21.213	-0.186	-0.150
-685.310	-135.885	0.228	-0.035
-684.295	-200.000	-0.022	-0.533
-683.281	800.000	0.021	-0.100
-682.266	-30.116	-0.350	0.263
-681.251	800.000	-0.072	0.406
-680.237	-56.537	-0.169	0.099
-679.222	288.259	0.096	-0.231
-678.208	684.896	0.049	-0.171
-677.193	53.292	0.161	-0.205
-676.178	119.686	0.058	-0.096
-675.164	-107.756	0.203	-0.058
-674.149	240.967	-0.045	-0.099
-673.135	-55.780	-0.388	0.229
-672.120	-200.000	0.007	-0.049
-671.105	-135.142	0.460	0.073
-670.091	-104.840	0.060	0.018
-669.076	-43.734	-0.321	0.214
-668.062	-52.365	0.198	-0.121
-667.047	46.466	-0.101	-0.124
-666.032	-21.213	-0.137	-0.111
-665.018	50.126	-0.113	-0.142
-664.003	-63.349	-0.273	-0.148
-662.989	7.400	0.044	-0.043
-661.974	-43.986	0.377	-0.250
-660.959	800.000	-0.119	-0.505
-659.945	169.913	0.154	-0.293
-658.930	75.004	0.028	0.039
-657.916	-109.853	-0.255	0.070
-656.901	354.174	-0.058	-0.153
-655.886	-30.208	0.237	-0.178
-654.872	-200.000	0.003	-0.182
-653.857	44.017	-0.076	0.092
-652.843	-40.967	-0.363	0.248
-651.828	-44.139	-0.269	-0.178
-650.814	-91.810	-0.291	0.109
-649.799	800.000	-0.059	0.297
-648.784	-94.814	0.204	-0.073
-647.770	-59.466	0.045	-0.026
-646.755	-104.380	-0.508	-0.155
-645.741	-170.935	-0.207	0.009
-644.726	20.367	0.376	-0.402
-643.711	-200.000	0.016	-0.299
-642.697	129.845	0.258	-0.438
-641.682	-84.490	0.545	0.227
-640.668	-47.850	0.245	0.157
-639.653	-12.611	-0.372	-0.321
-638.638	-110.135	-0.160	0.044
-637.624	431.418	0.095	0.274
-636.609	1.415	-0.317	0.301
-635.595	-200.000	0.037	0.284
-634.580	-200.000	0.065	0.400
-633.565	-120.346	-0.517	0.115
-632.551	-28.106	0.209	-0.160
-631.536	-86.611	-0.359	-0.145
-630.522	59.571	-0.106	-0.138
-629.507	-51.232	-0.082	0.050
-628.492	50.563	-0.301	0.377
-627.478	-37.485	0.095	-0.067
-626.463	557.011	-0.071	-0.229
-625.449	181.336	0.077	-0.150
-624.434	-125.591	-0.350	0.070
-623.419	-117.207	-0.244	0.058
-622.405	20.787	-0.381	-0.408
-621.390	-116.434	0.281	-0.068
-620.376	-135.171	-0.291	-0.046
-619.361	238.022	-0.164	-0.361
-618.346	-200.000	-0.037	0.342
-617.332	-200.000	0.010	-0.284
-616.317	388.850	0.225	0.620
-615.303	-148.549	-0.540	0.058
-614.288	-61.241	0.287	-0.159
-613.273	-24.629	-0.234	-0.184
-612.259	-200.000	0.005	-0.278
-611.244	-0.469	0.341	0.319
-610.230	24.089	-0.219	0.239
-609.215	-128.901	0.031	-0.006
-608.201	-47.358	0.081	0.052
-607.186	129.679	0.072	0.122
-606.171	-60.387	0.155	0.087
-605.157	-41.429	-0.285	-0.193
-604.142	39.929	-0.258	0.306
-603.128	-132.910	-0.470	0.078
-602.113	199.814	0.086	-0.175
-601.098	-7.022	0.570	-0.511
-600.084	235.493	-0.021	-0.046
-599.069	-200.000	0.313	-0.001
-598.055	70.351	0.138	-0.189
-597.040	646.483	0.110	-0.372
-596.025	-46.780	0.165	-0.106
-595.011	-64.482	0.288	-0.154
-593.996	-71.603	0.194	-0.095
-592.982	-119.660	-0.265	0.060
-591.967	-89.957	0.086	-0.033
-590.952	-60.459	0.070	-0.039
-589.938	59.565	-0.318	-0.415
-588.923	399.169	0.051	0.141
-587.909	-160.922	-0.523	0.036
-586.894	-200.000	0.021	-0.337
-585.879	800.000	-0.107	-0.498
-584.865	-121.840	-0.628	-0.136
-583.850	-102.376	-0.235	-0.074
-582.836	-130.094	0.611	0.109
-581.821	-147.684	0.499	-0.055
-580.806	-97.069	-0.205	0.070
-579.792	98.836	-0.161	-0.246
-578.777	-136.734	-0.250	-0.038
-577.763	-54.686	0.067	-0.040
-576.748	6.711	0.149	0.146
-575.733	-21.166	-0.201	-0.162
-574.719	368.166	-0.093	-0.248
-573.704	-200.000	-0.044	-0.274
-572.690	69.344	-0.106	0.144
-571.675	630.896	-0.072	0.242
-570.661	-171.896	0.541	0.023
-569.646	139.131	-0.180	-0.313
-568.631	-82.147	0.354	-0.152
-567.617	-127.366	-0.363	-0.069
-566.602	-200.000	-0.047	-0.398
-565.588	-77.222	-0.101	0.046
-564.573	800.000	-0.091	0.483
-563.558	800.000	0.073	0.320
-562.544	-92.549	0.454	-0.167
-561.529	6.407	0.086	0.084
-560.515	-200.000	-0.043	0.515
-559.500	800.000	0.155	0.571
-558.485	-200.000	-0.029	-0.261
-557.471	-95.140	0.204	0.072
-556.456	-24.534	0.058	-0.045
-555.442	-162.302	-0.161	0.010
-554.427	3.884	-0.126	-0.121
-553.412	3.861	0.203	0.196
-552.398	267.348	-0.072	0.167
-551.383	-95.538	-0.181	0.064
-550.369	180.850	0.161	0.312
-549.354	256.606	-0.135	0.308
-548.339	-160.190	0.480	-0.034
-547.325	-200.000	-0.027	0.466
-546.310	800.000	-0.045	0.195
-545.296	-120.504	0.271	-0.060
-544.281	50.370	-0.092	0.114
-543.266	-20.384	0.475	0.385
-542.252	-33.462	-0.161	-0.117
-541.237	40.248	0.160	-0.190
-540.223	-23.469	0.173	0.137
-539.208	616.644	0.095	0.315
-538.193	173.710	0.147	-0.280
-537.179	80.178	0.187	-0.265
-536.164	-43.272	0.086	0.057
-535.150	-200.000	-0.019	0.138
-534.135	-22.833	0.201	0.160
-533.121	-22.022	0.053	0.043
-532.106	-42.115	-0.284	0.191
-531.091	380.685	-0.133	-0.362
-530.077	-200.000	-0.011	-0.336
-529.062	-179.304	-0.227	0.006
-528.048	-36.320	0.256	-0.182
-527.033	-200.000	0.045	-0.421
-526.018	61.336	-0.106	-0.140
-525.004	800.000	-0.036	-0.188
-523.989	37.413	0.259	0.302
-522.975	800.000	-0.017	0.080
-521.960	13.970	-0.151	0.155
-520.945	-23.686	0.308	0.243
-519.931	-76.578	-0.071	-0.033
-518.916	-200.000	-0.085	-0.581
-517.902	-121.119	0.429	0.094
-516.887	51.182	0.258	0.323
-515.872	-200.000	0.002	0.030
-514.858	-116.262	0.261	0.063
-513.843	-200.000	0.042	-0.624
-512.829	800.000	0.007	0.034
-511.814	-200.000	-0.019	0.147
-510.799	103.449	-0.065	0.100
-509.785	-159.037	-0.450	-0.033
-508.770	-49.807	-0.159	0.099
-507.756	-200.000	-0.053	-0.459
-506.741	-63.639	0.402	0.216
-505.726	-68.490	-0.377	-0.192
-504.712	-116.772	0.408	-0.098
-503.697	-70.423	-0.514	-0.255
-502.683	-200.000	-0.019	-0.242
-501.668	-200.000	-0.015	-0.100
-500.653	493.253	-0.136	-0.413
-499.639	-200.000	0.026	-0.308
-498.624	-78.788	0.454	-0.203
-497.610	54.270	0.248	0.314
-496.595	-50.481	-0.108	0.067
-495.581	-45.641	-0.271	0.176
-494.566	92.259	0.105	-0.155
-493.551	-83.500	0.194	0.081
-492.537	-143.067	0.157	0.020
-491.522	365.825	-0.074	0.196
-490.508	268.801	0.018	0.042
-489.493	-200.000	0.054	-0.556
-488.478	185.967	-0.136	0.266
-487.464	-147.661	-0.160	-0.017
-486.449	246.823	0.048	-0.108
-485.435	315.483	0.156	0.388
-484.420	50.061	0.214	0.265
-483.405	-16.458	0.132	0.110
-482.391	-28.832	0.163	-0.123
-481.376	-62.599	-0.403	-0.219
-480.362	-17.966	-0.261	-0.215
-479.347	-99.569	-0.204	0.067
-478.332	-52.169	-0.299	0.182
-477.318	-93.371	-0.403	-0.146
-476.303	800.000	-0.098	0.391
-475.289	-200.000	0.035	-0.368
-474.274	-105.255	0.225	-0.067
-473.259	-45.561	-0.160	0.104
-472.245	154.605	0.153	0.277
-471.230	261.876	-0.111	0.254
-470.216	-200.000	-0.013	-0.176
-469.201	-200.000	-0.003	-0.199
-468.186	195.626	-0.130	-0.261
-467.172	233.100	0.159	0.345
-466.157	153.125	-0.096	0.172
-465.143	64.677	-0.195	-0.259
-464.128	428.223	0.099	-0.282
-463.113	159.907	-0.239	0.439
-462.099	95.946	-0.059	-0.088
-461.084	-52.448	0.032	0.019
-460.070	-21.985	-0.083	-0.066
-459.055	-74.984	-0.425	-0.199
-458.040	101.490	-0.227	0.347
-457.026	-104.952	-0.188	0.056
-456.011	-114.309	-0.368	0.092
-454.997	29.934	0.542	0.607
-453.982	155.979	-0.246	0.447
-452.968	509.186	0.140	0.429
-451.953	-144.656	-0.506	-0.061
-450.938	800.000	-0.045	-0.204
-449.924	-200.000	0.012	-0.384
-448.909	46.184	0.108	-0.131
-447.895	-71.285	-0.439	0.215
-446.880	-16.342	-0.604	0.503
-445.865	37.470	-0.267	-0.311
-444.851	800.000	0.026	-0.123
-443.836	-184.433	-0.514	-0.011
-442.822	133.100	-0.025	0.042
-441.807	-137.425	0.620	0.091
-440.792	-54.426	0.108	0.064
-439.778	-133.659	-0.200	0.033
-438.763	-120.208	-0.554	0.123
-437.749	-160.419	0.523	-0.036
-436.734	-35.890	-0.105	-0.074
-435.719	2.369	-0.269	0.255
-434.705	94.633	-0.196	-0.294
-433.690	-122.900	0.107	0.022
-432.676	120.258	0.162	-0.264
-431.661	88.305	-0.202	-0.294
-430.646	-200.000	0.075	-0.452
-429.632	298.800	0.162	0.394
-428.617	-146.438	0.026	-0.003
-427.603	131.686	0.252	-0.427
-426.588	-152.445	-0.285	0.027
-425.573	421.960	0.206	-0.584
-424.559	190.413	0.319	0.630
-423.544	-135.198	-0.331	0.052
-422.530	-85.437	-0.063	0.026
-421.515	-156.761	0.218	-0.017
-420.500	-70.678	-0.209	-0.103
-419.486	134.203	-0.198	0.337
-418.471	85.382	-0.168	-0.243
-417.457	202.918	0.048	0.097
-416.442	-42.859	0.249	0.166
-415.428	-200.000	0.114	0.666
-414.413	-64.622	0.294	-0.156
-413.398	-34.493	0.169	0.121
-412.384	-41.188	0.389	0.263
-411.369	-77.022	0.435	0.198
-410.355	392.326	0.148	0.406
-409.340	-200.000	-0.018	0.369
-408.325	190.834	0.061	-0.120
-407.311	-44.791	-0.456	-0.298
-406.296	90.723	-0.296	0.436
-405.282	-200.000	-0.007	0.156
-404.267	-25.498	0.162	-0.126
-403.252	-200.000	-0.005	-0.384
-402.238	218.383	0.265	-0.556
-401.223	-91.628	0.468	-0.174
-400.209	-30.945	0.168	-0.124
-399.194	441.774	-0.095	-0.273
-398.179	-140.250	0.371	0.050
-397.165	127.609	-0.279	0.466
-396.150	74.391	0.233	-0.322
-395.136	-168.082	0.421	-0.021
-394.121	-69.875	-0.603	-0.300
-393.106	480.151	-0.065	-0.194
-392.092	209.366	0.024	-0.050
-391.077	-37.702	0.369	0.257
-390.063	-5.596	-0.237	-0.213
-389.048	264.703	0.029	0.067
-388.033	37.837	-0.168	0.195
-387.019	-200.000	0.009	-0.159
-386.004	800.000	0.042	-0.163
-384.990	82.037	0.092	0.131
-383.975	577.953	-0.029	-0.093
-382.960	-200.000	0.049	0.340
-381.946	-73.397	0.193	0.092
-380.931	-100.710	0.344	-0.110
-379.917	800.000	-0.059	0.247
-378.902	177.986	-0.186	0.356
-377.888	-95.460	-0.234	-0.082
-376.873	-88.193	-0.354	0.138
-375.858	13.569	-0.037	-0.038
-374.844	-98.428	0.284	-0.095
-373.829	-93.337	-0.191	-0.069
-372.815	-44.960	-0.356	0.232
-371.800	512.433	-0.039	0.119
-370.785	-42.350	0.342	0.228
-369.771	-150.590	0.730	0.072
-368.756	-112.927	-0.199	0.051
-367.742	321.836	0.128	-0.319
-366.727	-200.000	-0.006	-0.235
-365.712	800.000	-0.045	-0.203
-364.698	-145.066	0.048	0.006
-363.683	190.033	-0.116	-0.229
-362.669	-59.700	-0.106	0.060
-361.654	66.870	0.207	-0.277
-360.639	772.985	0.123	-0.441
-359.625	320.699	-0.089	0.221
-358.610	-77.285	0.345	0.157
-357.596	26.057	-0.302	-0.330
-356.581	-58.466	0.183	-0.104
-355.566	-105.033	-0.247	0.073
-354.552	53.661	0.233	-0.293
-353.537	145.395	-0.024	-0.042
-352.523	-200.000	-0.010	0.450
-351.508	-73.969	0.317	-0.150
-350.493	-50.475	-0.253	0.156
-349.479	359.936	-0.079	0.207
-348.464	-101.486	0.300	-0.095
-347.450	610.423	0.047	-0.153
-346.435	60.091	0.192	-0.248
-345.420	-79.708	0.280	0.123
-344.406	-86.215	0.302	0.121
-343.391	-30.798	-0.211	-0.156
-342.377	-3.932	-0.169	0.153
-341.362	-200.000	0.035	0.309
-340.348	80.215	0.056	0.079
-339.333	70.863	-0.219	-0.297
-338.318	-17.073	0.554	-0.456
-337.304	800.000	-0.054	-0.227
-336.289	-200.000	-0.012	0.273
-335.275	350.697	0.033	0.085
-334.260	-168.286	-0.588	0.029
-333.245	145.931	0.357	0.627
-332.231	-0.748	-0.422	0.391
-331.216	-158.951	0.618	-0.045
-330.202	-61.254	-0.331	0.182
-329.187	297.424	-0.146	0.351
-328.172	-22.087	-0.201	0.159
-327.158	-46.030	-0.091	0.058
-326.143	-128.425	-0.068	-0.012
-325.129	157.222	0.331	-0.601
-324.114	92.874	-0.037	0.055
-323.099	-119.969	-0.619	0.138
-322.085	255.926	-0.224	-0.505
-321.070	800.000	0.075	0.401
-320.056	-200.000	-0.006	0.360
-319.041	134.790	-0.341	0.580
-318.026	-143.690	-0.243	0.030
-317.012	397.284	-0.135	0.369
-315.997	-42.916	-0.270	0.179
-314.983	116.075	-0.185	0.297
-313.968	-11.550	0.161	0.138
-312.953	-100.513	0.251	0.081
-311.939	776.459	0.050	-0.179
-310.924	-73.880	-0.234	-0.110
-309.910	800.000	0.061	0.339
-308.895	79.641	-0.123	-0.173
-307.880	391.678	-0.167	0.454
-306.866	-77.310	0.285	0.129
-305.851	42.255	-0.321	0.381
-304.837	-105.553	-0.605	-0.178
-303.822	33.297	-0.289	-0.327
-302.807	300.038	-0.109	0.263
-301.793	11.058	0.075	0.074
-300.778	184.266	0.215	0.417
-299.764	18.593	0.143	-0.149
-298.749	-57.908	0.675	0.384
-297.735	207.790	-0.169	-0.345
-296.720	-107.401	-0.301	0.086
-295.705	-149.687	-0.353	0.036
-294.691	800.000	-0.079	0.339
-293.676	-200.000	-0.017	-0.135
-292.662	-200.000	0.025	-0.155
-291.647	-118.784	0.338	-0.077
-290.632	-83.437	0.409	-0.170
-289.618	-200.000	-0.030	0.248
-288.603	-40.082	-0.088	0.060
-287.589	-200.000	0.061	-0.359
-286.574	-79.609	0.213	-0.093
-285.559	-145.667	0.477	-0.055
-284.545	1.367	-0.308	0.289
-283.530	800.000	-0.085	-0.383
-282.516	15.740	0.193	0.198
-281.501	-117.180	-0.591	0.139
-280.486	-103.735	0.143	-0.043
-279.472	30.939	0.064	0.072
-278.457	800.000	-0.008	0.044
-277.443	-156.678	0.303	0.024
-276.428	55.887	0.144	-0.182
-275.413	-49.933	-0.120	0.074
-274.399	-145.041	0.609	-0.071
-273.384	-91.797	-0.299	0.110
-272.370	81.992	0.090	0.128
-271.355	-80.690	0.163	0.071
-270.340	23.344	0.097	0.104
-269.326	-48.299	-0.380	-0.238
-268.311	-13.219	-0.181	-0.153
-267.297	13.816	0.222	-0.225
-266.282	800.000	0.090	0.356
-265.267	-124.468	-0.382	-0.077
-264.253	265.056	-0.225	-0.513
-263.238	-200.000	0.103	-0.658
-262.224	-150.262	-0.651	-0.065
-261.209	438.892	0.132	0.379
-260.195	340.289	-0.162	-0.413
-259.180	604.595	0.181	-0.592
-258.165	270.618	-0.124	-0.285
-257.151	-94.038	-0.329	0.117
-256.136	-93.532	0.281	-0.101
-255.122	-178.413	-0.202	-0.006
-254.107	40.926	-0.307	0.361
-253.092	-29.828	-0.034	0.025
-252.078	-72.513	-0.245	-0.118
-251.063	-23.955	0.460	0.358
-250.049	112.090	0.231	0.364
-249.034	33.079	-0.239	0.270
-248.019	82.302	0.100	-0.142
-247.005	-11.547	0.251	-0.215
-245.990	112.718	0.094	0.148
-244.976	-31.578	-0.370	0.270
-243.961	15.728	-0.161	-0.165
-242.946	-200.000	-0.003	0.158
-241.932	-145.621	-0.200	-0.023
-240.917	-200.000	-0.036	-0.305
-239.903	292.539	-0.069	-0.165
-238.888	66.423	-0.140	0.185
-237.873	-4.988	-0.288	0.258
-236.859	800.000	0.086	0.388
-235.844	800.000	-0.025	0.094
-234.830	-81.938	-0.034	-0.014
-233.815	800.000	-0.034	-0.148
-232.800	-145.248	0.367	-0.043
-231.786	-26.063	-0.228	-0.174
-230.771	-200.000	-0.027	-0.598
-229.757	-173.979	-0.118	0.004
-228.742	68.816	0.074	0.098
-227.727	416.608	-0.071	-0.197
-226.713	-77.563	0.190	-0.085
-225.698	800.000	0.057	-0.244
-224.684	105.993	-0.202	-0.312
-223.669	-115.046	-0.174	0.043
-222.655	-100.713	0.541	0.173
-221.640	275.923	0.135	0.313
-220.625	-88.938	-0.361	-0.139
-219.611	26.215	-0.181	-0.197
-218.596	-85.207	0.339	0.137
-217.582	-165.428	-0.306	-0.017
-216.567	800.000	-0.064	-0.342
-215.552	-200.000	-0.004	0.106
-214.538	800.000	-0.120	0.459
-213.523	-51.689	0.348	-0.210
-212.509	-167.875	-0.450	-0.023
-211.494	-200.000	0.023	-0.214
-210.479	-95.415	-0.322	0.112
-209.465	-124.238	0.091	0.018
-208.450	-125.997	0.700	-0.136
-207.436	-25.434	0.210	0.161
-206.421	35.099	-0.149	-0.170
-205.406	800.000	0.124	0.487
-204.392	-99.207	-0.593	-0.194
-203.377	-200.000	-0.023	0.209
-202.363	800.000	0.043	0.156
-201.348	-52.463	-0.312	0.187
-200.333	201.933	-0.077	-0.154
-199.319	523.304	-0.111	-0.341
-198.304	53.670	0.350	-0.438
-197.290	10.683	0.569	-0.564
-196.275	232.408	-0.112	-0.241
-195.260	26.998	0.264	0.288
-194.246	-85.180	0.165	-0.067
-193.231	60.925	-0.160	-0.207
-192.217	-200.000	0.061	-0.541
-191.202	257.275	0.192	-0.430
-190.187	132.978	0.119	-0.201
-189.173	-200.000	-0.019	0.197
-188.158	-156.451	-0.194	0.016
-187.144	25.565	0.144	0.155
-186.129	128.202	0.323	0.535
-185.114	199.101	0.099	0.197
-184.100	-24.238	-0.250	0.193
-183.085	97.992	0.032	-0.048
-182.071	-200.000	-0.009	-0.091
-181.056	-200.000	0.055	-0.321
-180.042	22.983	0.171	-0.182
-179.027	-23.632	-0.282	-0.220
-178.012	800.000	0.061	0.281
-176.998	-34.667	0.320	-0.227
-175.983	244.186	-0.253	-0.554
-174.969	-8.410	0.430	-0.375
-173.954	-200.000	-0.006	0.354
-172.939	-133.197	0.568	-0.092
-171.925	-168.417	0.257	-0.013
-170.910	404.750	-0.172	0.473
-169.896	341.212	-0.052	0.132
-168.881	56.450	-0.243	0.307
-167.866	-31.725	0.347	0.253
-166.852	49.984	0.527	0.647
-165.837	-41.738	0.040	-0.027
-164.823	-200.000	0.005	0.055
-163.808	-129.111	-0.087	0.016
-162.793	-200.000	0.003	0.024
-161.779	-112.865	-0.102	-0.026
-160.764	251.323	-0.108	0.239
-159.750	-27.665	0.299	-0.225
-158.735	-200.000	0.397	-0.001
-157.720	-111.536	0.367	-0.096
-156.706	-11.032	0.513	0.439
-155.691	-67.313	0.189	-0.096
-154.677	800.000	0.032	-0.174
-153.662	-134.533	-0.274	-0.043
-152.647	-176.301	-0.292	0.010
-151.633	-132.927	0.459	0.075
-150.618	-60.354	0.074	0.041
-149.604	-20.304	-0.339	0.271
-148.589	-77.988	-0.203	0.090
-147.574	-26.066	0.174	0.133
-146.560	6.702	-0.261	-0.252
-145.545	-117.470	0.287	-0.067
-144.531	35.156	-0.204	-0.233
-143.516	118.581	-0.390	-0.627
-142.502	51.127	0.159	0.195
-141.487	20.003	-0.182	-0.190
-140.472	-200.000	-0.074	-0.657
-139.458	-84.040	-0.560	-0.230
-138.443	-93.358	-0.365	0.130
-137.429	-200.000	-0.052	0.423
-136.414	98.856	0.210	-0.315
-135.399	-22.946	0.086	0.067
-134.385	-107.043	0.388	0.110
-133.370	209.964	0.062	-0.127
-132.356	17.771	-0.402	0.415
-131.341	800.000	-0.102	-0.473
-130.326	800.000	0.046	0.207
-129.312	-111.300	0.268	0.070
-128.297	-82.169	-0.083	-0.035
-127.283	136.285	0.094	-0.159
-126.268	-200.000	-0.048	-0.391
-125.253	-22.296	-0.106	0.083
-124.239	329.230	-0.042	0.104
-123.224	-131.873	0.378	0.063
-122.210	501.978	-0.101	0.304
