DTS Sentinel unit serial number:	SN409020Multiplexer serial number:	ORYXHardware model number:	OX4-SRSoftware version number:	ORYX F/W v3.00 Oryx Data Collector v3.7.2.0data status	okinstallation	HaddamTimeLapsedifferential loss correction	single-endedforward channel	channel 3reverse channel	N/Adate	2011/06/21time	22:01:17forward acquisition time	30.00reverse acquisition time	0.00gamma	498.7831k internal	0.1760k external	0.1760temperature offset calibration	1.0074default loss term (dB/km)	0.3790temperature slope calibration	1.3530multiplexer offset coefficient	1.0000multiplexer slope coefficient	1.0000fibre end	0.00T internal ref (°C)	24.97T ext. ref 1 (°C)	19.08T ext. ref 2 (°C)	0.04length (m)	temperature (°C)	Stokes	anti-Stokes-747.200	-12.467	-0.175	0.151
-746.185	139.056	0.351	0.611
-745.171	-77.259	-0.167	0.076
-744.156	-82.286	0.103	0.044
-743.142	-85.825	-0.127	0.052
-742.127	332.347	-0.119	0.305
-741.112	-200.000	-0.029	-0.759
-740.098	-200.000	-0.010	-0.068
-739.083	13.559	-0.319	-0.327
-738.069	319.033	-0.238	0.598
-737.054	304.701	-0.241	-0.595
-736.039	-85.032	-0.571	0.235
-735.025	-169.002	-0.551	0.027
-734.010	151.271	0.203	0.366
-732.996	-33.623	0.237	-0.173
-731.981	-48.500	-0.220	-0.139
-730.966	800.000	0.052	-0.196
-729.952	-200.000	0.035	0.239
-728.937	-151.760	-0.140	-0.013
-727.923	66.134	0.063	-0.084
-726.908	492.468	-0.156	0.475
-725.894	-2.654	-0.168	-0.155
-724.879	-200.000	-0.043	0.356
-723.864	-43.932	-0.123	0.081
-722.850	-122.678	-0.463	-0.098
-721.835	27.421	0.376	-0.417
-720.821	-29.686	-0.167	-0.126
-719.806	-5.171	-0.211	-0.192
-718.791	-200.000	-0.049	-0.291
-717.777	-36.604	-0.113	-0.080
-716.762	-200.000	0.010	-0.528
-715.748	-22.845	-0.254	-0.202
-714.733	-41.521	0.127	0.086
-713.718	-200.000	0.029	-0.368
-712.704	-23.685	0.105	0.083
-711.689	-157.739	0.334	0.026
-710.675	-156.603	-0.305	0.025
-709.660	-55.133	-0.543	-0.321
-708.645	800.000	0.108	-0.417
-707.631	425.734	-0.154	-0.441
-706.616	-71.073	0.253	-0.125
-705.602	238.786	-0.167	-0.367
-704.587	-37.947	-0.573	-0.401
-703.572	230.962	-0.275	0.597
-702.558	-118.206	0.389	-0.091
-701.543	201.978	-0.141	-0.287
-700.529	-110.367	0.126	-0.034
-699.514	-165.367	0.760	0.043
-698.499	-87.140	0.176	0.070
-697.485	-92.617	0.176	0.065
-696.470	456.126	0.102	0.301
-695.456	-25.050	-0.093	0.073
-694.441	296.644	0.152	0.369
-693.426	-100.262	-0.140	0.045
-692.412	-76.644	-0.335	0.154
-691.397	-85.298	0.275	-0.113
-690.383	13.965	-0.097	-0.099
-689.368	-152.450	-0.419	-0.039
-688.354	416.902	-0.119	-0.336
-687.339	-30.762	0.202	-0.150
-686.324	-200.000	-0.006	0.331
-685.310	123.995	-0.049	0.081
-684.295	-60.061	-0.194	-0.109
-683.281	-121.672	-0.091	-0.020
-682.266	-200.000	-0.011	-0.304
-681.251	290.226	-0.074	-0.179
-680.237	172.493	-0.129	-0.245
-679.222	-5.457	-0.134	-0.121
-678.208	27.228	0.046	0.050
-677.193	80.250	0.076	-0.108
-676.178	2.429	-0.169	-0.161
-675.164	27.685	-0.258	-0.286
-674.149	-119.259	0.527	-0.120
-673.135	-72.858	0.198	-0.096
-672.120	228.403	0.118	-0.254
-671.105	144.755	0.059	-0.104
-670.091	-148.779	-0.577	-0.061
-669.076	-124.459	0.281	0.057
-668.062	36.499	-0.189	-0.220
-667.047	-17.436	-0.221	-0.183
-666.032	-60.534	0.302	-0.168
-665.018	-122.541	0.063	-0.013
-664.003	-11.157	0.355	-0.308
-662.989	800.000	-0.109	0.465
-661.974	67.613	-0.125	-0.168
-660.959	259.887	-0.081	-0.184
-659.945	7.024	0.254	0.249
-658.930	-89.014	0.165	0.064
-657.916	-200.000	-0.029	-0.263
-656.901	186.555	-0.053	0.105
-655.886	-100.889	0.305	0.098
-654.872	-89.201	-0.035	0.014
-653.857	-117.054	0.282	-0.067
-652.843	4.636	-0.200	0.193
-651.828	-64.248	0.251	-0.134
-650.814	-179.428	-0.283	-0.008
-649.799	54.631	-0.515	-0.655
-648.784	399.711	0.142	-0.394
-647.770	-91.270	0.555	-0.208
-646.755	704.635	0.046	-0.160
-645.741	-84.226	-0.423	-0.175
-644.726	-65.998	-0.308	-0.161
-643.711	-44.467	0.376	-0.247
-642.697	-77.407	0.520	0.237
-641.682	-200.000	-0.011	0.311
-640.668	-44.548	-0.029	0.019
-639.653	480.664	-0.074	-0.221
-638.638	-172.798	-0.277	-0.011
-637.624	273.164	-0.077	0.180
-636.609	-200.000	-0.031	0.528
-635.595	-49.769	-0.154	-0.096
-634.580	-15.470	-0.294	-0.247
-633.565	-91.307	-0.499	0.187
-632.551	-7.536	0.481	0.428
-631.536	26.760	0.350	0.386
-630.522	-46.749	0.453	0.291
-629.507	-200.000	-0.069	0.559
-628.492	196.170	-0.169	0.340
-627.478	-68.609	-0.346	-0.175
-626.463	-120.925	0.543	0.119
-625.449	65.334	-0.300	0.399
-624.434	8.599	0.134	0.132
-623.419	-33.567	-0.217	-0.157
-622.405	-200.000	0.086	-0.000
-621.390	16.185	0.133	-0.137
-620.376	-71.694	0.716	0.350
-619.361	-61.461	0.419	-0.231
-618.346	-117.646	-0.395	-0.093
-617.332	-96.237	-0.540	-0.187
-616.317	44.241	0.074	-0.089
-615.303	-200.000	0.068	-0.459
-614.288	19.231	0.552	0.583
-613.273	-27.007	0.545	0.418
-612.259	209.101	0.152	0.314
-611.244	-127.473	0.239	-0.045
-610.230	-139.349	-0.423	0.059
-609.215	-63.656	-0.196	-0.105
-608.201	-161.849	0.128	-0.008
-607.186	210.038	-0.132	0.274
-606.171	99.613	-0.090	0.138
-605.157	-91.887	0.420	-0.156
-604.142	-168.599	0.154	0.008
-603.128	14.864	-0.283	-0.291
-602.113	-137.905	-0.120	0.017
-601.098	248.469	0.064	-0.142
-600.084	-118.094	-0.102	0.024
-599.069	-55.480	0.185	0.109
-598.055	-153.166	-0.223	-0.020
-597.040	-1.106	-0.174	0.162
-596.025	320.969	0.117	-0.293
-595.011	-104.902	-0.193	0.058
-593.996	34.853	-0.048	-0.056
-592.982	81.689	-0.466	-0.664
-591.967	-45.769	-0.195	-0.126
-590.952	800.000	-0.182	0.675
-589.938	17.191	0.204	0.213
-588.923	5.226	-0.254	0.246
-587.909	180.516	-0.079	0.152
-586.894	463.540	-0.040	0.119
-585.879	-125.021	0.063	-0.013
-584.865	441.241	0.139	-0.403
-583.850	44.166	-0.201	0.243
-582.836	-149.366	-0.216	0.022
-581.821	74.283	-0.121	-0.167
-580.806	-47.120	0.215	0.138
-579.792	-200.000	0.051	0.467
-578.777	-194.442	-0.376	0.004
-577.763	-200.000	-0.042	-0.376
-576.748	-49.445	0.157	-0.098
-575.733	-166.798	-0.238	0.013
-574.719	616.277	0.151	-0.498
-573.704	22.271	0.174	-0.187
-572.690	35.307	0.414	-0.477
-571.675	34.045	-0.302	-0.345
-570.661	-166.988	-0.566	-0.030
-569.646	-200.000	-0.047	0.402
-568.631	-57.793	0.078	0.044
-567.617	-163.160	0.465	-0.029
-566.602	364.516	0.056	-0.150
-565.588	-69.194	-0.058	-0.029
-564.573	-76.311	0.153	0.070
-563.558	-129.738	0.431	0.077
-562.544	-83.897	-0.393	-0.163
-561.529	116.490	0.186	0.300
-560.515	-148.953	0.184	-0.019
-559.500	800.000	0.062	0.306
-558.485	6.876	0.130	-0.127
-557.471	-50.966	-0.303	-0.186
-556.456	-106.145	-0.483	-0.141
-555.442	-98.905	-0.186	-0.062
-554.427	-135.707	0.526	-0.081
-553.412	8.580	0.091	0.090
-552.398	800.000	0.177	-0.686
-551.383	-200.000	-0.007	-0.224
-550.369	122.175	-0.138	0.226
-549.354	-200.000	-0.031	0.181
-548.339	-137.130	0.339	-0.050
-547.325	-61.899	-0.174	-0.095
-546.310	-81.739	-0.280	0.120
-545.296	-129.413	-0.322	-0.058
-544.281	-103.296	0.128	-0.039
-543.266	-99.895	-0.275	-0.089
-542.252	-200.000	0.023	-0.318
-541.237	4.743	0.148	-0.142
-540.223	176.987	-0.087	-0.167
-539.208	-150.562	-0.143	0.014
-538.193	-60.580	-0.200	-0.111
-537.179	225.991	0.215	-0.458
-536.164	197.181	-0.229	0.460
-535.150	-98.943	0.083	0.028
-534.135	-125.956	0.663	-0.130
-533.121	-15.937	-0.236	-0.197
-532.106	-200.000	-0.024	0.383
-531.091	33.650	0.084	0.095
-530.077	212.587	-0.077	0.160
-529.062	-143.829	-0.455	0.056
-528.048	-133.132	-0.404	-0.066
-527.033	-137.355	0.202	0.030
-526.018	242.779	0.273	0.601
-525.004	-200.000	-0.026	0.165
-523.989	-109.808	-0.330	0.090
-522.975	-34.261	0.373	-0.268
-521.960	-73.550	0.265	-0.126
-520.945	131.995	0.020	-0.035
-519.931	-150.133	-0.329	0.033
-518.916	8.868	-0.264	0.260
-517.902	-139.103	0.291	-0.041
-516.887	-57.645	-0.197	-0.113
-515.872	645.381	0.073	0.247
-514.858	-152.929	0.353	0.032
-513.843	-154.380	0.354	-0.031
-512.829	63.025	0.129	-0.169
-511.814	-23.943	-0.361	0.283
-510.799	155.341	-0.071	0.129
-509.785	-129.400	-0.138	0.025
-508.770	-200.000	-0.027	0.591
-507.756	77.619	0.121	-0.169
-506.741	672.875	-0.078	0.267
-505.726	-184.257	0.277	-0.006
-504.712	-4.115	0.183	-0.166
-503.697	387.480	-0.168	0.456
-502.683	-89.041	0.330	-0.127
-501.668	-41.713	0.297	-0.199
-500.653	800.000	0.160	-0.589
-499.639	-33.233	-0.260	-0.188
-498.624	-153.233	-0.076	-0.007
-497.610	-13.556	-0.330	0.280
-496.595	-200.000	0.020	0.187
-495.581	-151.801	-0.435	-0.041
-494.566	87.489	-0.286	-0.416
-493.551	165.691	-0.259	0.481
-492.537	-200.000	-0.006	-0.122
-491.522	323.598	0.046	-0.116
-490.508	342.936	0.095	-0.243
-489.493	-45.978	-0.427	-0.275
-488.478	-95.012	-0.591	-0.208
-487.464	-102.525	-0.119	0.037
-486.449	11.063	0.325	0.325
-485.435	-57.548	0.258	-0.147
-484.420	800.000	0.041	0.226
-483.405	-138.896	0.132	0.019
-482.391	-200.000	0.039	-0.246
-481.376	-42.809	-0.093	-0.062
-480.362	14.408	-0.373	-0.380
-479.347	-40.899	0.098	-0.066
-478.332	56.021	-0.322	-0.409
-477.318	-200.000	0.024	0.326
-476.303	32.978	-0.070	-0.080
-475.289	-174.921	0.445	0.016
-474.274	135.797	-0.139	-0.238
-473.259	-107.179	0.457	0.131
-472.245	-45.014	0.494	0.321
-471.230	-128.214	0.649	0.120
-470.216	410.416	-0.107	-0.297
-469.201	337.697	-0.044	-0.112
-468.186	-96.615	0.181	-0.062
-467.172	-49.395	-0.096	0.060
-466.157	547.657	-0.073	0.231
-465.143	73.724	-0.253	0.347
-464.128	-68.965	-0.223	-0.112
-463.113	109.805	0.147	0.231
-462.099	-61.062	0.190	-0.105
-461.084	11.407	0.416	-0.417
-460.070	0.684	-0.138	0.129
-459.055	89.763	-0.149	-0.218
-458.040	56.928	0.128	0.163
-457.026	800.000	0.104	0.434
-456.011	124.316	-0.151	-0.248
-454.997	-200.000	-0.028	-0.742
-453.982	-200.000	0.004	-0.232
-452.968	-110.535	0.197	0.053
-451.953	37.357	-0.206	0.239
-450.938	139.039	-0.152	0.262
-449.924	-111.859	-0.427	-0.112
-448.909	97.846	-0.176	-0.265
-447.895	21.458	0.167	0.177
-446.880	676.356	0.068	0.232
-445.865	171.342	-0.119	0.223
-444.851	-29.498	-0.229	-0.171
-443.836	92.323	0.187	0.276
-442.822	-147.996	0.326	-0.035
-441.807	-78.359	0.324	-0.144
-440.792	193.414	0.219	-0.434
-439.778	-163.230	0.203	0.013
-438.763	-28.080	0.125	0.095
-437.749	-106.320	-0.194	0.056
-436.734	-200.000	0.040	0.343
-435.719	800.000	0.128	0.477
-434.705	6.577	-0.358	-0.347
-433.690	-200.000	-0.013	0.350
-432.676	6.494	0.034	0.033
-431.661	-132.825	0.177	0.029
-430.646	800.000	-0.035	0.145
-429.632	499.690	0.097	-0.294
-428.617	425.273	-0.145	0.410
-427.603	-200.000	0.041	-0.321
-426.588	-1.717	0.320	-0.294
-425.573	48.881	0.356	-0.436
-424.559	-143.137	0.316	-0.039
-423.544	-3.337	0.185	-0.168
-422.530	-72.936	0.261	-0.125
-421.515	316.715	-0.298	-0.737
-420.500	88.743	-0.182	-0.265
-419.486	-44.862	-0.252	-0.164
-418.471	-200.000	0.024	-0.700
-417.457	-78.376	-0.261	-0.116
-416.442	-124.108	-0.110	0.022
-415.428	-70.582	-0.264	-0.130
-414.413	-51.239	-0.257	-0.157
-413.398	800.000	0.099	-0.384
-412.384	24.351	-0.200	0.216
-411.369	-142.926	-0.384	0.048
-410.355	116.652	-0.109	0.175
-409.340	-116.542	0.555	0.132
-408.325	-22.150	-0.202	-0.159
-407.311	54.876	0.176	0.222
-406.296	-146.699	0.197	0.022
-405.282	-118.372	0.323	0.074
-404.267	232.763	-0.067	-0.144
-403.252	37.072	-0.091	-0.105
-402.238	104.780	0.211	-0.325
-401.223	-170.425	-0.602	-0.027
-400.209	55.631	-0.248	0.313
-399.194	324.641	0.041	-0.102
-398.179	-57.172	-0.132	0.075
-397.165	-200.000	0.003	-0.086
-396.150	-38.236	0.349	0.241
-395.136	155.703	0.147	0.266
-394.121	165.571	-0.344	-0.635
-393.106	-69.606	-0.100	0.050
-392.092	780.286	-0.149	0.535
-391.077	-163.466	0.273	0.017
-390.063	702.199	-0.029	0.099
-389.048	766.744	0.077	-0.274
-388.033	-200.000	-0.001	0.040
-387.019	152.768	-0.146	0.261
-386.004	-200.000	0.006	-0.091
-384.990	355.289	0.112	-0.291
-383.975	-200.000	-0.027	-0.341
-382.960	196.412	0.154	-0.307
-381.946	15.429	0.237	0.243
-380.931	-88.325	-0.382	0.148
-379.917	-51.864	-0.427	-0.258
-378.902	128.860	0.319	-0.530
-377.888	-154.989	0.496	-0.042
-376.873	-105.836	-0.117	0.034
-375.858	-200.000	-0.020	0.195
-374.844	156.769	-0.162	-0.292
-373.829	-123.154	0.322	-0.067
-372.815	75.086	-0.211	-0.290
-371.800	-150.312	-0.145	0.014
-370.785	563.406	-0.067	0.212
-369.771	-148.899	-0.219	0.023
-368.756	-200.000	-0.040	-0.393
-367.742	-98.993	0.519	-0.170
-366.727	181.317	-0.176	0.338
-365.712	800.000	-0.036	0.162
-364.698	-58.263	0.175	0.099
-363.683	-107.007	-0.463	-0.132
-362.669	-96.814	0.447	0.152
-361.654	-30.163	0.222	-0.164
-360.639	23.564	0.064	0.069
-359.625	800.000	0.069	-0.300
-358.610	-134.682	-0.338	-0.053
-357.596	-200.000	-0.051	0.501
-356.581	-9.376	0.142	0.123
-355.566	-122.446	0.450	-0.095
-354.552	-85.618	-0.115	-0.046
-353.537	476.712	-0.032	0.096
-352.523	43.899	0.360	-0.429
-351.508	-57.181	-0.270	0.154
-350.493	-152.611	-0.208	0.019
-349.479	-12.020	0.045	0.038
-348.464	-48.162	0.139	0.087
-347.450	638.148	-0.044	0.147
-346.435	302.140	0.198	0.477
-345.420	14.667	-0.191	0.195
-344.406	-83.134	0.226	-0.094
-343.391	66.975	-0.201	0.267
-342.377	319.978	0.062	-0.154
-341.362	-19.462	0.279	-0.225
-340.348	-67.185	-0.150	-0.076
-339.333	90.602	0.195	0.285
-338.318	-200.000	0.031	-0.498
-337.304	649.903	0.117	-0.392
-336.289	-17.201	-0.370	-0.303
-335.275	-101.908	-0.206	0.064
-334.260	484.194	0.138	-0.409
-333.245	-15.119	0.623	-0.518
-332.231	-58.370	0.310	-0.175
-331.216	-152.774	0.844	0.077
-330.202	-92.653	0.342	0.124
-329.187	-127.623	-0.565	-0.105
-328.172	-128.136	0.092	0.017
-327.158	-61.402	-0.235	0.128
-326.143	-145.888	0.212	0.024
-325.129	-200.000	0.047	0.544
-324.114	30.803	0.268	0.299
-323.099	-200.000	0.001	0.210
-322.085	-90.349	-0.084	0.032
-321.070	269.352	0.084	-0.193
-320.056	-69.183	-0.243	0.121
-319.041	69.834	-0.315	0.423
-318.026	-121.145	-0.551	0.119
-317.012	16.064	0.081	-0.083
-315.997	-89.068	-0.133	-0.051
-314.983	-99.767	-0.100	0.032
-313.968	-200.000	-0.005	-0.309
-312.953	-134.623	0.382	-0.060
-311.939	322.065	-0.145	0.359
-310.924	12.353	0.282	-0.282
-309.910	-38.413	0.218	0.150
-308.895	-39.032	-0.298	-0.203
-307.880	800.000	-0.081	-0.297
-306.866	-12.613	0.460	0.389
-305.851	202.740	-0.191	0.385
-304.837	-19.109	-0.187	0.150
-303.822	46.954	-0.382	-0.462
-302.807	800.000	0.085	-0.368
-301.793	322.824	-0.048	0.120
-300.778	-26.523	-0.178	0.135
-299.764	-84.559	0.347	-0.141
-298.749	99.969	0.078	0.118
-297.735	6.568	-0.456	-0.440
-296.720	-200.000	0.009	-0.153
-295.705	192.266	0.178	0.350
-294.691	-127.207	-0.306	-0.058
-293.676	-111.141	-0.344	-0.091
-292.662	-101.034	-0.126	0.040
-291.647	438.359	0.092	0.262
-290.632	-200.000	-0.047	-0.610
-289.618	59.195	-0.252	-0.323
-288.603	84.685	0.078	-0.111
-287.589	-142.617	-0.254	-0.032
-286.574	-200.000	0.026	-0.210
-285.559	800.000	0.054	0.205
-284.545	-23.940	-0.324	-0.251
-283.530	-154.818	-0.439	-0.037
-282.516	-146.382	-0.233	-0.026
-281.501	109.009	0.160	0.249
-280.486	504.385	0.082	0.248
-279.472	274.127	-0.123	0.284
-278.457	-108.874	0.650	0.179
-277.443	800.000	0.015	0.066
-276.428	-119.292	0.180	0.040
-275.413	-141.745	-0.355	-0.046
-274.399	329.299	-0.079	0.198
-273.384	-44.999	-0.059	-0.038
-272.370	-1.177	0.345	0.316
-271.355	137.437	0.158	-0.268
-270.340	145.510	0.293	-0.511
-269.326	197.508	-0.048	-0.096
-268.311	800.000	-0.046	0.259
-267.297	443.327	0.074	-0.211
-266.282	-120.809	0.152	0.033
-265.267	-9.350	0.185	-0.160
-264.253	-200.000	-0.088	0.530
-263.238	800.000	-0.081	0.401
-262.224	-146.890	-0.187	0.021
-261.209	712.102	0.104	0.361
-260.195	255.661	0.164	0.366
-259.180	-133.193	-0.252	-0.041
-258.165	352.478	0.149	-0.385
-257.151	-28.246	0.349	0.261
-256.136	367.184	0.083	-0.219
-255.122	41.572	-0.080	-0.094
-254.107	32.464	0.213	-0.239
-253.092	76.974	-0.209	0.288
-252.078	-79.325	-0.177	-0.077
-251.063	800.000	-0.124	0.462
-250.049	-0.382	0.212	-0.195
-249.034	450.837	-0.098	-0.283
-248.019	-200.000	-0.022	0.419
-247.005	40.044	0.314	0.366
-245.990	48.809	-0.291	-0.354
-244.976	-110.173	0.150	0.040
-243.961	178.740	-0.167	0.318
-242.946	-79.404	-0.264	-0.115
-241.932	-129.461	-0.506	-0.090
-240.917	227.523	-0.086	0.183
-239.903	-60.365	-0.091	-0.050
-238.888	-30.196	-0.194	0.142
-237.873	-39.699	-0.133	0.090
-236.859	366.171	0.075	-0.198
-235.844	-200.000	0.019	-0.533
-234.830	316.349	-0.144	0.354
-233.815	-164.999	-0.120	-0.007
-232.800	341.728	0.121	-0.308
-231.786	-99.433	0.689	-0.223
-230.771	-64.478	0.382	-0.201
-229.757	-20.472	0.220	0.175
-228.742	-84.069	0.365	0.150
-227.727	-106.979	0.139	-0.039
-226.713	-40.836	-0.180	-0.121
-225.698	-37.119	-0.337	0.233
-224.684	172.076	-0.042	0.078
-223.669	-200.000	-0.007	-0.068
-222.655	-32.282	-0.310	0.224
-221.640	391.425	-0.158	-0.426
-220.625	-2.639	0.129	-0.117
-219.611	34.382	0.170	0.192
-218.596	-76.367	0.162	0.073
-217.582	153.383	-0.072	0.127
-216.567	-65.571	-0.174	0.090
-215.552	-50.698	-0.114	-0.069
-214.538	396.083	-0.083	-0.226
-213.523	-76.608	-0.713	0.322
-212.509	141.273	-0.137	0.236
-211.494	-83.296	0.124	0.051
-210.479	230.385	0.088	0.188
-209.465	-81.082	0.086	-0.036
-208.450	267.782	0.202	-0.459
-207.436	-47.866	0.460	0.287
-206.421	386.442	0.114	-0.306
-205.406	-135.053	0.302	-0.047
-204.392	44.154	-0.323	-0.384
-203.377	41.751	0.482	0.566
-202.363	-140.502	-0.240	0.032
-201.348	-79.301	0.317	0.138
-200.333	450.073	0.104	0.298
-199.319	276.871	-0.168	0.388
-198.304	331.489	-0.148	0.371
-197.290	381.676	-0.034	-0.091
-196.275	800.000	-0.057	-0.210
-195.260	-200.000	-0.032	-0.320
-194.246	-85.994	-0.363	0.145
-193.231	-200.000	0.061	-0.380
-192.217	47.132	0.047	0.057
-191.202	-44.323	-0.278	-0.180
-190.187	-59.085	-0.092	-0.051
-189.173	460.994	-0.192	0.556
-188.158	-120.207	0.331	0.072
-187.144	-142.667	-0.096	-0.012
-186.129	343.513	-0.087	0.221
-185.114	329.656	-0.059	-0.149
-184.100	-42.209	0.491	-0.324
-183.085	-1.184	-0.248	0.226
-182.071	-87.449	-0.273	0.106
-181.056	-200.000	-0.052	0.561
-180.042	130.097	0.065	0.108
-179.027	414.212	-0.104	0.288
-178.012	174.664	-0.078	0.146
-176.998	-78.288	-0.210	-0.093
-175.983	-106.845	-0.226	0.064
-174.969	-154.798	0.477	-0.040
-173.954	-108.005	0.214	0.060
-172.939	-95.794	-0.612	0.210
-171.925	131.296	0.079	0.132
-170.910	-103.080	0.351	0.107
-169.896	-85.492	0.298	-0.119
-168.881	440.602	-0.071	-0.202
-167.866	20.719	0.106	-0.111
-166.852	-200.000	-0.029	0.207
-165.837	-117.595	-0.261	0.060
-164.823	73.011	-0.240	-0.324
-163.808	-35.777	-0.194	-0.135
-162.793	-200.000	0.035	0.489
-161.779	-72.480	0.319	0.152
-160.764	-200.000	-0.019	-0.316
-159.750	-55.852	0.366	-0.210
-158.735	-117.169	-0.180	0.042
-157.720	-200.000	0.004	0.321
-156.706	800.000	0.093	0.447
-155.691	-200.000	-0.015	0.603
-154.677	-70.634	0.317	0.154
-153.662	-60.603	-0.059	0.032
-152.647	-39.836	-0.458	-0.308
-151.633	-54.683	0.278	0.162
-150.618	-28.917	-0.469	-0.348
-149.604	-200.000	-0.015	-0.174
-148.589	-114.202	-0.216	-0.053
-147.574	-72.285	0.406	-0.193
-146.560	-41.873	-0.234	0.155
-145.545	-136.181	-0.216	-0.032
-144.531	-169.339	0.195	0.009
-143.516	30.328	-0.338	0.373
-142.502	-67.187	-0.529	0.268
-141.487	296.017	0.273	0.648
-140.472	-133.557	-0.509	-0.081
-139.458	-124.076	-0.322	0.065
-138.443	-4.516	-0.415	0.370
-137.429	-37.441	-0.094	0.065
-136.414	32.523	0.484	-0.540
-135.399	-33.533	-0.106	0.075
-134.385	-55.858	0.144	-0.083
-133.370	114.155	-0.317	0.499
-132.356	-11.686	0.078	-0.066
-131.341	251.628	0.248	-0.546
-130.326	83.369	-0.170	0.240
-129.312	132.109	0.278	0.463
-128.297	800.000	-0.084	0.455
-127.283	125.087	0.080	-0.131
-126.268	-152.581	0.374	-0.034
-125.253	-80.775	0.154	-0.066
-124.239	-14.712	0.081	0.067
-123.224	800.000	-0.040	-0.184
-122.210	-200.000	-0.008	0.338
