DTS Sentinel unit serial number:	SN409020Multiplexer serial number:	ORYXHardware model number:	OX4-SRSoftware version number:	ORYX F/W v3.00 Oryx Data Collector v3.7.2.0data status	okinstallation	HaddamTimeLapsedifferential loss correction	single-endedforward channel	channel 3reverse channel	N/Adate	2011/06/21time	20:36:17forward acquisition time	30.00reverse acquisition time	0.00gamma	498.7831k internal	0.1774k external	0.1774temperature offset calibration	1.0074default loss term (dB/km)	0.3790temperature slope calibration	1.3530multiplexer offset coefficient	1.0000multiplexer slope coefficient	1.0000fibre end	0.00T internal ref (°C)	29.59T ext. ref 1 (°C)	21.78T ext. ref 2 (°C)	0.02length (m)	temperature (°C)	Stokes	anti-Stokes-747.200	60.798	0.193	0.252
-746.185	-10.742	0.074	0.064
-745.171	-116.469	0.210	0.050
-744.156	-111.334	-0.709	0.188
-743.142	-57.581	-0.219	0.125
-742.127	46.618	0.076	0.092
-741.112	498.282	-0.032	-0.097
-740.098	-200.000	-0.006	0.051
-739.083	-9.653	-0.209	-0.182
-738.069	217.750	0.227	0.476
-737.054	130.360	-0.275	-0.462
-736.039	-52.916	0.209	-0.126
-735.025	63.134	-0.198	0.260
-734.010	-14.126	-0.376	0.318
-732.996	-86.265	0.298	0.120
-731.981	-113.216	-0.573	0.147
-730.966	-17.648	0.130	0.107
-729.952	19.471	-0.258	-0.272
-728.937	-134.048	-0.380	0.061
-727.923	142.086	-0.235	0.410
-726.908	327.541	0.056	-0.141
-725.894	361.313	-0.117	0.310
-724.879	128.579	0.088	0.147
-723.864	-145.625	-0.036	-0.004
-722.850	-136.682	-0.063	-0.009
-721.835	-200.000	0.032	-0.488
-720.821	-59.743	0.250	-0.140
-719.806	232.768	-0.139	-0.300
-718.791	800.000	-0.100	-0.566
-717.777	-115.196	-0.711	-0.175
-716.762	-135.307	-0.581	-0.090
-715.748	-64.355	-0.199	-0.105
-714.733	-14.709	0.326	0.274
-713.718	12.243	0.269	-0.271
-712.704	-155.410	0.364	0.030
-711.689	-14.414	-0.307	-0.258
-710.675	800.000	-0.040	-0.199
-709.660	270.441	0.132	-0.305
-708.645	-200.000	0.065	-0.576
-707.631	-51.959	-0.446	-0.271
-706.616	-105.190	-0.203	-0.060
-705.602	-168.589	0.441	-0.022
-704.587	39.159	0.193	0.226
-703.572	-150.960	0.510	-0.050
-702.558	-200.000	-0.039	0.325
-701.543	112.320	-0.188	0.298
-700.529	-47.218	-0.262	-0.167
-699.514	-91.933	-0.138	0.051
-698.499	-200.000	-0.419	0.001
-697.485	-124.290	0.558	-0.113
-696.470	-50.799	-0.365	-0.224
-695.456	8.082	-0.175	0.172
-694.441	-200.000	-0.017	0.280
-693.426	800.000	-0.108	0.603
-692.412	-200.000	-0.019	-0.468
-691.397	132.383	-0.172	0.290
-690.383	61.649	-0.483	0.630
-689.368	-38.133	0.443	0.306
-688.354	3.415	0.168	-0.160
-687.339	-171.339	-0.763	0.033
-686.324	-65.114	-0.307	0.161
-685.310	17.227	0.374	-0.388
-684.295	224.487	0.042	-0.089
-683.281	-200.000	-0.017	0.133
-682.266	-67.563	0.517	-0.264
-681.251	-47.285	0.213	0.135
-680.237	-120.340	-0.498	-0.110
-679.222	741.043	-0.071	-0.251
-678.208	-28.395	-0.372	-0.280
-677.193	-200.000	-0.015	0.198
-676.178	800.000	-0.063	0.302
-675.164	800.000	0.042	0.212
-674.149	-200.000	0.009	0.153
-673.135	44.826	-0.310	-0.373
-672.120	238.578	-0.132	-0.287
-671.105	-200.000	-0.007	0.167
-670.091	-65.556	-0.384	0.201
-669.076	-65.327	-0.329	0.172
-668.062	411.231	-0.112	-0.313
-667.047	-200.000	0.015	-0.129
-666.032	-135.097	-0.715	0.111
-665.018	-98.372	-0.379	0.126
-664.003	-146.090	-0.381	-0.043
-662.989	-53.496	-0.054	0.032
-661.974	-200.000	0.036	-0.283
-660.959	382.648	0.153	-0.414
-659.945	-200.000	-0.021	-0.331
-658.930	-74.728	-0.181	-0.085
-657.916	-200.000	0.078	0.606
-656.901	145.226	0.174	0.305
-655.886	9.596	-0.141	0.139
-654.872	-60.417	-0.119	-0.066
-653.857	86.895	0.174	0.251
-652.843	-200.000	-0.003	-0.051
-651.828	-164.888	0.587	-0.034
-650.814	25.557	0.288	-0.313
-649.799	130.285	0.306	0.513
-648.784	51.919	-0.403	0.501
-647.770	-141.805	0.400	0.052
-646.755	-2.517	0.292	0.267
-645.741	43.114	-0.258	-0.308
-644.726	-200.000	-0.029	-0.589
-643.711	57.277	-0.163	0.207
-642.697	-200.000	-0.033	-0.395
-641.682	-9.173	-0.127	-0.111
-640.668	-100.518	-0.274	-0.088
-639.653	19.632	-0.549	-0.577
-638.638	800.000	-0.092	-0.408
-637.624	185.795	-0.070	0.137
-636.609	192.094	-0.229	0.452
-635.595	327.653	0.131	0.329
-634.580	455.766	-0.021	-0.062
-633.565	622.519	-0.097	0.321
-632.551	-49.601	-0.109	0.068
-631.536	77.173	-0.272	-0.378
-630.522	-44.821	0.301	0.195
-629.507	21.540	0.159	-0.168
-628.492	-137.641	-0.308	-0.045
-627.478	340.994	-0.149	-0.381
-626.463	800.000	0.106	-0.430
-625.449	800.000	-0.081	-0.369
-624.434	-123.819	-0.563	-0.115
-623.419	250.560	0.142	-0.317
-622.405	-41.610	0.129	-0.086
-621.390	-48.249	-0.407	0.255
-620.376	-116.099	0.195	-0.047
-619.361	800.000	0.045	-0.204
-618.346	-114.085	-0.160	-0.040
-617.332	220.773	0.064	-0.135
-616.317	28.267	0.116	-0.128
-615.303	-32.336	0.359	-0.261
-614.288	800.000	0.076	0.298
-613.273	-158.273	0.638	-0.048
-612.259	-34.437	-0.250	-0.179
-611.244	-200.000	-0.012	0.513
-610.230	186.951	-0.257	0.500
-609.215	-152.713	-0.366	0.034
-608.201	-159.583	-0.271	-0.019
-607.186	25.171	0.204	-0.221
-606.171	-62.200	-0.251	0.136
-605.157	318.316	0.168	0.416
-604.142	-107.617	0.156	-0.044
-603.128	308.449	0.150	-0.366
-602.113	-122.508	-0.294	0.062
-601.098	525.002	0.171	0.529
-600.084	-96.160	-0.061	-0.021
-599.069	-149.078	-0.045	-0.005
-598.055	800.000	-0.079	0.352
-597.040	-123.246	0.511	0.106
-596.025	39.926	0.191	0.223
-595.011	-7.734	-0.102	-0.090
-593.996	800.000	0.085	-0.382
-592.982	-114.910	0.098	-0.024
-591.967	-200.000	0.008	0.441
-590.952	-4.352	-0.285	-0.257
-589.938	-95.607	-0.442	0.153
-588.923	505.752	0.011	0.033
-587.909	-200.000	0.040	-0.356
-586.894	75.314	-0.142	-0.196
-585.879	-80.181	-0.477	0.207
-584.865	46.722	0.173	-0.209
-583.850	-35.543	-0.447	0.316
-582.836	142.499	-0.261	-0.452
-581.821	-13.998	0.350	-0.294
-580.806	277.486	-0.152	-0.355
-579.792	218.848	0.101	0.211
-578.777	53.247	0.183	0.229
-577.763	-75.891	-0.392	0.180
-576.748	-105.586	-0.518	-0.152
-575.733	-130.710	-0.141	0.024
-574.719	-92.869	0.337	-0.122
-573.704	-44.830	-0.032	0.021
-572.690	57.998	-0.401	-0.512
-571.675	800.000	0.110	-0.446
-570.661	-188.649	0.496	-0.008
-569.646	-90.577	0.370	-0.139
-568.631	6.980	0.269	0.261
-567.617	-71.385	0.744	-0.361
-566.602	-200.000	-0.086	-0.551
-565.588	-135.089	-0.091	-0.014
-564.573	-63.463	0.088	0.047
-563.558	2.314	-0.478	0.449
-562.544	543.427	-0.065	-0.204
-561.529	284.724	-0.119	-0.280
-560.515	-50.708	-0.434	-0.265
-559.500	-164.123	0.488	0.029
-558.485	35.804	-0.301	0.344
-557.471	25.281	-0.236	0.255
-556.456	-108.493	0.328	0.091
-555.442	-11.991	-0.169	0.144
-554.427	-155.066	-0.758	0.064
-553.412	-45.057	0.196	-0.126
-552.398	-200.000	-0.040	0.290
-551.383	-71.711	-0.142	-0.068
-550.369	450.028	0.078	0.225
-549.354	-5.884	0.227	-0.202
-548.339	-139.285	0.172	-0.024
-547.325	29.855	0.322	-0.357
-546.310	129.487	-0.174	-0.290
-545.296	-200.000	-0.033	-0.418
-544.281	-150.320	-0.599	-0.059
-543.266	79.123	0.163	0.227
-542.252	-173.430	0.570	0.022
-541.237	-111.896	-0.328	-0.086
-540.223	25.707	-0.103	0.111
-539.208	-125.501	-0.211	0.041
-538.193	-56.986	0.063	0.036
-537.179	-47.812	-0.261	0.164
-536.164	-6.404	-0.391	0.346
-535.150	122.959	-0.092	0.149
-534.135	228.522	-0.050	0.105
-533.121	-141.946	-0.445	-0.057
-532.106	38.659	-0.089	-0.103
-531.091	-45.397	-0.140	-0.090
-530.077	-112.278	-0.303	0.078
-529.062	177.959	0.075	-0.142
-528.048	39.620	-0.197	-0.230
-527.033	439.045	-0.104	0.296
-526.018	-15.799	-0.248	0.205
-525.004	-107.398	-0.484	0.137
-523.989	178.932	-0.171	0.326
-522.975	-133.379	0.024	-0.004
-521.960	-109.608	-0.427	-0.116
-520.945	-20.783	-0.144	-0.114
-519.931	-188.141	-0.432	0.007
-518.916	-44.085	-0.257	-0.168
-517.902	-134.844	-0.204	0.032
-516.887	-77.000	0.334	0.151
-515.872	97.611	-0.152	0.228
-514.858	-100.701	-0.457	0.145
-513.843	41.768	0.162	-0.191
-512.829	-102.427	0.443	-0.137
-511.814	-124.986	0.348	0.069
-510.799	84.489	0.190	-0.270
-509.785	-114.290	-0.422	0.105
-508.770	-200.000	0.175	0.001
-507.756	95.269	0.152	-0.226
-506.741	-77.691	0.236	-0.105
-505.726	-130.544	0.120	-0.021
-504.712	188.032	-0.107	0.209
-503.697	-39.616	0.341	0.231
-502.683	-50.104	-0.253	-0.155
-501.668	723.950	-0.187	0.651
-500.653	800.000	0.043	0.168
-499.639	-200.000	0.007	0.079
-498.624	-86.850	0.425	0.168
-497.610	800.000	0.178	-0.793
-496.595	-172.905	0.273	0.011
-495.581	-200.000	-0.009	-0.272
-494.566	-200.000	0.023	-0.214
-493.551	71.530	0.302	0.408
-492.537	727.067	-0.085	0.297
-491.522	-114.554	0.173	0.043
-490.508	-107.087	0.679	0.193
-489.493	684.350	0.101	0.345
-488.478	-178.796	0.218	-0.006
-487.464	-39.043	-0.621	0.423
-486.449	-103.562	-0.191	-0.058
-485.435	-27.243	0.382	0.288
-484.420	-200.000	0.028	-0.291
-483.405	568.342	0.023	0.072
-482.391	-158.415	-0.196	-0.015
-481.376	-64.999	-0.341	-0.178
-480.362	-200.000	-0.011	0.139
-479.347	800.000	0.009	0.039
-478.332	-82.284	0.220	-0.092
-477.318	-141.395	-0.131	0.017
-476.303	131.329	-0.210	-0.350
-475.289	-164.167	0.143	-0.008
-474.274	-105.106	-0.339	0.100
-473.259	147.761	-0.183	0.321
-472.245	222.383	-0.168	-0.351
-471.230	-133.857	0.083	-0.013
-470.216	-132.672	-0.359	-0.059
-469.201	-135.409	-0.409	0.063
-468.186	-117.789	0.422	-0.098
-467.172	425.360	0.144	0.404
-466.157	-3.090	0.164	0.149
-465.143	-36.864	0.232	0.161
-464.128	800.000	-0.021	0.119
-463.113	286.594	-0.089	0.210
-462.099	-86.194	0.030	-0.012
-461.084	17.068	-0.256	-0.263
-460.070	-200.000	0.010	-0.135
-459.055	-175.766	-0.103	-0.004
-458.040	115.803	0.075	0.120
-457.026	107.854	-0.194	0.300
-456.011	-200.000	0.011	-0.287
-454.997	5.591	-0.209	-0.200
-453.982	-190.094	-0.182	0.003
-452.968	-78.259	0.100	0.044
-451.953	-162.172	-0.465	0.030
-450.938	171.173	-0.086	-0.161
-449.924	164.924	0.275	0.504
-448.909	341.297	-0.040	0.102
-447.895	-107.046	0.121	-0.034
-446.880	7.796	-0.045	0.044
-445.865	-115.570	0.194	0.047
-444.851	-24.951	-0.073	0.056
-443.836	800.000	-0.043	-0.212
-442.822	-81.939	0.275	-0.116
-441.807	800.000	-0.051	0.200
-440.792	-69.879	0.481	0.237
-439.778	184.284	0.043	-0.083
-438.763	-200.000	-0.037	0.444
-437.749	-17.358	-0.357	-0.291
-436.734	-38.905	0.277	-0.188
-435.719	-108.552	0.115	-0.032
-434.705	-200.000	-0.003	-0.053
-433.690	71.074	0.265	-0.356
-432.676	36.763	0.037	0.042
-431.661	179.095	-0.231	0.439
-430.646	-47.040	-0.328	0.206
-429.632	41.071	-0.177	0.208
-428.617	-72.825	-0.441	0.209
-427.603	14.861	-0.448	0.453
-426.588	-200.000	-0.023	0.135
-425.573	-200.000	-0.025	-0.530
-424.559	-137.992	-0.082	0.012
-423.544	224.472	0.190	-0.399
-422.530	452.930	0.101	0.291
-421.515	-16.805	-0.278	0.227
-420.500	-49.305	-0.219	0.135
-419.486	-84.777	0.565	-0.229
-418.471	591.506	-0.118	-0.380
-417.457	303.679	-0.148	-0.356
-416.442	-62.762	0.360	-0.192
-415.428	19.536	0.251	-0.262
-414.413	18.456	0.095	0.098
-413.398	800.000	-0.062	0.238
-412.384	52.233	0.095	-0.117
-411.369	-200.000	0.005	-0.038
-410.355	-143.494	-0.220	0.027
-409.340	99.411	0.391	0.587
-408.325	-30.948	0.492	0.359
-407.311	120.922	-0.150	-0.242
-406.296	-142.398	-0.254	-0.032
-405.282	-119.326	-0.057	0.013
-404.267	-90.901	0.433	-0.160
-403.252	-101.181	-0.153	0.048
-402.238	-200.000	-0.015	0.267
-401.223	-122.875	0.494	-0.102
-400.209	2.613	0.378	0.354
-399.194	-114.979	-0.265	0.065
-398.179	-195.056	-0.142	-0.001
-397.165	404.393	0.063	0.172
-396.150	-12.837	-0.396	0.333
-395.136	-52.852	0.721	0.428
-394.121	-200.000	-0.021	-0.171
-393.106	150.599	0.035	-0.062
-392.092	-117.586	0.396	0.092
-391.077	-200.000	0.045	0.619
-390.063	241.820	0.134	0.290
-389.048	800.000	-0.046	-0.167
-388.033	50.811	-0.487	-0.597
-387.019	149.454	-0.189	-0.332
-386.004	110.323	-0.057	0.089
-384.990	800.000	0.099	0.544
-383.975	-144.760	-0.639	-0.075
-382.960	171.481	-0.210	-0.391
-381.946	372.505	-0.130	-0.344
-380.931	383.769	0.085	0.227
-379.917	220.793	-0.135	0.280
-378.902	33.707	0.358	-0.403
-377.888	275.159	-0.085	0.195
-376.873	39.880	0.130	0.151
-375.858	185.133	0.117	0.225
-374.844	-86.606	0.290	0.114
-373.829	-87.531	-0.258	0.100
-372.815	-50.379	-0.299	-0.182
-371.800	-135.450	0.080	-0.012
-370.785	-174.208	-0.288	0.011
-369.771	264.510	0.150	-0.339
-368.756	381.267	0.086	0.230
-367.742	-156.956	-0.286	0.022
-366.727	-120.472	-0.291	-0.063
-365.712	-93.575	-0.087	0.031
-364.698	248.947	0.145	0.318
-363.683	260.105	0.125	0.279
-362.669	800.000	-0.021	-0.113
-361.654	152.114	0.100	-0.177
-360.639	143.364	-0.033	0.057
-359.625	-200.000	-0.015	-0.165
-358.610	68.611	0.110	0.146
-357.596	-165.203	-0.288	-0.016
-356.581	-47.563	-0.312	0.195
-355.566	-52.529	0.526	0.313
-354.552	-193.794	0.316	-0.003
-353.537	36.052	0.117	-0.133
-352.523	-200.000	-0.023	-0.240
-351.508	50.049	-0.276	-0.336
-350.493	-145.283	-0.124	0.014
-349.479	129.320	-0.154	0.255
-348.464	800.000	0.133	0.521
-347.450	-70.831	-0.213	0.103
-346.435	-100.769	0.275	-0.087
-345.420	-64.929	0.135	-0.070
-344.406	89.393	-0.384	-0.553
-343.391	12.511	0.255	-0.254
-342.377	-152.211	0.121	0.011
-341.362	-108.542	0.071	-0.020
-340.348	-99.498	0.689	0.222
-339.333	-137.148	0.238	-0.035
-338.318	-73.264	-0.527	-0.248
-337.304	-34.893	0.364	0.256
-336.289	-159.214	0.602	0.043
-335.275	-81.799	0.238	-0.100
-334.260	-109.532	0.163	-0.044
-333.245	-155.255	0.315	0.026
-332.231	300.241	0.120	0.286
-331.216	2.838	-0.343	-0.321
-330.202	-116.949	0.402	-0.094
-329.187	-72.259	0.503	0.239
-328.172	-43.198	-0.257	-0.167
-327.158	-34.025	0.354	-0.251
-326.143	50.054	-0.248	0.302
-325.129	140.799	-0.159	0.271
-324.114	-42.375	-0.192	0.126
-323.099	73.185	0.194	0.261
-322.085	-136.042	-0.146	0.022
-321.070	100.852	-0.105	-0.158
-320.056	10.003	-0.124	-0.121
-319.041	-60.047	0.111	0.061
-318.026	-89.024	0.245	-0.093
-317.012	6.865	0.280	-0.269
-315.997	16.188	0.152	0.155
-314.983	-56.636	0.600	0.342
-313.968	800.000	-0.049	-0.243
-312.953	-200.000	-0.075	0.527
-311.939	66.389	-0.264	-0.346
-310.924	76.496	0.200	-0.273
-309.910	-200.000	-0.018	0.226
-308.895	-78.394	0.117	-0.051
-307.880	-82.881	-0.228	0.094
-306.866	54.160	-0.354	0.440
-305.851	152.220	-0.121	-0.214
-304.837	51.488	0.357	-0.438
-303.822	-129.741	-0.401	-0.071
-302.807	456.037	0.070	0.200
-301.793	70.362	0.165	-0.220
-300.778	109.582	0.184	-0.284
-299.764	800.000	-0.090	0.382
-298.749	-1.676	-0.080	-0.073
-297.735	785.907	-0.087	0.308
-296.720	23.303	0.346	0.366
-295.705	4.453	0.177	0.167
-294.691	100.378	-0.304	0.456
-293.676	-92.287	0.080	-0.029
-292.662	273.313	0.254	-0.581
-291.647	-153.981	-0.343	0.030
-290.632	-52.199	-0.074	0.044
-289.618	551.392	-0.072	-0.224
-288.603	542.118	0.058	0.178
-287.589	-41.120	0.216	-0.143
-286.574	-7.886	0.045	0.039
-285.559	53.654	0.353	-0.437
-284.545	467.311	0.112	-0.324
-283.530	-56.968	-0.502	-0.284
-282.516	23.387	-0.225	-0.238
-281.501	800.000	-0.086	-0.455
-280.486	-128.693	-0.480	-0.087
-279.472	-129.172	-0.068	-0.012
-278.457	-75.915	0.187	-0.085
-277.443	-172.962	0.276	0.011
-276.428	-72.565	0.195	-0.092
-275.413	800.000	-0.084	-0.437
-274.399	-90.541	-0.415	0.154
-273.384	148.261	0.328	-0.571
-272.370	-137.449	0.540	-0.078
-271.355	47.578	0.237	0.285
-270.340	3.873	0.182	-0.171
-269.326	18.907	0.396	0.408
-268.311	91.415	0.159	0.230
-267.297	-77.690	-0.241	-0.107
-266.282	-200.000	0.026	0.266
-265.267	-200.000	-0.019	0.416
-264.253	-4.321	-0.133	0.118
-263.238	33.272	0.310	-0.346
-262.224	-36.629	0.119	0.082
-261.209	-113.378	-0.748	-0.187
-260.195	171.384	-0.104	-0.193
-259.180	4.187	-0.089	-0.084
-258.165	-105.621	0.296	0.086
-257.151	-121.585	-0.147	0.031
-256.136	2.830	0.195	-0.182
-255.122	-56.726	0.151	0.086
-254.107	-95.433	-0.386	0.132
-253.092	-47.906	0.309	-0.192
-252.078	800.000	-0.070	-0.278
-251.063	-141.227	0.403	-0.052
-250.049	150.980	-0.110	-0.192
-249.034	-167.918	0.635	0.032
-248.019	19.152	0.318	0.328
-247.005	-141.028	-0.572	0.075
-245.990	769.902	-0.137	-0.482
-244.976	-61.470	0.427	-0.230
-243.961	-15.117	0.300	-0.246
-242.946	318.087	-0.079	-0.193
-241.932	-117.175	-0.239	0.055
-240.917	-200.000	-0.011	-0.066
-239.903	-200.000	-0.013	-0.416
-238.888	70.103	-0.067	-0.089
-237.873	-179.685	0.303	-0.008
-236.859	-101.713	-0.371	0.115
-235.844	16.640	-0.235	-0.238
-234.830	-53.402	0.667	-0.391
-233.815	159.222	0.120	-0.215
-232.800	-3.707	-0.196	-0.175
-231.786	21.075	0.098	-0.102
-230.771	99.262	0.182	-0.271
-229.757	-200.000	-0.010	-0.215
-228.742	104.306	0.062	-0.094
-227.727	179.831	0.337	-0.637
-226.713	285.172	0.082	0.190
-225.698	-86.454	-0.274	0.107
-224.684	117.886	0.169	-0.268
-223.669	115.077	0.162	0.254
-222.655	48.897	0.212	0.256
-221.640	7.199	-0.226	-0.216
-220.625	-62.854	-0.113	0.060
-219.611	-68.717	-0.398	-0.197
-218.596	-52.078	0.316	0.188
-217.582	46.699	0.391	0.466
-216.567	-200.000	0.050	0.288
-215.552	-138.048	0.429	-0.061
-214.538	-100.511	0.303	0.096
-213.523	-6.727	-0.393	0.343
-212.509	-150.577	0.281	0.027
-211.494	29.200	0.211	-0.230
-210.479	-200.000	-0.020	0.270
-209.465	-175.852	-0.319	-0.011
-208.450	-66.076	0.312	0.159
-207.436	-86.299	0.346	-0.136
-206.421	800.000	0.245	-0.977
-205.406	-128.656	-0.639	-0.115
-204.392	-17.723	-0.449	0.361
-203.377	219.179	0.053	-0.109
-202.363	-120.630	-0.377	0.081
-201.348	-167.545	0.313	0.016
-200.333	-61.233	0.034	-0.019
-199.319	154.306	-0.083	0.147
-198.304	225.913	0.138	0.289
-197.290	604.013	0.125	-0.400
-196.275	-29.544	-0.206	0.150
-195.260	228.562	0.155	-0.324
-194.246	-89.985	0.411	0.153
-193.231	-10.307	0.363	0.308
-192.217	-92.325	0.533	0.191
-191.202	467.390	0.115	-0.331
-190.187	68.411	0.154	-0.203
-189.173	800.000	0.107	-0.384
-188.158	-200.000	0.026	-0.345
-187.144	-200.000	0.030	-0.252
-186.129	-188.451	0.141	-0.002
-185.114	-200.000	-0.024	0.359
-184.100	118.559	-0.121	0.192
-183.085	-48.752	-0.254	-0.156
-182.071	365.888	0.058	0.151
-181.056	-200.000	0.086	0.545
-180.042	-4.082	0.049	-0.043
-179.027	-42.029	-0.289	0.189
-178.012	-200.000	-0.037	0.392
-176.998	23.623	-0.106	-0.111
-175.983	-200.000	-0.025	0.152
-174.969	-142.869	0.076	0.009
-173.954	510.343	-0.103	0.310
-172.939	-70.106	-0.387	-0.188
-171.925	-116.634	0.168	0.039
-170.910	10.626	0.124	0.121
-169.896	-156.043	-0.190	0.015
-168.881	-200.000	-0.007	0.408
-167.866	26.362	-0.409	-0.438
-166.852	-55.524	-0.211	0.121
-165.837	-200.000	-0.017	0.426
-164.823	97.119	0.248	0.366
-163.808	149.875	-0.227	0.396
-162.793	565.928	-0.130	-0.406
-161.779	-200.000	-0.013	0.341
-160.764	-79.956	-0.264	0.113
-159.750	-66.036	-0.291	-0.148
-158.735	241.197	0.126	0.271
-157.720	189.916	0.144	-0.278
-156.706	-112.367	0.070	0.018
-155.691	-92.737	0.285	0.102
-154.677	-19.875	0.148	-0.117
-153.662	180.866	-0.247	0.465
-152.647	-200.000	0.011	-0.306
-151.633	-200.000	-0.296	-0.000
-150.618	12.131	-0.169	0.167
-149.604	219.278	-0.246	0.505
-148.589	-107.369	0.242	0.068
-147.574	-109.026	-0.666	-0.180
-146.560	-60.561	-0.210	-0.114
-145.545	-200.000	-0.059	-0.331
-144.531	-9.910	0.395	0.336
-143.516	-114.310	-0.274	0.067
-142.502	4.183	-0.019	0.018
-141.487	549.909	-0.031	0.096
-140.472	-78.955	-0.175	0.076
-139.458	492.022	-0.069	-0.204
-138.443	-43.469	0.248	0.160
-137.429	800.000	-0.109	0.426
-136.414	175.399	-0.176	0.328
-135.399	158.968	-0.113	-0.201
-134.385	-108.478	-0.465	-0.127
-133.370	800.000	-0.109	0.428
-132.356	-25.641	-0.168	0.127
-131.341	184.535	0.090	0.172
-130.326	800.000	0.107	0.490
-129.312	-153.416	-0.389	-0.034
-128.297	27.038	-0.200	-0.215
-127.283	-44.212	0.724	0.464
-126.268	-85.910	0.251	-0.099
-125.253	-46.387	0.199	0.125
-124.239	13.235	-0.147	0.146
-123.224	-53.784	0.314	-0.183
-122.210	367.682	0.085	-0.220
