DTS Sentinel unit serial number:	SN409020Multiplexer serial number:	ORYXHardware model number:	OX4-SRSoftware version number:	ORYX F/W v3.00 Oryx Data Collector v3.7.2.0data status	okinstallation	HaddamTimeLapsedifferential loss correction	single-endedforward channel	channel 3reverse channel	N/Adate	2011/06/21time	18:51:17forward acquisition time	30.00reverse acquisition time	0.00gamma	498.7831k internal	0.1811k external	0.1811temperature offset calibration	1.0074default loss term (dB/km)	0.3790temperature slope calibration	1.3530multiplexer offset coefficient	1.0000multiplexer slope coefficient	1.0000fibre end	0.00T internal ref (°C)	35.47T ext. ref 1 (°C)	27.21T ext. ref 2 (°C)	0.25length (m)	temperature (°C)	Stokes	anti-Stokes-747.200	-126.376	-0.652	-0.124
-746.185	-200.000	0.008	0.229
-745.171	800.000	0.073	-0.388
-744.156	579.124	0.133	0.419
-743.142	-69.323	-0.426	-0.209
-742.127	-200.000	0.022	0.328
-741.112	800.000	0.041	-0.202
-740.098	800.000	-0.084	0.387
-739.083	-85.059	-0.246	0.099
-738.069	-45.771	0.274	0.173
-737.054	-14.840	0.290	-0.239
-736.039	190.382	0.082	0.159
-735.025	-138.617	0.576	-0.080
-734.010	194.464	0.280	0.548
-732.996	-200.000	0.000	0.007
-731.981	172.364	0.198	0.366
-730.966	-156.874	0.763	0.059
-729.952	-117.307	-0.341	-0.079
-728.937	-126.836	-0.283	-0.053
-727.923	-26.962	-0.286	0.214
-726.908	-200.000	0.002	0.466
-725.894	-200.000	0.022	0.414
-724.879	-116.790	-0.263	-0.061
-723.864	-53.727	-0.404	-0.236
-722.850	235.360	-0.183	-0.389
-721.835	-64.295	-0.449	-0.234
-720.821	-118.905	-0.438	-0.098
-719.806	21.932	-0.602	0.629
-718.791	-80.387	0.562	0.240
-717.777	26.325	-0.015	0.017
-716.762	-32.837	-0.096	-0.068
-715.748	-13.678	-0.059	-0.049
-714.733	-92.017	-0.451	0.163
-713.718	-88.201	-0.183	-0.070
-712.704	800.000	-0.163	-0.584
-711.689	-81.385	-0.259	-0.109
-710.675	-55.829	0.237	-0.135
-709.660	800.000	0.082	-0.440
-708.645	-144.923	-0.345	-0.040
-707.631	800.000	0.074	0.290
-706.616	-8.449	-0.167	0.144
-705.602	294.426	0.188	-0.442
-704.587	49.643	0.196	-0.237
-703.572	65.000	0.079	0.103
-702.558	407.428	0.100	-0.274
-701.543	-44.596	-0.267	-0.171
-700.529	-110.730	-0.834	-0.219
-699.514	732.398	0.068	-0.234
-698.499	-61.811	0.150	0.080
-697.485	-33.423	0.085	0.060
-696.470	93.086	0.125	-0.182
-695.456	211.514	0.080	-0.162
-694.441	-200.000	0.005	-0.280
-693.426	89.898	0.281	-0.403
-692.412	-63.731	-0.330	-0.173
-691.397	800.000	0.034	0.142
-690.383	-200.000	0.025	-0.241
-689.368	524.620	-0.120	-0.363
-688.354	-104.234	-0.105	0.031
-687.339	-157.539	-0.222	0.017
-686.324	88.025	0.155	-0.220
-685.310	-200.000	0.009	-0.309
-684.295	-150.044	0.108	-0.011
-683.281	-200.000	-0.020	-0.424
-682.266	-90.542	0.454	0.168
-681.251	-51.584	0.280	-0.167
-680.237	-54.196	0.656	-0.381
-679.222	-152.445	0.717	0.065
-678.208	3.087	-0.200	-0.186
-677.193	-190.736	-0.151	0.002
-676.178	18.911	0.131	-0.135
-675.164	-78.169	-0.335	-0.147
-674.149	-200.000	-0.004	0.198
-673.135	-53.434	0.207	0.121
-672.120	-200.000	0.042	-0.347
-671.105	409.999	0.112	0.307
-670.091	-71.329	-0.447	0.214
-669.076	-200.000	-0.018	0.239
-668.062	-85.982	0.282	0.111
-667.047	-100.481	0.343	-0.108
-666.032	13.338	-0.154	-0.153
-665.018	115.752	-0.039	-0.062
-664.003	-8.045	-0.193	-0.166
-662.989	800.000	-0.022	0.081
-661.974	-104.595	-0.355	0.104
-660.959	800.000	-0.052	0.189
-659.945	-107.693	0.173	-0.048
-658.930	800.000	-0.090	0.436
-657.916	29.271	-0.326	-0.355
-656.901	105.469	-0.198	0.300
-655.886	296.052	0.091	-0.215
-654.872	-99.822	-0.146	-0.046
-653.857	214.245	0.197	-0.400
-652.843	-147.250	0.302	0.032
-651.828	202.928	0.115	0.229
-650.814	25.454	0.196	-0.208
-649.799	-61.854	0.499	-0.266
-648.784	35.686	-0.052	-0.058
-647.770	-93.696	-0.292	0.102
-646.755	-200.000	-0.014	0.200
-645.741	-128.224	0.262	0.047
-644.726	93.057	0.121	0.175
-643.711	-158.110	0.518	-0.038
-642.697	22.976	0.046	0.048
-641.682	234.756	0.083	-0.175
-640.668	800.000	-0.051	-0.207
-639.653	800.000	0.044	-0.196
-638.638	218.807	0.218	0.448
-637.624	-93.345	0.467	-0.165
-636.609	-48.246	-0.335	-0.206
-635.595	153.795	0.130	-0.228
-634.580	29.358	0.124	-0.135
-633.565	-25.368	-0.088	-0.067
-632.551	243.465	-0.048	0.103
-631.536	-100.487	0.563	-0.177
-630.522	-70.302	0.389	-0.188
-629.507	200.241	0.151	0.298
-628.492	33.061	-0.157	-0.174
-627.478	36.242	-0.302	-0.340
-626.463	-200.000	0.027	0.208
-625.449	728.434	0.118	0.407
-624.434	-44.352	-0.428	0.274
-623.419	279.691	-0.212	0.487
-622.405	-77.153	-0.279	0.124
-621.390	-51.743	0.205	0.121
-620.376	-141.029	-0.279	0.036
-619.361	800.000	0.014	-0.067
-618.346	-88.921	-0.431	-0.162
-617.332	-10.656	0.126	-0.107
-616.317	179.939	-0.119	0.223
-615.303	-29.924	-0.351	-0.255
-614.288	50.980	-0.379	-0.460
-613.273	23.405	0.315	0.331
-612.259	-19.222	-0.318	0.252
-611.244	-70.313	-0.170	0.082
-610.230	112.362	0.111	0.171
-609.215	-113.363	0.140	0.035
-608.201	21.177	-0.082	-0.085
-607.186	-58.279	-0.252	0.140
-606.171	-200.000	0.038	0.283
-605.157	-200.000	-0.018	0.156
-604.142	98.312	-0.183	-0.270
-603.128	-171.544	-0.519	0.022
-602.113	-72.382	0.190	-0.090
-601.098	-200.000	-0.005	-0.268
-600.084	-2.485	0.223	-0.199
-599.069	574.791	0.047	0.149
-598.055	93.340	0.275	-0.398
-597.040	-182.792	0.294	0.007
-596.025	800.000	-0.144	-0.594
-595.011	-200.000	-0.045	0.530
-593.996	800.000	-0.038	0.210
-592.982	102.644	0.225	0.336
-591.967	-2.045	0.162	0.145
-590.952	-7.694	0.131	0.113
-589.938	386.621	0.054	0.143
-588.923	17.130	0.316	-0.319
-587.909	272.495	0.144	-0.325
-586.894	501.016	0.108	-0.318
-585.879	79.920	0.325	-0.447
-584.865	26.072	0.351	-0.374
-583.850	73.721	0.407	-0.545
-582.836	15.507	0.290	0.290
-581.821	-75.299	-0.266	0.121
-580.806	-59.660	0.451	-0.246
-579.792	330.916	-0.273	0.674
-578.777	800.000	-0.070	0.269
-577.763	175.866	0.134	0.249
-576.748	-84.698	-0.266	0.106
-575.733	-200.000	0.018	-0.226
-574.719	-127.017	0.220	-0.041
-573.704	-200.000	0.021	0.565
-572.690	800.000	-0.101	-0.502
-571.675	79.968	-0.117	-0.161
-570.661	37.991	0.625	-0.709
-569.646	-9.411	0.095	0.081
-568.631	-200.000	0.002	-0.280
-567.617	-25.591	0.315	0.237
-566.602	314.061	-0.159	-0.384
-565.588	-60.479	-0.128	-0.069
-564.573	-131.156	-0.222	-0.037
-563.558	-70.835	-0.133	0.064
-562.544	-200.000	0.020	0.325
-561.529	-71.276	-0.146	0.070
-560.515	-57.552	0.391	0.218
-559.500	-180.024	-0.138	0.004
-558.485	-200.000	-0.057	0.731
-557.471	-77.900	-0.126	0.055
-556.456	-200.000	-0.061	0.659
-555.442	-105.790	0.295	0.084
-554.427	-100.958	-0.392	0.122
-553.412	-111.083	-0.248	0.064
-552.398	800.000	-0.027	0.126
-551.383	116.417	0.131	-0.204
-550.369	-79.462	-0.051	-0.022
-549.354	-115.277	0.271	0.065
-548.339	11.564	-0.110	-0.107
-547.325	120.724	0.192	-0.305
-546.310	-200.000	0.022	0.243
-545.296	-132.805	-0.519	-0.084
-544.281	4.985	-0.115	0.107
-543.266	563.124	0.041	-0.127
-542.252	-43.469	0.414	-0.265
-541.237	436.635	0.167	0.465
-540.223	41.362	0.064	-0.074
-539.208	-77.813	0.439	0.192
-538.193	4.413	-0.164	-0.153
-537.179	-128.933	-0.131	-0.023
-536.164	-200.000	0.004	0.070
-535.150	-21.798	0.448	0.347
-534.135	-82.858	0.207	-0.085
-533.121	-3.758	0.146	0.129
-532.106	-200.000	0.012	0.229
-531.091	-57.993	-0.333	-0.185
-530.077	149.620	0.100	0.173
-529.062	800.000	-0.046	0.256
-528.048	-68.749	0.492	0.242
-527.033	-49.732	0.361	0.218
-526.018	800.000	0.045	0.179
-525.004	-55.765	-0.236	-0.134
-523.989	-200.000	-0.002	0.139
-522.975	46.561	-0.154	-0.182
-521.960	-154.932	-0.619	0.051
-520.945	-115.421	-0.537	-0.128
-519.931	-153.128	0.596	0.053
-518.916	13.007	0.480	0.472
-517.902	91.434	-0.266	0.381
-516.887	800.000	-0.128	0.609
-515.872	91.222	0.038	0.055
-514.858	193.575	-0.165	-0.319
-513.843	69.736	0.026	-0.034
-512.829	800.000	0.053	0.207
-511.814	-17.214	-0.096	0.077
-510.799	-200.000	-0.017	-0.133
-509.785	-153.168	0.081	0.007
-508.770	-47.480	0.282	0.174
-507.756	-84.771	0.079	0.031
-506.741	-184.968	0.157	-0.003
-505.726	-200.000	-0.076	0.443
-504.712	-35.764	0.205	0.141
-503.697	233.299	0.062	0.130
-502.683	56.749	-0.192	0.238
-501.668	46.281	-0.295	0.347
-500.653	-200.000	0.003	0.107
-499.639	-148.526	0.412	-0.042
-498.624	-55.552	0.305	-0.173
-497.610	173.314	-0.112	0.205
-496.595	-184.534	0.439	-0.009
-495.581	151.745	0.201	0.350
-494.566	281.757	0.073	0.168
-493.551	64.499	-0.124	0.158
-492.537	-105.428	-0.354	-0.102
-491.522	115.320	0.203	-0.316
-490.508	95.832	0.087	0.126
-489.493	217.433	-0.251	0.509
-488.478	-69.108	-0.655	-0.319
-487.464	-78.800	-0.302	-0.130
-486.449	188.282	0.129	-0.245
-485.435	-57.171	0.228	-0.127
-484.420	471.009	-0.089	-0.254
-483.405	212.502	-0.079	-0.158
-482.391	-70.126	0.076	-0.036
-481.376	242.794	0.183	0.391
-480.362	-13.157	0.332	-0.274
-479.347	-131.734	0.124	0.020
-478.332	-156.027	-0.342	-0.027
-477.318	-89.569	-0.343	-0.127
-476.303	-24.375	-0.167	-0.126
-475.289	-48.505	-0.331	-0.202
-474.274	197.238	0.153	-0.298
-473.259	198.963	-0.043	-0.084
-472.245	-100.017	-0.364	-0.115
-471.230	30.270	-0.307	-0.333
-470.216	35.291	-0.161	0.179
-469.201	800.000	0.011	-0.055
-468.186	-147.900	-0.280	-0.029
-467.172	-200.000	-0.098	0.598
-466.157	-104.068	0.146	0.043
-465.143	615.586	0.021	-0.067
-464.128	-200.000	-0.007	0.309
-463.113	-200.000	0.033	-0.371
-462.099	-148.474	-0.152	-0.016
-461.084	-8.583	-0.231	-0.197
-460.070	415.241	-0.107	-0.292
-459.055	97.973	-0.120	0.175
-458.040	66.161	-0.150	0.194
-457.026	-56.503	-0.329	-0.185
-456.011	168.845	0.098	-0.177
-454.997	-61.841	-0.460	-0.243
-453.982	121.871	-0.213	-0.338
-452.968	-85.854	0.331	0.129
-451.953	-120.219	-0.187	0.040
-450.938	-200.000	-0.008	0.214
-449.924	-166.463	-0.253	0.013
-448.909	-200.000	-0.023	-0.330
-447.895	787.385	0.106	0.372
-446.880	198.623	0.202	0.393
-445.865	-35.612	-0.118	0.081
-444.851	387.157	0.159	-0.419
-443.836	-200.000	-0.004	-0.133
-442.822	-200.000	-0.060	0.422
-441.807	-70.770	0.254	-0.121
-440.792	-200.000	0.004	-0.038
-439.778	800.000	0.199	0.752
-438.763	-168.927	-0.360	0.017
-437.749	-37.412	-0.032	-0.022
-436.734	172.161	-0.268	0.491
-435.719	-98.316	-0.176	0.057
-434.705	-63.198	-0.091	-0.047
-433.690	-200.000	-0.018	0.304
-432.676	97.982	0.106	-0.155
-431.661	800.000	0.085	-0.345
-430.646	800.000	-0.125	-0.444
-429.632	-43.514	0.210	-0.134
-428.617	800.000	-0.096	0.473
-427.603	-200.000	-0.046	-0.274
-426.588	-84.931	-0.279	-0.111
-425.573	-7.952	0.128	-0.109
-424.559	2.668	-0.348	-0.319
-423.544	-0.888	0.435	0.390
-422.530	-200.000	0.020	-0.432
-421.515	236.125	0.127	-0.267
-420.500	-84.502	-0.367	0.146
-419.486	-10.910	0.215	0.180
-418.471	800.000	-0.033	0.137
-417.457	89.894	-0.197	-0.279
-416.442	-119.290	0.243	0.053
-415.428	634.878	0.076	0.246
-414.413	-94.599	-0.239	0.082
-413.398	-75.961	-0.605	-0.270
-412.384	-200.000	0.014	0.134
-411.369	-96.452	0.029	-0.010
-410.355	99.146	0.189	0.277
-409.340	-124.913	0.159	-0.031
-408.325	-200.000	0.038	-0.301
-407.311	-122.012	0.107	-0.022
-406.296	-134.056	-0.223	-0.035
-405.282	495.216	0.146	0.428
-404.267	-98.220	0.252	0.082
-403.252	-62.998	0.288	-0.150
-402.238	-90.765	-0.177	-0.064
-401.223	99.606	-0.192	0.282
-400.209	-93.826	-0.211	-0.073
-399.194	-41.315	0.245	-0.160
-398.179	-31.134	-0.345	0.246
-397.165	54.591	0.109	-0.133
-396.150	-130.949	-0.321	-0.054
-395.136	800.000	0.102	-0.430
-394.121	88.802	-0.185	0.261
-393.106	36.841	0.134	0.150
-392.092	-200.000	-0.105	-0.720
-391.077	-89.700	0.322	-0.119
-390.063	141.086	-0.047	0.078
-389.048	612.448	-0.128	-0.408
-388.033	-15.172	-0.110	-0.089
-387.019	800.000	-0.032	-0.151
-386.004	23.067	0.417	-0.433
-384.990	15.582	-0.237	-0.235
-383.975	238.926	0.087	0.183
-382.960	-200.000	-0.027	0.742
-381.946	-57.298	-0.239	-0.132
-380.931	-200.000	0.020	-0.112
-379.917	-124.151	0.230	0.045
-378.902	800.000	0.006	-0.024
-377.888	154.434	-0.304	0.530
-376.873	800.000	-0.174	-0.657
-375.858	0.479	0.123	0.111
-374.844	800.000	-0.012	0.044
-373.829	-139.811	-0.273	0.036
-372.815	345.914	-0.089	0.223
-371.800	-71.661	0.233	0.110
-370.785	-42.156	0.193	0.125
-369.771	128.361	0.080	-0.129
-368.756	800.000	-0.071	-0.394
-367.742	-67.945	-0.286	-0.141
-366.727	-200.000	0.086	0.507
-365.712	164.805	-0.163	-0.292
-364.698	455.099	-0.093	-0.263
-363.683	-108.247	0.298	0.081
-362.669	800.000	-0.088	-0.384
-361.654	-31.404	-0.280	0.199
-360.639	-41.531	0.319	-0.207
-359.625	94.395	0.379	-0.546
-358.610	-134.606	0.384	-0.059
-357.596	196.349	-0.058	0.112
-356.581	239.730	-0.087	0.184
-355.566	-148.601	-0.294	-0.030
-354.552	-79.820	-0.282	-0.120
-353.537	-124.749	0.269	-0.052
-352.523	-84.130	-0.203	-0.081
-351.508	-89.276	-0.058	-0.022
-350.493	-200.000	-0.035	0.204
-349.479	-26.208	-0.111	0.083
-348.464	51.770	-0.127	0.153
-347.450	78.700	0.280	0.379
-346.435	-200.000	0.012	-0.324
-345.420	289.699	-0.126	0.290
-344.406	-133.013	-0.460	0.073
-343.391	-200.000	0.057	0.330
-342.377	800.000	0.073	-0.310
-341.362	-172.263	0.154	0.006
-340.348	800.000	0.145	-0.746
-339.333	48.737	0.351	0.417
-338.318	-94.029	-0.509	-0.176
-337.304	-40.190	0.101	-0.066
-336.289	146.839	0.335	0.571
-335.275	-200.000	-0.035	0.283
-334.260	-200.000	0.042	-0.290
-333.245	-93.283	-0.183	-0.064
-332.231	-115.785	-0.560	-0.131
-331.216	-85.777	-0.347	0.135
-330.202	-32.412	-0.299	-0.210
-329.187	376.987	0.254	-0.658
-328.172	-75.517	0.489	0.219
-327.158	-40.347	-0.329	-0.216
-326.143	43.164	0.144	0.167
-325.129	-200.000	-0.099	0.573
-324.114	-200.000	0.008	0.288
-323.099	73.717	-0.183	0.243
-322.085	321.110	-0.100	0.241
-321.070	30.247	-0.085	-0.092
-320.056	800.000	-0.055	0.225
-319.041	-74.755	-0.394	-0.178
-318.026	800.000	0.041	-0.214
-317.012	234.120	0.177	0.369
-315.997	-116.317	0.381	-0.088
-314.983	3.295	-0.210	0.193
-313.968	-98.941	-0.381	-0.121
-312.953	190.991	-0.208	-0.396
-311.939	19.131	0.125	0.126
-310.924	-159.855	0.411	-0.028
-309.910	800.000	-0.053	-0.219
-308.895	-200.000	-0.013	-0.157
-307.880	799.892	-0.017	0.059
-306.866	-120.235	-0.553	-0.118
-305.851	-102.717	0.083	0.025
-304.837	800.000	0.068	-0.316
-303.822	20.332	0.418	0.426
-302.807	107.778	0.144	-0.217
-301.793	465.011	-0.155	0.440
-300.778	-91.636	-0.235	0.084
-299.764	-71.532	0.677	0.318
-298.749	77.825	0.141	0.190
-297.735	-174.850	-0.563	0.020
-296.720	-200.000	-0.005	-0.238
-295.705	-200.000	0.005	0.363
-294.691	-200.000	-0.068	-0.525
-293.676	-47.292	-0.095	0.058
-292.662	800.000	-0.149	-0.622
-291.647	-109.535	-0.357	0.094
-290.632	-200.000	-0.005	-0.289
-289.618	154.787	0.200	-0.348
-288.603	378.483	0.129	0.334
-287.589	-137.515	0.604	0.085
-286.574	-147.873	0.095	-0.010
-285.559	323.619	-0.133	0.320
-284.545	-71.801	0.143	-0.067
-283.530	95.259	0.256	-0.368
-282.516	-74.369	-0.338	0.153
-281.501	800.000	0.120	0.629
-280.486	-50.134	0.153	0.091
-279.472	-65.452	0.202	0.102
-278.457	-48.307	-0.368	0.223
-277.443	-176.890	-0.127	0.004
-276.428	251.121	0.303	-0.652
-275.413	-200.000	0.031	0.210
-274.399	-130.947	0.155	0.026
-273.384	-200.000	0.038	0.217
-272.370	-17.185	-0.227	0.181
-271.355	16.199	0.128	-0.127
-270.340	-200.000	0.025	0.252
-269.326	161.539	0.234	0.414
-268.311	-49.488	0.235	-0.141
-267.297	260.865	0.105	-0.230
-266.282	-122.433	-0.153	0.031
-265.267	-200.000	0.008	-0.456
-264.253	7.483	0.548	0.516
-263.238	-200.000	0.011	-0.273
-262.224	800.000	-0.035	-0.189
-261.209	-11.755	0.158	-0.131
-260.195	146.684	-0.305	-0.518
-259.180	-118.829	-0.481	-0.106
-258.165	340.272	0.082	-0.202
-257.151	-19.359	0.117	-0.091
-256.136	125.802	-0.203	-0.324
-255.122	-42.951	0.485	-0.309
-254.107	754.230	-0.065	-0.223
-253.092	-0.097	-0.069	-0.062
-252.078	-200.000	0.032	-0.233
-251.063	163.826	0.105	-0.188
-250.049	47.683	-0.142	-0.167
-249.034	800.000	-0.047	-0.239
-248.019	-116.836	0.294	-0.067
-247.005	437.427	0.034	0.093
-245.990	153.177	-0.133	0.230
-244.976	-125.270	0.282	0.054
-243.961	-39.906	-0.294	-0.193
-242.946	-200.000	0.073	0.527
-241.932	106.707	-0.213	-0.318
-240.917	-8.107	0.193	0.163
-239.903	-145.266	-0.350	0.039
-238.888	285.337	-0.168	0.384
-237.873	-55.518	-0.072	-0.040
-236.859	145.780	0.162	-0.274
-235.844	-94.595	-0.304	-0.104
-234.830	-39.964	-0.107	0.070
-233.815	-200.000	0.022	-0.256
-232.800	-82.558	-0.377	0.153
-231.786	15.222	0.216	0.213
-230.771	131.589	0.156	0.254
-229.757	82.077	-0.109	-0.149
-228.742	267.985	-0.095	0.209
-227.727	-51.802	-0.177	-0.104
-226.713	-55.418	-0.237	0.134
-225.698	19.408	-0.293	-0.296
-224.684	-130.488	-0.214	0.036
-223.669	59.573	-0.239	-0.297
-222.655	-123.796	0.201	0.040
-221.640	-93.030	-0.271	-0.094
-220.625	-18.546	-0.424	-0.332
-219.611	-200.000	0.025	-0.278
-218.596	-51.862	-0.276	-0.161
-217.582	-48.997	0.353	0.212
-216.567	23.092	-0.129	-0.133
-215.552	-200.000	0.002	-0.259
-214.538	-104.913	0.177	-0.051
-213.523	-81.191	0.225	-0.093
-212.509	-106.127	-0.130	-0.037
-211.494	-142.154	0.249	-0.031
-210.479	-44.724	-0.532	-0.333
-209.465	-146.125	-0.297	0.032
-208.450	-200.000	0.011	0.125
-207.436	-94.733	0.117	0.040
-206.421	246.995	-0.224	-0.477
-205.406	-135.181	0.366	0.055
-204.392	-169.147	-0.139	-0.006
-203.377	67.949	0.166	0.214
-202.363	191.852	0.388	-0.737
-201.348	58.819	0.153	0.189
-200.333	-139.041	0.517	-0.070
-199.319	501.289	0.113	0.330
-198.304	186.761	0.035	-0.067
-197.290	418.161	0.077	0.207
-196.275	-138.499	0.366	0.050
-195.260	129.609	0.203	0.327
-194.246	281.443	0.123	-0.279
-193.231	45.079	0.299	0.347
-192.217	99.950	0.199	-0.290
-191.202	-200.000	0.038	-0.332
-190.187	-200.000	0.053	0.305
-189.173	25.205	0.362	-0.378
-188.158	105.931	-0.088	-0.131
-187.144	800.000	0.096	-0.422
-186.129	-200.000	-0.006	-0.305
-185.114	-200.000	-0.010	0.305
-184.100	232.201	0.259	0.536
-183.085	128.479	-0.132	0.212
-182.071	8.029	0.245	0.231
-181.056	-84.985	0.153	0.060
-180.042	458.214	0.046	0.130
-179.027	-188.101	0.352	-0.006
-178.012	-18.359	0.478	-0.375
-176.998	270.175	-0.182	-0.404
-175.983	-200.000	0.015	-0.182
-174.969	-169.935	0.493	0.022
-173.954	-64.057	-0.439	-0.224
-172.939	-175.754	-0.270	0.009
-171.925	-200.000	0.007	0.299
-170.910	800.000	-0.043	0.188
-169.896	209.297	-0.160	0.316
-168.881	-184.726	0.131	-0.003
-167.866	26.125	-0.384	-0.403
-166.852	-9.636	0.283	-0.237
-165.837	-30.116	0.173	0.123
-164.823	-200.000	-0.016	0.162
-163.808	272.743	-0.055	0.123
-162.793	-200.000	-0.043	0.360
-161.779	-24.888	-0.306	0.227
-160.764	-80.439	0.220	-0.092
-159.750	-101.642	0.082	0.025
-158.735	-133.026	-0.060	0.009
-157.720	-131.551	-0.239	0.039
-156.706	-108.196	-0.195	0.053
-155.691	203.270	-0.235	0.457
-154.677	-200.000	0.006	-0.039
-153.662	-200.000	0.028	0.244
-152.647	-35.557	-0.106	-0.072
-151.633	-62.483	-0.168	-0.087
-150.618	171.897	0.046	-0.084
-149.604	-113.430	0.270	-0.066
-148.589	-162.384	-0.509	-0.031
-147.574	188.432	-0.142	-0.268
-146.560	-71.475	-0.490	0.229
-145.545	-120.250	0.336	-0.071
-144.531	79.351	0.120	-0.162
-143.516	-164.600	0.235	-0.013
-142.502	70.580	-0.124	0.160
-141.487	-200.000	0.026	-0.481
-140.472	-66.505	0.361	-0.179
-139.458	-101.001	0.386	0.118
-138.443	72.015	0.063	-0.082
-137.429	800.000	0.102	-0.424
-136.414	172.801	-0.148	0.268
-135.399	0.227	-0.085	-0.076
-134.385	-15.923	-0.169	0.134
-133.370	-182.976	0.182	0.004
-132.356	800.000	0.049	0.214
-131.341	58.812	-0.235	0.290
-130.326	-50.476	0.232	-0.137
-129.312	-109.500	0.123	-0.032
-128.297	200.346	-0.194	0.375
-127.283	-86.198	-0.326	-0.125
-126.268	59.027	0.163	0.201
-125.253	620.833	0.100	0.317
-124.239	171.486	0.134	0.242
-123.224	788.845	0.233	0.809
-122.210	-97.660	0.404	-0.131
-121.195	264.134	0.083	-0.183
