DTS Sentinel unit serial number:	SN409020Multiplexer serial number:	ORYXHardware model number:	OX4-SRSoftware version number:	ORYX F/W v3.00 Oryx Data Collector v3.7.2.0data status	okinstallation	HaddamTimeLapsedifferential loss correction	single-endedforward channel	channel 3reverse channel	N/Adate	2011/06/21time	19:46:17forward acquisition time	30.00reverse acquisition time	0.00gamma	498.7831k internal	0.1793k external	0.1793temperature offset calibration	1.0074default loss term (dB/km)	0.3790temperature slope calibration	1.3530multiplexer offset coefficient	1.0000multiplexer slope coefficient	1.0000fibre end	0.00T internal ref (°C)	33.25T ext. ref 1 (°C)	24.85T ext. ref 2 (°C)	0.23length (m)	temperature (°C)	Stokes	anti-Stokes-747.200	-61.284	-0.093	0.051
-746.185	-200.000	0.071	0.519
-745.171	-28.576	0.249	0.186
-744.156	-69.628	0.068	0.034
-743.142	-132.520	0.157	0.026
-742.127	254.890	0.123	0.275
-741.112	18.516	-0.158	-0.163
-740.098	235.955	-0.333	0.717
-739.083	-141.687	0.472	0.061
-738.069	528.808	0.182	0.559
-737.054	-72.983	-0.420	-0.199
-736.039	476.544	-0.163	-0.479
-735.025	-117.685	0.454	0.105
-734.010	-101.272	-0.235	0.074
-732.996	219.945	-0.164	-0.343
-731.981	-19.324	-0.035	0.028
-730.966	-104.030	0.204	0.061
-729.952	38.004	0.174	-0.201
-728.937	-55.077	-0.371	-0.216
-727.923	217.793	-0.088	-0.183
-726.908	-46.981	-0.038	0.024
-725.894	56.454	0.145	0.182
-724.879	212.126	0.106	-0.218
-723.864	-96.243	-0.332	0.113
-722.850	-200.000	-0.036	0.263
-721.835	585.143	0.120	0.385
-720.821	-153.115	0.716	-0.064
-719.806	229.562	-0.086	-0.183
-718.791	78.716	-0.220	-0.306
-717.777	-200.000	-0.060	0.432
-716.762	-109.130	0.194	0.053
-715.748	335.223	0.057	0.144
-714.733	564.268	0.034	-0.107
-713.718	136.278	0.173	-0.293
-712.704	-169.939	-0.454	0.021
-711.689	26.712	-0.227	0.246
-710.675	185.394	0.191	0.368
-709.660	-6.340	-0.202	0.179
-708.645	121.885	0.008	-0.013
-707.631	166.446	-0.115	0.211
-706.616	31.100	0.312	-0.347
-705.602	88.994	-0.144	0.208
-704.587	-137.555	-0.469	0.068
-703.572	-181.959	-0.366	0.009
-702.558	800.000	-0.130	-0.546
-701.543	-31.375	-0.493	0.359
-700.529	-51.949	0.213	-0.128
-699.514	2.999	0.147	0.138
-698.499	-153.806	0.917	0.080
-697.485	-106.036	-0.193	0.056
-696.470	76.585	0.368	-0.506
-695.456	-122.257	-0.344	-0.072
-694.441	-200.000	0.021	0.361
-693.426	-100.316	-0.378	-0.121
-692.412	1.586	0.350	-0.326
-691.397	252.762	0.260	-0.576
-690.383	-68.784	-0.388	-0.194
-689.368	-13.353	0.351	0.295
-688.354	-150.613	-0.082	0.008
-687.339	-85.162	0.353	0.142
-686.324	188.040	0.188	0.364
-685.310	350.194	-0.114	0.293
-684.295	-102.147	-0.579	-0.179
-683.281	-190.929	0.327	-0.004
-682.266	412.005	-0.094	-0.260
-681.251	-134.682	-0.196	0.031
-680.237	90.490	-0.076	-0.111
-679.222	90.716	-0.057	-0.082
-678.208	-53.774	0.352	-0.207
-677.193	-200.000	-0.003	0.345
-676.178	40.446	-0.175	0.204
-675.164	539.863	-0.121	-0.374
-674.149	-124.652	0.269	-0.053
-673.135	800.000	0.053	-0.208
-672.120	554.160	-0.105	-0.328
-671.105	-148.491	0.091	0.009
-670.091	59.938	-0.329	-0.421
-669.076	-77.753	0.563	-0.251
-668.062	6.718	0.432	-0.416
-667.047	-17.797	0.220	-0.178
-666.032	-75.602	0.407	0.186
-665.018	-153.917	0.199	-0.017
-664.003	-82.075	-0.386	-0.162
-662.989	78.697	-0.103	0.143
-661.974	-98.593	-0.384	-0.126
-660.959	9.786	-0.532	-0.521
-659.945	-39.509	0.159	0.108
-658.930	423.472	-0.040	-0.111
-657.916	-200.000	-0.017	0.472
-656.901	498.046	0.069	0.208
-655.886	-200.000	0.009	-0.067
-654.872	-148.451	-0.090	-0.009
-653.857	800.000	-0.050	-0.278
-652.843	800.000	0.061	0.338
-651.828	-135.553	-0.084	-0.013
-650.814	-73.668	-0.141	-0.066
-649.799	800.000	0.111	-0.474
-648.784	12.222	0.341	-0.339
-647.770	240.331	0.039	-0.084
-646.755	-200.000	-0.015	0.193
-645.741	-52.530	0.253	0.150
-644.726	-146.732	0.217	-0.024
-643.711	728.580	0.130	0.451
-642.697	176.985	0.132	-0.249
-641.682	-176.021	-0.199	0.007
-640.668	9.438	0.114	-0.111
-639.653	-122.252	-0.396	0.083
-638.638	-156.141	-0.527	-0.042
-637.624	-91.762	0.131	0.048
-636.609	-149.889	-0.232	-0.023
-635.595	-200.000	0.046	0.307
-634.580	-61.906	0.061	0.033
-633.565	-59.629	0.332	-0.184
-632.551	-12.067	0.277	0.234
-631.536	226.612	-0.141	0.297
-630.522	-132.807	-0.316	0.052
-629.507	-200.000	-0.004	0.245
-628.492	800.000	0.049	-0.222
-627.478	-128.525	0.347	0.063
-626.463	136.689	-0.100	0.170
-625.449	-18.193	-0.231	-0.186
-624.434	131.075	-0.176	-0.292
-623.419	179.587	0.253	-0.479
-622.405	30.126	0.072	-0.079
-621.390	-5.938	-0.364	-0.321
-620.376	129.529	0.148	-0.245
-619.361	-144.234	0.291	0.035
-618.346	-107.032	-0.237	-0.067
-617.332	-65.217	-0.481	-0.249
-616.317	-80.124	0.446	0.192
-615.303	412.491	-0.134	0.370
-614.288	35.583	-0.298	0.338
-613.273	-200.000	0.000	-0.075
-612.259	42.964	-0.028	-0.033
-611.244	308.083	0.110	-0.267
-610.230	-200.000	0.044	0.265
-609.215	-86.162	-0.501	-0.198
-608.201	493.547	-0.042	-0.125
-607.186	190.083	0.152	0.295
-606.171	249.195	0.068	0.148
-605.157	-200.000	0.011	0.210
-604.142	136.715	0.239	-0.404
-603.128	-126.116	-0.495	-0.095
-602.113	326.060	-0.111	-0.275
-601.098	-25.694	-0.288	-0.219
-600.084	-40.110	-0.450	-0.301
-599.069	769.498	-0.183	-0.647
-598.055	581.245	0.075	-0.238
-597.040	129.008	-0.077	0.127
-596.025	10.669	-0.234	0.230
-595.011	221.113	0.079	-0.164
-593.996	800.000	0.066	-0.318
-592.982	-20.001	-0.406	0.323
-591.967	-138.246	-0.343	-0.048
-590.952	-200.000	0.067	0.565
-589.938	122.491	0.057	0.093
-588.923	-44.856	-0.201	0.129
-587.909	-79.913	-0.396	0.171
-586.894	89.332	-0.121	0.174
-585.879	79.608	0.224	-0.311
-584.865	249.820	0.054	-0.119
-583.850	-34.049	-0.579	-0.410
-582.836	-200.000	-0.067	-0.524
-581.821	-200.000	-0.050	-0.499
-580.806	-36.582	-0.205	-0.142
-579.792	48.044	-0.103	0.124
-578.777	-200.000	0.052	0.521
-577.763	431.284	0.114	0.320
-576.748	-94.653	-0.314	-0.109
-575.733	-149.140	-0.325	-0.033
-574.719	-200.000	0.013	0.188
-573.704	301.933	0.185	0.443
-572.690	158.723	0.088	-0.158
-571.675	24.541	-0.271	-0.289
-570.661	-85.985	0.409	-0.162
-569.646	513.200	-0.080	-0.242
-568.631	-137.672	0.404	0.058
-567.617	296.387	0.051	-0.121
-566.602	-79.222	0.197	-0.086
-565.588	-32.771	-0.152	0.108
-564.573	711.169	-0.209	0.716
-563.558	-26.902	-0.174	0.131
-562.544	-137.665	0.366	-0.052
-561.529	3.497	0.242	-0.227
-560.515	-109.987	0.594	-0.159
-559.500	176.149	0.197	-0.369
-558.485	57.182	0.179	-0.225
-557.471	341.161	0.024	0.061
-556.456	118.900	0.317	0.506
-555.442	104.751	0.112	-0.170
-554.427	192.447	0.179	0.348
-553.412	154.881	0.127	-0.225
-552.398	-29.509	-0.148	-0.108
-551.383	-37.319	0.036	0.025
-550.369	51.962	-0.384	-0.471
-549.354	-2.569	-0.200	-0.181
-548.339	-200.000	-0.012	0.373
-547.325	-121.235	0.491	-0.105
-546.310	-24.181	0.105	0.081
-545.296	350.835	0.113	0.289
-544.281	-65.580	-0.308	-0.158
-543.266	-177.560	0.510	-0.016
-542.252	-69.246	-0.463	-0.228
-541.237	-200.000	0.012	0.325
-540.223	-69.198	-0.187	0.092
-539.208	-60.046	-0.202	0.111
-538.193	-119.103	0.209	0.047
-537.179	-74.369	0.231	0.107
-536.164	62.460	0.166	-0.214
-535.150	800.000	0.070	-0.379
-534.135	36.697	-0.044	-0.050
-533.121	-153.520	0.270	-0.024
-532.106	642.947	0.076	-0.249
-531.091	-200.000	-0.029	0.555
-530.077	296.766	0.238	0.563
-529.062	-138.171	-0.409	0.058
-528.048	67.838	-0.073	-0.097
-527.033	-85.860	0.378	0.150
-526.018	-30.935	0.333	-0.242
-525.004	-200.000	-0.031	-0.216
-523.989	-200.000	0.025	-0.718
-522.975	297.350	0.084	-0.198
-521.960	228.389	0.063	-0.133
-520.945	-200.000	-0.004	-0.079
-519.931	800.000	-0.032	-0.145
-518.916	556.382	-0.104	0.325
-517.902	157.269	-0.107	-0.191
-516.887	-141.420	-0.311	0.040
-515.872	103.293	0.168	-0.253
-514.858	-145.079	0.750	-0.087
-513.843	106.017	0.045	-0.069
-512.829	-121.216	-0.079	-0.017
-511.814	-61.430	0.560	-0.302
-510.799	510.904	-0.125	-0.376
-509.785	-172.229	0.399	-0.016
-508.770	-200.000	-0.014	0.213
-507.756	-53.937	0.504	-0.295
-506.741	-200.000	0.000	-0.127
-505.726	8.840	0.049	0.048
-504.712	-200.000	0.022	0.231
-503.697	-27.976	0.099	0.074
-502.683	686.979	0.076	-0.255
-501.668	-148.388	-0.473	0.049
-500.653	-183.842	-0.237	0.005
-499.639	32.898	0.194	-0.216
-498.624	-64.039	0.140	-0.073
-497.610	-200.000	0.070	-0.430
-496.595	-186.773	-0.713	-0.013
-495.581	-37.302	0.350	-0.240
-494.566	-118.841	-0.352	0.079
-493.551	-63.471	-0.345	-0.182
-492.537	-200.000	0.027	0.617
-491.522	-60.244	0.101	-0.055
-490.508	-22.048	0.257	-0.201
-489.493	-153.220	-0.599	-0.053
-488.478	50.342	0.292	-0.355
-487.464	17.216	0.215	0.219
-486.449	201.283	-0.153	-0.304
-485.435	-200.000	-0.352	0.001
-484.420	-155.296	0.429	0.035
-483.405	438.708	0.071	0.201
-482.391	-70.508	0.168	-0.081
-481.376	-40.784	0.306	0.203
-480.362	21.745	-0.243	0.254
-479.347	14.261	0.089	-0.089
-478.332	128.260	0.150	-0.245
-477.318	-109.918	0.379	0.101
-476.303	568.101	-0.077	-0.242
-475.289	-177.359	0.579	-0.018
-474.274	253.933	0.239	-0.526
-473.259	794.010	-0.145	-0.515
-472.245	-83.495	-0.384	0.157
-471.230	-101.727	-0.364	-0.112
-470.216	-80.566	-0.321	0.137
-469.201	-78.991	0.428	-0.186
-468.186	-73.875	0.385	-0.179
-467.172	32.078	0.360	-0.398
-466.157	163.757	-0.117	0.211
-465.143	-152.576	0.408	-0.037
-464.128	-128.732	0.326	0.058
-463.113	-57.528	-0.258	-0.145
-462.099	-45.708	0.123	0.078
-461.084	636.749	0.019	0.062
-460.070	174.323	-0.070	0.131
-459.055	-200.000	0.031	0.348
-458.040	302.399	-0.115	0.275
-457.026	-117.362	-0.239	-0.055
-456.011	800.000	0.020	0.089
-454.997	22.768	0.451	-0.474
-453.982	83.176	-0.276	-0.386
-452.968	576.269	-0.017	-0.052
-451.953	-162.029	0.182	-0.012
-450.938	-58.589	-0.147	0.081
-449.924	771.161	-0.067	0.236
-448.909	800.000	0.010	-0.045
-447.895	-51.801	-0.328	-0.196
-446.880	-2.745	0.161	-0.144
-445.865	-76.590	0.732	0.328
-444.851	-133.299	-0.142	-0.023
-443.836	81.901	-0.108	0.150
-442.822	-197.675	-0.143	0.001
-441.807	-102.784	0.153	0.047
-440.792	-38.291	0.195	0.132
-439.778	-75.423	0.357	-0.162
-438.763	-81.237	-0.218	-0.092
-437.749	-14.965	-0.174	0.143
-436.734	90.711	-0.212	-0.305
-435.719	-100.975	0.040	0.012
-434.705	-149.286	0.172	-0.017
-433.690	-124.171	-0.283	-0.056
-432.676	16.810	0.259	-0.263
-431.661	-6.221	0.554	-0.484
-430.646	43.400	-0.177	-0.207
-429.632	-200.000	0.005	0.099
-428.617	-161.250	-0.269	-0.018
-427.603	9.833	-0.181	-0.175
-426.588	490.955	-0.098	-0.289
-425.573	-170.702	0.464	0.020
-424.559	-89.315	0.279	0.105
-423.544	-130.129	0.067	0.012
-422.530	-200.000	-0.034	-0.285
-421.515	134.953	-0.315	0.526
-420.500	-104.287	-0.300	-0.089
-419.486	-50.881	0.230	-0.138
-418.471	104.457	-0.079	-0.119
-417.457	332.114	0.099	0.246
-416.442	-11.028	0.302	-0.255
-415.428	800.000	0.049	-0.223
-414.413	-35.809	-0.437	-0.303
-413.398	800.000	-0.115	0.611
-412.384	-200.000	0.006	0.338
-411.369	-169.007	0.071	-0.003
-410.355	-137.680	-0.619	0.088
-409.340	-52.485	0.334	0.197
-408.325	-149.555	0.323	-0.032
-407.311	35.220	0.380	-0.427
-406.296	86.680	0.146	0.206
-405.282	-86.567	0.350	0.137
-404.267	307.077	-0.204	-0.489
-403.252	-200.000	-0.024	0.258
-402.238	-107.962	0.415	0.115
-401.223	19.503	-0.025	0.026
-400.209	89.618	-0.120	0.171
-399.194	-200.000	0.001	0.214
-398.179	-200.000	0.016	0.181
-397.165	255.209	0.098	0.216
-396.150	800.000	-0.065	0.295
-395.136	-58.093	-0.145	0.081
-394.121	-69.120	-0.104	0.051
-393.106	-81.940	-0.424	-0.176
-392.092	109.114	0.047	0.072
-391.077	127.228	0.092	-0.150
-390.063	-59.910	-0.383	-0.209
-389.048	20.600	0.354	0.367
-388.033	751.092	0.084	0.292
-387.019	164.389	-0.183	0.331
-386.004	-61.903	-0.226	0.120
-384.990	800.000	-0.137	0.496
-383.975	-200.000	-0.019	0.206
-382.960	-200.000	-0.026	0.349
-381.946	-200.000	-0.013	0.331
-380.931	800.000	-0.036	0.201
-379.917	-127.903	-0.474	0.086
-378.902	-188.393	-0.467	0.007
-377.888	-51.052	0.121	-0.073
-376.873	-200.000	0.025	0.194
-375.858	800.000	-0.066	0.256
-374.844	-200.000	-0.024	-0.296
-373.829	-117.588	0.177	0.040
-372.815	-191.501	-0.162	-0.002
-371.800	-72.869	-0.429	0.201
-370.785	-124.037	-0.227	0.045
-369.771	800.000	0.038	-0.188
-368.756	-33.644	0.290	0.204
-367.742	-200.000	0.004	0.104
-366.727	37.745	0.280	0.318
-365.712	-111.354	-0.209	-0.054
-364.698	-104.386	-0.150	-0.044
-363.683	-116.793	-0.548	0.127
-362.669	423.934	0.152	0.421
-361.654	-200.000	-0.056	0.549
-360.639	40.731	0.185	-0.213
-359.625	25.707	0.175	0.187
-358.610	-82.851	-0.237	0.097
-357.596	56.475	0.156	-0.194
-356.581	-38.808	-0.221	0.149
-355.566	504.983	-0.077	-0.230
-354.552	-40.645	-0.169	0.112
-353.537	102.062	0.316	0.473
-352.523	65.555	-0.219	0.284
-351.508	-200.000	0.039	0.371
-350.493	-122.344	-0.268	-0.055
-349.479	-78.478	-0.204	-0.089
-348.464	-200.000	0.030	-0.332
-347.450	35.376	0.557	0.625
-346.435	-116.860	0.480	-0.111
-345.420	-112.805	-0.065	0.016
-344.406	69.766	0.118	0.156
-343.391	-137.616	-0.314	0.045
-342.377	-133.144	0.221	-0.035
-341.362	-15.619	0.132	0.107
-340.348	-200.000	0.035	0.399
-339.333	800.000	0.102	0.494
-338.318	173.093	0.097	-0.180
-337.304	-65.686	0.098	-0.050
-336.289	118.400	-0.092	-0.146
-335.275	129.309	0.184	0.301
-334.260	-28.853	0.257	0.188
-333.245	298.196	-0.081	0.190
-332.231	68.974	0.268	-0.352
-331.216	-64.735	-0.334	0.172
-330.202	-41.730	-0.128	-0.084
-329.187	-200.000	0.015	-0.229
-328.172	-5.672	0.322	0.282
-327.158	203.567	-0.146	0.290
-326.143	620.275	0.092	-0.298
-325.129	418.345	0.134	0.369
-324.114	-53.239	-0.212	-0.124
-323.099	-40.835	-0.123	0.081
-322.085	-184.945	-0.130	0.003
-321.070	-124.805	-0.202	0.039
-320.056	486.876	-0.100	-0.294
-319.041	-42.167	-0.142	-0.092
-318.026	-200.000	-0.023	0.156
-317.012	800.000	0.032	-0.135
-315.997	-74.556	-0.265	-0.121
-314.983	800.000	-0.057	0.234
-313.968	-137.498	-0.182	-0.026
-312.953	-149.617	-0.408	-0.041
-311.939	263.098	0.075	-0.168
-310.924	-58.050	0.516	-0.286
-309.910	-120.793	-0.131	-0.028
-308.895	-135.513	0.045	-0.007
-307.880	-36.296	-0.545	-0.374
-306.866	177.404	-0.074	0.138
-305.851	670.400	-0.104	-0.344
-304.837	800.000	0.043	-0.159
-303.822	160.306	-0.032	0.058
-302.807	559.834	-0.186	-0.575
-301.793	224.791	-0.090	0.187
-300.778	-133.365	0.274	-0.044
-299.764	-200.000	-0.005	-0.620
-298.749	2.510	-0.204	-0.188
-297.735	465.930	0.077	0.221
-296.720	-200.000	0.019	-0.491
-295.705	-200.000	-0.042	-0.421
-294.691	130.205	0.095	0.156
-293.676	414.113	-0.084	0.228
-292.662	-122.746	-0.142	0.029
-291.647	-165.315	0.159	-0.009
-290.632	-87.730	0.219	-0.084
-289.618	695.575	-0.084	0.282
-288.603	115.601	0.142	0.222
-287.589	-109.644	0.252	0.067
-286.574	-94.029	-0.125	-0.044
-285.559	36.413	0.210	0.236
-284.545	107.556	-0.128	0.194
-283.530	-200.000	-0.097	0.713
-282.516	355.812	-0.084	0.214
-281.501	-40.460	-0.430	0.284
-280.486	69.640	-0.294	-0.386
-279.472	25.072	-0.070	-0.074
-278.457	-200.000	0.028	-0.435
-277.443	-136.995	0.706	0.102
-276.428	-130.348	-0.197	0.034
-275.413	402.152	-0.091	-0.246
-274.399	113.518	-0.019	-0.030
-273.384	-185.196	-0.148	-0.003
-272.370	-32.869	0.308	-0.218
-271.355	76.124	-0.205	-0.277
-270.340	51.298	0.263	-0.318
-269.326	40.529	0.197	-0.226
-268.311	-200.000	-0.000	-0.119
-267.297	-113.689	-0.200	0.049
-266.282	-41.063	-0.533	-0.350
-265.267	-104.657	0.692	-0.202
-264.253	283.407	0.125	0.286
-263.238	-124.291	-0.733	0.145
-262.224	-45.681	-0.402	-0.253
-261.209	-200.000	0.039	-0.279
-260.195	215.041	0.260	-0.527
-259.180	-78.391	-0.159	-0.069
-258.165	204.434	-0.077	0.153
-257.151	-115.734	-0.169	-0.040
-256.136	800.000	-0.110	0.429
-255.122	-45.593	-0.242	0.152
-254.107	-77.579	-0.252	-0.111
-253.092	800.000	-0.022	-0.118
-252.078	-85.694	0.422	0.166
-251.063	13.920	0.180	0.178
-250.049	-41.406	-0.022	0.014
-249.034	-9.451	-0.430	-0.365
-248.019	-121.878	0.581	0.121
-247.005	35.574	-0.307	0.343
-245.990	235.976	-0.217	0.458
-244.976	63.956	0.121	0.155
-243.961	-200.000	0.034	-0.283
-242.946	-37.366	0.619	0.419
-241.932	111.123	0.163	0.251
-240.917	-40.991	-0.274	0.180
-239.903	-114.808	-0.320	-0.077
-238.888	800.000	-0.086	0.484
-237.873	-200.000	-0.016	0.107
-236.859	400.523	-0.120	0.321
-235.844	-36.641	0.190	0.130
-234.830	68.242	-0.304	0.397
-233.815	-200.000	-0.048	0.541
-232.800	-172.070	-0.702	-0.028
-231.786	-147.440	-0.408	-0.043
-230.771	22.261	0.259	0.269
-229.757	-200.000	0.025	-0.212
-228.742	98.867	0.186	-0.274
-227.727	22.893	0.228	0.238
-226.713	-29.268	0.548	0.398
-225.698	225.145	0.126	0.259
-224.684	336.734	0.193	-0.479
-223.669	33.359	0.378	-0.417
-222.655	7.721	0.279	0.265
-221.640	-107.796	0.462	0.127
-220.625	-22.776	0.325	-0.249
-219.611	229.710	0.007	0.015
-218.596	124.321	-0.176	0.283
-217.582	-126.274	-0.548	0.103
-216.567	585.971	-0.100	0.315
-215.552	-200.000	0.045	0.269
-214.538	151.064	0.224	-0.389
-213.523	61.601	-0.381	0.483
-212.509	-11.426	0.154	0.129
-211.494	69.581	0.117	-0.153
-210.479	172.793	0.168	-0.309
-209.465	-111.683	0.233	0.060
-208.450	-25.236	0.254	0.191
-207.436	800.000	0.028	-0.098
-206.421	-109.403	0.322	0.086
-205.406	599.331	0.051	0.162
-204.392	188.767	0.224	-0.427
-203.377	-120.391	0.370	-0.079
-202.363	251.834	-0.130	0.283
-201.348	307.845	0.021	-0.049
-200.333	431.210	0.126	0.349
-199.319	530.016	-0.115	0.346
-198.304	-116.220	-0.406	-0.095
-197.290	293.143	-0.206	0.480
-196.275	-3.356	0.179	-0.158
-195.260	20.393	0.086	0.088
-194.246	-97.327	-0.663	-0.218
-193.231	24.498	0.182	0.191
-192.217	-200.000	-0.012	0.164
-191.202	112.925	-0.078	-0.121
-190.187	89.475	0.200	-0.284
-189.173	186.856	-0.182	0.345
-188.158	-82.524	-0.181	-0.074
-187.144	94.004	0.082	0.119
-186.129	800.000	-0.121	-0.533
-185.114	178.478	-0.144	0.269
-184.100	-78.189	0.311	-0.135
-183.085	31.794	-0.387	0.423
-182.071	-200.000	-0.078	0.512
-181.056	8.445	-0.247	-0.236
-180.042	-200.000	0.015	-0.490
-179.027	287.397	0.078	-0.179
-178.012	-70.890	0.111	-0.053
-176.998	-162.275	0.453	0.028
-175.983	134.224	-0.180	-0.297
-174.969	-200.000	0.005	-0.156
-173.954	800.000	-0.097	0.347
-172.939	-33.268	-0.250	0.176
-171.925	40.807	0.021	-0.024
-170.910	800.000	-0.110	0.411
-169.896	-52.102	-0.366	0.215
-168.881	800.000	-0.058	0.279
-167.866	259.183	-0.109	-0.239
-166.852	171.660	0.096	0.176
-165.837	-164.789	0.049	0.003
-164.823	737.086	0.104	-0.356
-163.808	-48.089	0.187	-0.115
-162.793	-55.566	-0.053	-0.030
-161.779	-117.173	-0.452	-0.103
-160.764	-200.000	-0.038	-0.580
-159.750	-51.213	0.139	-0.082
-158.735	-69.648	0.427	-0.206
-157.720	-95.928	-0.021	-0.007
-156.706	800.000	0.050	-0.277
-155.691	-14.467	-0.339	0.277
-154.677	-51.074	-0.330	-0.196
-153.662	-29.996	0.631	-0.454
-152.647	-164.253	0.119	-0.007
-151.633	2.158	-0.183	-0.167
-150.618	-118.311	0.194	-0.043
-149.604	-200.000	0.107	-0.640
-148.589	5.414	0.173	0.162
-147.574	44.198	-0.327	-0.380
-146.560	-200.000	-0.079	-0.464
-145.545	49.461	0.093	0.110
-144.531	-131.162	-0.499	0.083
-143.516	-8.414	0.049	-0.042
-142.502	229.020	0.193	-0.401
-141.487	-116.096	0.307	-0.072
-140.472	-44.548	0.403	-0.254
-139.458	-109.677	0.325	-0.086
-138.443	731.819	0.030	0.104
-137.429	87.477	0.120	0.169
-136.414	-128.040	-0.160	0.029
-135.399	2.226	-0.310	-0.284
-134.385	-135.342	-0.126	0.019
-133.370	-124.992	-0.161	-0.031
-132.356	45.894	0.365	-0.428
-131.341	378.338	-0.019	0.049
-130.326	-32.862	0.123	-0.087
-129.312	747.210	-0.149	0.510
-128.297	800.000	0.084	-0.315
-127.283	-110.008	0.071	-0.019
-126.268	-150.731	0.053	-0.005
-125.253	-33.644	0.050	0.035
-124.239	-155.599	0.204	-0.016
-123.224	-71.556	-0.315	-0.149
-122.210	235.801	-0.214	-0.449
