DTS Sentinel unit serial number:	SN409020Multiplexer serial number:	ORYXHardware model number:	OX4-SRSoftware version number:	ORYX F/W v3.00 Oryx Data Collector v3.7.2.0data status	okinstallation	HaddamTimeLapsedifferential loss correction	single-endedforward channel	channel 3reverse channel	N/Adate	2011/06/22time	05:51:17forward acquisition time	30.00reverse acquisition time	0.00gamma	498.7831k internal	0.1751k external	0.1751temperature offset calibration	1.0074default loss term (dB/km)	0.3790temperature slope calibration	1.3530multiplexer offset coefficient	1.0000multiplexer slope coefficient	1.0000fibre end	0.00T internal ref (°C)	22.56T ext. ref 1 (°C)	17.95T ext. ref 2 (°C)	0.16length (m)	temperature (°C)	Stokes	anti-Stokes-747.200	-89.560	-0.074	-0.029
-746.185	261.347	-0.042	0.097
-745.171	-68.463	0.249	-0.128
-744.156	-87.206	-0.312	0.125
-743.142	-17.897	0.219	-0.182
-742.127	-146.898	0.743	0.084
-741.112	44.117	0.158	-0.193
-740.098	-59.784	0.224	0.127
-739.083	-103.466	-0.416	-0.129
-738.069	109.129	-0.076	-0.121
-737.054	-103.160	-0.321	-0.100
-736.039	-115.970	-0.345	0.085
-735.025	800.000	0.085	0.378
-734.010	-42.885	0.330	0.222
-732.996	800.000	-0.045	0.248
-731.981	29.264	0.173	-0.195
-730.966	-86.733	-0.129	0.052
-729.952	-43.855	-0.065	0.043
-728.937	-138.952	0.382	0.054
-727.923	800.000	-0.030	0.166
-726.908	198.904	-0.229	-0.467
-725.894	-31.153	-0.398	-0.297
-724.879	-200.000	-0.018	-0.322
-723.864	-12.886	-0.265	0.229
-722.850	-90.256	0.264	0.101
-721.835	800.000	-0.070	0.302
-720.821	800.000	-0.054	-0.224
-719.806	-1.825	-0.373	-0.348
-718.791	800.000	-0.032	-0.165
-717.777	432.304	0.104	-0.300
-716.762	-172.987	-0.611	-0.025
-715.748	99.437	0.130	-0.199
-714.733	-200.000	-0.051	0.526
-713.718	-79.260	0.211	-0.094
-712.704	7.302	-0.425	-0.421
-711.689	-200.000	-0.011	-0.855
-710.675	51.488	0.044	0.055
-709.660	-136.872	-0.430	-0.065
-708.645	-78.834	-0.242	0.109
-707.631	13.605	-0.097	0.099
-706.616	-200.000	0.023	-0.441
-705.602	425.037	0.137	-0.394
-704.587	209.961	-0.042	0.088
-703.572	-50.511	0.126	-0.078
-702.558	26.759	-0.146	-0.162
-701.543	-78.393	-0.220	-0.100
-700.529	-200.000	-0.030	-0.265
-699.514	-200.000	0.049	0.469
-698.499	-200.000	-0.008	-0.702
-697.485	-200.000	-0.008	-0.200
-696.470	31.810	0.181	-0.207
-695.456	-185.453	-0.614	-0.012
-694.441	-154.292	-0.191	-0.017
-693.426	-200.000	-0.012	0.309
-692.412	800.000	0.093	0.404
-691.397	-114.911	0.454	0.114
-690.383	-55.154	-0.119	0.071
-689.368	-135.049	-0.289	0.046
-688.354	-200.000	-0.002	-0.222
-687.339	-62.487	-0.541	-0.297
-686.324	-32.366	-0.266	-0.196
-685.310	-42.706	0.209	-0.140
-684.295	-200.000	0.022	-0.154
-683.281	-24.557	-0.117	-0.092
-682.266	230.714	0.166	-0.362
-681.251	-8.607	0.223	0.198
-680.237	-116.904	-0.134	0.032
-679.222	-43.335	0.234	-0.156
-678.208	66.593	0.076	0.103
-677.193	54.530	0.339	-0.433
-676.178	-200.000	0.071	-0.531
-675.164	117.182	0.274	-0.447
-674.149	449.078	0.175	0.513
-673.135	800.000	0.061	-0.253
-672.120	160.683	-0.025	-0.046
-671.105	-148.326	0.210	-0.023
-670.091	-87.552	0.133	0.053
-669.076	-40.334	0.285	0.196
-668.062	-97.039	0.569	-0.196
-667.047	-101.679	-0.182	-0.058
-666.032	174.868	-0.200	0.384
-665.018	38.070	0.061	0.072
-664.003	162.617	-0.041	-0.076
-662.989	-140.147	-0.242	0.033
-661.974	-200.000	0.032	-0.213
-660.959	470.223	0.076	0.228
-659.945	800.000	-0.023	0.121
-658.930	-79.712	-0.283	-0.126
-657.916	146.361	0.223	0.398
-656.901	-20.385	0.556	0.452
-655.886	-200.000	0.064	0.629
-654.872	-79.491	-0.150	-0.067
-653.857	800.000	0.101	-0.380
-652.843	-166.142	-0.444	0.025
-651.828	-43.067	0.145	-0.097
-650.814	-51.888	-0.107	0.066
-649.799	166.701	0.116	0.218
-648.784	50.605	0.113	0.141
-647.770	-200.000	-0.045	-0.292
-646.755	-108.359	0.181	0.051
-645.741	120.268	-0.299	0.491
-644.726	-136.330	0.829	0.127
-643.711	295.639	0.283	0.688
-642.697	206.568	-0.188	-0.388
-641.682	-3.534	-0.211	-0.194
-640.668	416.111	0.139	-0.395
-639.653	522.086	-0.057	-0.177
-638.638	159.462	-0.073	0.135
-637.624	-47.798	-0.157	-0.100
-636.609	606.135	-0.092	-0.306
-635.595	44.527	0.294	-0.358
-634.580	50.391	-0.265	-0.331
-633.565	-105.508	-0.344	-0.103
-632.551	-137.410	-0.610	-0.090
-631.536	27.866	0.179	-0.200
-630.522	-118.161	0.400	-0.094
-629.507	800.000	-0.104	-0.476
-628.492	-200.000	-0.009	-0.221
-627.478	-59.396	0.274	-0.155
-626.463	-200.000	-0.022	0.155
-625.449	-38.206	0.204	-0.143
-624.434	-35.515	0.189	-0.136
-623.419	-18.637	-0.345	0.284
-622.405	-90.707	-0.285	0.108
-621.390	182.187	-0.070	-0.136
-620.376	-77.001	0.205	-0.094
-619.361	223.350	-0.064	0.138
-618.346	-12.856	0.088	0.076
-617.332	45.968	0.402	0.492
-616.317	-81.154	0.301	0.131
-615.303	-200.000	0.010	-0.219
-614.288	174.360	0.180	-0.346
-613.273	-200.000	-0.019	0.486
-612.259	18.871	0.292	0.309
-611.244	-117.037	-0.221	0.053
-610.230	362.511	-0.076	0.203
-609.215	-200.000	-0.030	-0.184
-608.201	-106.175	-0.354	0.104
-607.186	132.057	0.254	0.433
-606.171	-127.315	0.228	0.043
-605.157	-82.750	-0.195	0.083
-604.142	50.845	0.202	-0.253
-603.128	-164.728	-0.417	-0.024
-602.113	-109.154	0.241	-0.067
-601.098	-200.000	0.038	-0.220
-600.084	12.683	0.205	0.209
-599.069	-87.280	-0.274	0.109
-598.055	62.448	0.139	0.183
-597.040	-200.000	0.026	0.251
-596.025	54.817	-0.157	-0.201
-595.011	-78.680	-0.273	-0.122
-593.996	-73.118	-0.481	0.232
-592.982	-83.203	-0.294	0.124
-591.967	536.246	0.086	0.271
-590.952	-79.302	0.473	0.210
-589.938	-147.394	-0.234	-0.026
-588.923	330.952	-0.156	-0.400
-587.909	-42.651	-0.527	-0.353
-586.894	800.000	0.148	-0.636
-585.879	639.046	-0.173	-0.584
-584.865	21.214	0.121	0.130
-583.850	-13.719	-0.174	0.149
-582.836	-61.018	0.126	-0.070
-581.821	800.000	-0.073	-0.288
-580.806	-200.000	-0.055	-0.485
-579.792	158.824	-0.048	-0.087
-578.777	100.179	-0.179	0.274
-577.763	-50.478	0.455	-0.283
-576.748	-200.000	-0.003	-0.431
-575.733	-103.400	-0.233	-0.072
-574.719	-45.669	-0.196	0.128
-573.704	-131.420	0.388	0.067
-572.690	-15.417	0.293	0.246
-571.675	-43.311	0.440	0.293
-570.661	-102.006	0.253	0.080
-569.646	-148.936	0.547	-0.057
-568.631	-16.866	0.065	0.054
-567.617	540.380	-0.038	-0.120
-566.602	379.191	0.010	-0.027
-565.588	800.000	0.077	0.356
-564.573	800.000	0.066	0.378
-563.558	-44.019	0.313	0.207
-562.544	-23.602	0.141	-0.112
-561.529	188.947	-0.080	0.159
-560.515	348.449	0.022	-0.057
-559.500	-136.893	0.270	0.041
-558.485	92.617	-0.283	0.422
-557.471	-169.299	-0.582	-0.028
-556.456	26.809	-0.018	0.020
-555.442	241.991	-0.212	-0.469
-554.427	85.460	0.508	-0.737
-553.412	-114.695	0.333	-0.083
-552.398	199.462	0.189	-0.384
-551.383	-49.673	-0.127	-0.079
-550.369	-187.357	-0.204	0.004
-549.354	81.140	0.308	-0.438
-548.339	-94.983	0.412	0.146
-547.325	-200.000	-0.052	0.393
-546.310	720.869	-0.110	-0.389
-545.296	13.019	0.093	-0.095
-544.281	-45.260	-0.390	-0.255
-543.266	800.000	0.056	-0.225
-542.252	-2.954	0.227	0.209
-541.237	127.933	0.147	-0.248
-540.223	66.855	-0.138	-0.185
-539.208	218.206	-0.171	-0.361
-538.193	191.229	0.107	0.212
-537.179	-118.736	0.335	-0.077
-536.164	-50.142	-0.408	-0.254
-535.150	-200.000	0.048	-0.328
-534.135	-84.327	0.253	-0.105
-533.121	-200.000	0.016	-0.396
-532.106	-77.994	-0.194	-0.088
-531.091	107.220	0.078	0.122
-530.077	424.884	-0.080	-0.229
-529.062	-200.000	0.019	0.348
-528.048	162.354	-0.194	0.359
-527.033	-143.656	0.261	0.032
-526.018	63.256	-0.207	0.273
-525.004	354.661	-0.051	0.134
-523.989	137.902	0.239	-0.413
-522.975	-200.000	0.023	0.295
-521.960	-77.459	-0.567	0.258
-520.945	-144.188	0.371	0.045
-519.931	800.000	0.160	0.775
-518.916	-43.829	-0.152	-0.101
-517.902	-189.388	-0.452	-0.007
-516.887	-93.400	-0.282	0.102
-515.872	29.455	-0.169	0.190
-514.858	93.150	-0.237	0.353
-513.843	647.145	0.068	0.228
-512.829	305.363	0.147	0.360
-511.814	143.335	0.053	-0.093
-510.799	356.200	-0.248	0.653
-509.785	162.475	0.090	0.166
-508.770	38.656	0.156	0.183
-507.756	-43.700	-0.237	0.157
-506.741	-200.000	0.036	0.467
-505.726	-27.688	-0.149	0.113
-504.712	-67.055	-0.146	-0.075
-503.697	-200.000	0.348	-0.002
-502.683	-200.000	-0.056	-0.339
-501.668	-200.000	0.042	-0.664
-500.653	-130.855	0.256	-0.045
-499.639	798.200	-0.025	0.091
-498.624	8.657	-0.283	0.280
-497.610	-200.000	0.048	-0.552
-496.595	800.000	0.126	0.675
-495.581	-14.250	-0.186	-0.158
-494.566	21.552	0.101	-0.108
-493.551	-106.389	-0.318	0.093
-492.537	50.048	-0.294	0.365
-491.522	-82.418	0.102	0.043
-490.508	513.531	-0.170	0.525
-489.493	-200.000	-0.005	-0.135
-488.478	-124.490	0.261	0.053
-487.464	35.389	0.215	-0.248
-486.449	-135.638	-0.141	0.022
-485.435	-106.340	-0.666	-0.195
-484.420	-200.000	0.044	-0.279
-483.405	682.798	0.086	-0.295
-482.391	800.000	-0.136	-0.738
-481.376	-35.456	-0.142	0.101
-480.362	-176.733	-0.271	0.009
-479.347	-30.699	-0.366	-0.271
-478.332	-200.000	0.091	-0.595
-477.318	-153.481	-0.125	-0.011
-476.303	-70.664	0.475	-0.235
-475.289	800.000	-0.096	-0.408
-474.274	-18.015	0.158	-0.130
-473.259	-200.000	0.010	-0.319
-472.245	-133.635	0.354	-0.058
-471.230	-119.245	0.250	-0.057
-470.216	-153.366	0.285	0.026
-469.201	800.000	0.042	0.207
-468.186	-70.945	0.476	0.234
-467.172	-178.009	0.196	0.006
-466.157	52.353	0.294	-0.369
-465.143	-87.723	-0.327	0.129
-464.128	-200.000	-0.002	-0.067
-463.113	-87.980	-0.243	0.095
-462.099	-147.813	-0.357	-0.039
-461.084	-85.627	-0.168	-0.068
-460.070	-141.690	-0.131	0.017
-459.055	-200.000	-0.004	-0.373
-458.040	-81.195	0.104	-0.045
-457.026	-97.451	-0.502	-0.171
-456.011	-99.681	-0.442	0.145
-454.997	-27.454	0.171	-0.130
-453.982	800.000	-0.094	-0.388
-452.968	106.302	0.191	-0.298
-451.953	598.721	0.118	0.386
-450.938	625.971	0.144	0.480
-449.924	612.099	-0.009	-0.029
-448.909	-41.651	-0.326	-0.220
-447.895	-200.000	-0.028	-0.229
-446.880	-200.000	0.007	0.078
-445.865	535.978	0.067	-0.209
-444.851	25.558	0.233	-0.255
-443.836	6.528	-0.137	-0.134
-442.822	86.106	0.143	-0.207
-441.807	15.644	0.258	0.266
-440.792	-101.211	0.510	-0.162
-439.778	-59.889	0.547	-0.306
-438.763	-133.354	0.399	-0.065
-437.749	509.162	-0.049	0.150
-436.734	-6.010	0.304	0.273
-435.719	679.050	-0.035	0.120
-434.705	233.172	-0.156	0.337
-433.690	-102.982	0.221	0.068
-432.676	-169.381	0.405	0.019
-431.661	-2.148	-0.021	-0.019
-430.646	-200.000	0.009	0.347
-429.632	-78.242	-0.405	-0.182
-428.617	194.195	-0.049	-0.098
-427.603	34.344	-0.126	0.145
-426.588	-99.538	0.463	-0.152
-425.573	-113.014	-0.110	0.028
-424.559	-135.793	-0.451	-0.069
-423.544	-97.618	-0.263	-0.089
-422.530	655.107	0.063	-0.212
-421.515	-34.243	-0.227	-0.163
-420.500	-200.000	-0.020	0.126
-419.486	594.717	0.125	-0.407
-418.471	-48.979	-0.432	-0.270
-417.457	107.542	-0.209	0.327
-416.442	-146.153	-0.128	-0.015
-415.428	621.551	-0.048	0.161
-414.413	520.089	0.108	-0.334
-413.398	-147.851	-0.103	-0.011
-412.384	-134.499	-0.340	-0.054
-411.369	-200.000	0.378	0.002
-410.355	673.872	-0.003	-0.011
-409.340	-29.879	-0.259	0.193
-408.325	97.796	-0.291	-0.439
-407.311	430.232	0.190	-0.541
-406.296	-50.166	-0.234	-0.145
-405.282	5.518	-0.385	0.372
-404.267	-32.917	0.545	-0.396
-403.252	145.115	-0.163	-0.286
-402.238	-171.542	-0.326	0.014
-401.223	-84.060	-0.435	-0.180
-400.209	-38.571	0.548	0.378
-399.194	-171.321	-0.839	0.036
-398.179	800.000	0.063	-0.279
-397.165	800.000	-0.083	-0.340
-396.150	-115.622	0.444	0.108
-395.136	-87.352	-0.411	0.162
-394.121	137.515	-0.074	0.127
-393.106	-63.072	0.436	0.235
-392.092	-77.285	0.037	-0.017
-391.077	-200.000	0.050	-0.470
-390.063	-107.451	0.206	0.059
-389.048	800.000	-0.021	0.101
-388.033	-163.443	-0.168	0.010
-387.019	-147.873	-0.412	0.044
-386.004	95.133	-0.087	-0.130
-384.990	-33.546	-0.267	-0.193
-383.975	106.273	-0.133	-0.206
-382.960	800.000	-0.109	0.403
-381.946	-87.569	0.419	0.165
-380.931	236.113	0.252	-0.548
-379.917	16.730	-0.257	-0.266
-378.902	-85.934	0.179	-0.072
-377.888	-161.766	0.377	-0.025
-376.873	-200.000	-0.032	-0.201
-375.858	240.694	0.265	0.582
-374.844	146.616	0.061	0.108
-373.829	-127.145	0.118	0.022
-372.815	121.676	0.024	0.039
-371.800	10.039	-0.069	0.069
-370.785	-61.848	-0.411	-0.224
-369.771	59.781	0.112	-0.144
-368.756	-89.484	-0.509	-0.195
-367.742	-89.411	0.149	-0.057
-366.727	-63.116	0.088	-0.047
-365.712	-1.499	0.210	-0.194
-364.698	28.182	0.258	0.285
-363.683	235.238	-0.233	-0.505
-362.669	140.581	0.051	-0.088
-361.654	-52.610	-0.075	0.045
-360.639	-150.662	0.246	-0.024
-359.625	-184.810	0.520	-0.011
-358.610	-53.978	0.197	-0.117
-357.596	141.072	0.072	0.125
-356.581	-200.000	-0.041	-0.311
-355.566	-90.476	0.190	-0.072
-354.552	-200.000	-0.004	0.232
-353.537	164.819	-0.080	0.148
-352.523	58.491	-0.189	0.243
-351.508	91.635	-0.377	-0.555
-350.493	-107.037	-0.293	-0.084
-349.479	398.006	-0.112	-0.308
-348.464	-94.756	0.112	-0.039
-347.450	83.937	-0.065	-0.093
-346.435	-3.438	0.191	-0.174
-345.420	-108.493	-0.373	-0.104
-344.406	23.364	-0.190	-0.204
-343.391	-200.000	-0.040	0.516
-342.377	289.408	-0.048	0.114
-341.362	-90.718	-0.619	0.232
-340.348	-122.189	-0.322	0.068
-339.333	41.766	-0.197	-0.233
-338.318	-71.795	-0.189	-0.092
-337.304	177.827	-0.115	-0.219
-336.289	-200.000	-0.009	-0.070
-335.275	-172.113	-0.538	0.022
-334.260	-66.783	0.457	0.235
-333.245	87.939	0.464	-0.674
-332.231	-45.100	0.427	-0.277
-331.216	-187.906	-0.262	-0.004
-330.202	-83.870	-0.270	0.112
-329.187	-200.000	-0.029	0.336
-328.172	-200.000	-0.042	0.292
-327.158	-6.174	-0.154	0.137
-326.143	-36.509	-0.254	0.178
-325.129	70.426	0.211	-0.286
-324.114	-200.000	0.014	0.102
-323.099	-60.112	0.174	-0.097
-322.085	-1.085	0.304	-0.281
-321.070	-12.969	0.196	0.167
-320.056	-44.157	0.283	-0.185
-319.041	-200.000	0.032	0.187
-318.026	-200.000	0.005	-0.033
-317.012	800.000	-0.038	-0.162
-315.997	-200.000	-0.009	0.199
-314.983	152.572	-0.015	0.027
-313.968	-75.202	0.399	-0.185
-312.953	0.662	0.164	0.153
-311.939	-133.143	-0.420	0.069
-310.924	-106.078	0.286	-0.083
-309.910	-30.326	0.221	-0.164
-308.895	-200.000	0.018	-0.130
-307.880	-193.089	-0.494	0.006
-306.866	-27.126	-0.126	0.096
-305.851	19.591	0.191	0.201
-304.837	-129.671	-0.259	-0.046
-303.822	-96.583	0.649	-0.222
-302.807	-200.000	-0.041	0.687
-301.793	184.204	-0.223	0.433
-300.778	-18.629	0.295	0.240
-299.764	-113.660	-0.253	0.064
-298.749	186.286	0.158	-0.309
-297.735	-111.654	-0.550	0.145
-296.720	506.558	-0.205	0.622
-295.705	426.800	-0.318	0.898
-294.691	-87.324	-0.169	-0.067
-293.676	-4.376	0.234	0.211
-292.662	-200.000	0.038	-0.296
-291.647	-44.314	0.100	-0.065
-290.632	-63.794	0.260	0.139
-289.618	-108.999	0.368	0.102
-288.603	-125.126	0.053	-0.010
-287.589	-31.398	-0.110	-0.081
-286.574	-148.888	0.170	-0.018
-285.559	220.486	0.175	0.367
-284.545	-67.797	-0.110	-0.056
-283.530	-21.871	0.164	0.130
-282.516	-200.000	-0.016	0.095
-281.501	-92.968	-0.705	-0.255
-280.486	-37.034	-0.362	0.252
-279.472	800.000	0.206	0.764
-278.457	273.058	-0.180	0.416
-277.443	417.714	0.134	0.376
-276.428	175.787	-0.024	-0.045
-275.413	-133.628	-0.075	-0.012
-274.399	315.127	0.184	0.455
-273.384	62.878	-0.176	-0.230
-272.370	296.570	-0.074	-0.179
-271.355	68.992	-0.113	0.152
-270.340	607.491	0.013	-0.044
-269.326	196.404	-0.501	-0.998
-268.311	-162.922	0.128	0.008
-267.297	-46.465	-0.467	-0.298
-266.282	163.142	-0.111	-0.203
-265.267	-76.803	0.411	0.187
-264.253	800.000	0.046	0.232
-263.238	-82.206	0.241	-0.102
-262.224	45.739	0.195	0.236
-261.209	73.512	0.184	-0.252
-260.195	-200.000	-0.007	0.269
-259.180	-132.687	0.128	-0.021
-258.165	61.456	0.169	0.219
-257.151	-147.267	-0.341	-0.037
-256.136	16.436	0.165	0.170
-255.122	286.170	-0.183	0.432
-254.107	-23.252	-0.238	-0.186
-253.092	800.000	-0.073	-0.376
-252.078	59.027	-0.140	0.179
-251.063	-78.383	0.073	-0.033
-250.049	-4.692	0.152	0.137
-249.034	-200.000	0.013	0.243
-248.019	-200.000	-0.069	0.441
-247.005	27.750	0.040	-0.044
-245.990	-200.000	-0.023	0.291
-244.976	800.000	0.063	-0.359
-243.961	800.000	-0.032	-0.160
-242.946	-103.058	0.040	-0.012
-241.932	22.314	0.280	0.298
-240.917	-105.025	0.274	-0.081
-239.903	-144.256	-0.341	0.041
-238.888	-163.602	-0.310	0.019
-237.873	-109.019	0.545	-0.150
-236.859	470.878	-0.173	0.508
-235.844	-112.573	-0.033	0.008
-234.830	-110.392	-0.439	0.118
-233.815	-200.000	-0.051	0.480
-232.800	-116.662	-0.410	0.097
-231.786	184.174	0.150	0.290
-230.771	-58.806	-0.351	0.197
-229.757	78.832	-0.171	-0.239
-228.742	-82.853	0.220	-0.092
-227.727	95.199	0.321	0.477
-226.713	-48.980	-0.189	0.118
-225.698	185.555	0.087	0.168
-224.684	73.081	0.047	-0.064
-223.669	-99.959	0.273	0.088
-222.655	-57.263	0.056	0.032
-221.640	-103.221	-0.756	-0.231
-220.625	-90.881	-0.290	0.108
-219.611	-200.000	0.034	0.379
-218.596	210.718	-0.121	0.247
-217.582	92.489	0.042	0.062
-216.567	800.000	-0.010	0.048
-215.552	-123.988	0.459	0.093
-214.538	-99.279	-0.653	0.213
-213.523	188.346	0.127	0.249
-212.509	-62.467	0.238	0.128
-211.494	-152.774	-0.508	0.046
-210.479	525.767	-0.099	0.306
-209.465	-82.073	0.177	0.075
-208.450	17.615	0.111	-0.114
-207.436	-80.480	-0.223	0.096
-206.421	75.890	0.088	0.122
-205.406	-31.115	-0.254	-0.186
-204.392	-200.000	-0.017	0.501
-203.377	-74.258	0.118	-0.055
-202.363	-200.000	-0.032	-0.208
-201.348	-164.739	0.447	0.026
-200.333	-200.000	-0.004	0.338
-199.319	32.874	0.117	-0.132
-198.304	57.000	0.154	-0.195
-197.290	800.000	0.097	0.547
-196.275	-5.082	0.268	0.240
-195.260	-125.686	-0.205	0.040
-194.246	-108.999	0.587	-0.161
-193.231	31.146	0.320	-0.356
-192.217	321.585	0.070	0.174
-191.202	31.873	0.500	-0.560
-190.187	282.688	-0.226	-0.529
-189.173	11.873	0.110	0.110
-188.158	672.497	-0.096	-0.325
-187.144	219.141	-0.146	-0.304
-186.129	-200.000	-0.008	0.265
-185.114	-95.941	0.279	0.096
-184.100	-27.973	0.114	-0.085
-183.085	-80.860	-0.307	0.132
-182.071	18.187	0.230	-0.239
-181.056	-122.682	0.650	-0.136
-180.042	8.226	-0.393	-0.383
-179.027	80.076	-0.129	0.180
-178.012	-200.000	0.025	0.421
-176.998	-200.000	0.006	0.529
-175.983	-117.428	0.200	-0.047
-174.969	-117.644	-0.151	-0.035
-173.954	34.931	0.285	-0.324
-172.939	-200.000	-0.064	-0.433
-171.925	-95.986	-0.522	0.179
-170.910	-200.000	0.049	0.295
-169.896	-52.349	0.307	0.184
-168.881	198.304	-0.290	0.578
-167.866	261.986	0.116	-0.262
-166.852	-173.590	-0.381	0.015
-165.837	-74.439	-0.200	-0.093
-164.823	-120.825	0.645	0.140
-163.808	-102.533	0.081	0.025
-162.793	30.583	-0.245	0.272
-161.779	-59.713	0.472	-0.262
-160.764	4.119	-0.389	-0.369
-159.750	21.196	0.371	0.391
-158.735	-200.000	0.052	0.419
-157.720	-27.206	0.493	0.372
-156.706	-122.538	0.563	-0.118
-155.691	-30.942	-0.088	0.064
-154.677	43.260	-0.299	-0.355
-153.662	-133.365	0.401	-0.065
-152.647	688.552	0.089	-0.305
-151.633	41.948	-0.313	0.369
-150.618	-47.393	0.069	0.044
-149.604	-84.941	0.494	0.200
-148.589	549.644	0.108	-0.339
-147.574	76.646	0.091	0.126
-146.560	288.037	0.030	-0.071
-145.545	-163.855	-0.554	-0.033
-144.531	13.813	-0.291	0.294
-143.516	-181.424	-0.423	0.011
-142.502	-163.884	-0.746	-0.045
-141.487	-36.461	-0.338	-0.236
-140.472	85.486	0.434	-0.619
-139.458	-47.184	-0.094	-0.059
-138.443	63.891	-0.264	0.345
-137.429	-18.361	-0.125	-0.101
-136.414	-114.185	0.263	0.065
-135.399	247.011	0.145	0.318
-134.385	-162.050	-0.211	0.014
-133.370	800.000	-0.028	-0.111
-132.356	-183.669	-0.209	0.005
-131.341	62.945	0.141	-0.183
-130.326	-70.075	-0.355	0.175
-129.312	290.116	-0.054	-0.128
-128.297	-108.246	0.571	0.159
-127.283	107.382	0.027	0.042
-126.268	-12.844	-0.142	-0.120
-125.253	-174.937	-0.586	-0.021
-124.239	-184.618	0.100	-0.002
-123.224	800.000	0.057	-0.237
-122.210	-163.589	0.141	0.008
