DTS Sentinel unit serial number:	SN409020Multiplexer serial number:	ORYXHardware model number:	OX4-SRSoftware version number:	ORYX F/W v3.00 Oryx Data Collector v3.7.2.0data status	okinstallation	HaddamTimeLapsedifferential loss correction	single-endedforward channel	channel 3reverse channel	N/Adate	2011/06/21time	19:26:17forward acquisition time	30.00reverse acquisition time	0.00gamma	498.7831k internal	0.1797k external	0.1797temperature offset calibration	1.0074default loss term (dB/km)	0.3790temperature slope calibration	1.3530multiplexer offset coefficient	1.0000multiplexer slope coefficient	1.0000fibre end	0.00T internal ref (°C)	33.94T ext. ref 1 (°C)	26.34T ext. ref 2 (°C)	0.23length (m)	temperature (°C)	Stokes	anti-Stokes-747.200	-153.022	-0.230	-0.021
-746.185	-4.359	-0.357	0.319
-745.171	-88.393	-0.281	0.108
-744.156	178.013	0.315	0.596
-743.142	800.000	-0.050	0.235
-742.127	117.502	-0.081	0.130
-741.112	48.008	-0.410	-0.496
-740.098	-60.606	0.407	-0.223
-739.083	-200.000	-0.035	-0.573
-738.069	800.000	-0.038	0.201
-737.054	285.679	-0.178	0.417
-736.039	222.525	-0.091	-0.190
-735.025	-177.647	-0.357	-0.011
-734.010	-54.828	0.354	-0.206
-732.996	133.386	-0.405	0.680
-731.981	800.000	-0.170	-0.693
-730.966	800.000	0.053	0.218
-729.952	-74.051	0.553	0.258
-728.937	-132.967	-0.256	0.042
-727.923	-200.000	-0.082	-0.705
-726.908	-200.000	-0.049	-0.484
-725.894	-200.000	-0.026	0.510
-724.879	-110.575	0.471	0.125
-723.864	-200.000	0.020	-0.397
-722.850	-29.394	0.313	-0.231
-721.835	88.847	-0.412	-0.594
-720.821	234.849	0.156	-0.335
-719.806	-5.516	-0.353	-0.313
-718.791	21.605	0.425	-0.447
-717.777	-48.834	0.712	-0.440
-716.762	125.930	0.151	-0.248
-715.748	-42.119	-0.160	0.105
-714.733	25.167	0.139	0.150
-713.718	63.740	-0.269	-0.350
-712.704	107.948	-0.225	0.348
-711.689	-75.617	0.244	0.112
-710.675	-116.283	0.208	0.049
-709.660	-118.612	0.456	-0.103
-708.645	-90.271	-0.364	-0.136
-707.631	800.000	0.006	0.027
-706.616	-8.554	-0.226	0.196
-705.602	261.482	-0.236	-0.530
-704.587	165.088	0.047	0.086
-703.572	4.023	0.231	0.218
-702.558	4.826	-0.281	-0.267
-701.543	308.876	0.122	-0.295
-700.529	-96.993	-0.162	-0.055
-699.514	800.000	0.120	0.516
-698.499	562.110	-0.024	0.076
-697.485	-40.540	0.196	-0.131
-696.470	-200.000	0.028	-0.375
-695.456	239.100	0.075	-0.161
-694.441	-69.189	0.466	0.230
-693.426	28.696	0.439	-0.481
-692.412	410.327	-0.165	-0.454
-691.397	43.654	-0.436	-0.515
-690.383	-16.843	-0.476	-0.388
-689.368	800.000	0.088	-0.349
-688.354	-38.739	0.269	-0.183
-687.339	-63.386	-0.591	0.313
-686.324	-200.000	0.031	0.577
-685.310	384.155	-0.117	0.313
-684.295	-183.250	-0.327	0.007
-683.281	-52.899	-0.560	-0.332
-682.266	-6.274	0.135	-0.119
-681.251	-164.442	0.351	-0.020
-680.237	800.000	-0.042	-0.153
-679.222	-200.000	0.016	-0.170
-678.208	-146.134	-0.214	0.024
-677.193	-40.535	-0.463	-0.310
-676.178	-4.902	0.238	0.212
-675.164	-111.740	0.213	0.055
-674.149	-200.000	0.009	0.386
-673.135	119.050	0.192	-0.307
-672.120	-38.869	0.095	0.064
-671.105	214.893	-0.091	-0.186
-670.091	-98.728	-0.256	-0.084
-669.076	-33.664	-0.115	-0.082
-668.062	-141.776	-0.181	-0.023
-667.047	-58.982	0.265	0.147
-666.032	201.910	0.043	-0.086
-665.018	-89.453	-0.755	0.285
-664.003	-32.107	0.138	0.100
-662.989	-75.597	0.217	-0.099
-661.974	33.023	0.522	0.584
-660.959	24.808	0.403	0.431
-659.945	-103.241	-0.173	-0.053
-658.930	-200.000	-0.347	0.001
-657.916	9.961	-0.189	0.185
-656.901	-24.285	0.112	0.086
-655.886	800.000	0.141	-0.607
-654.872	41.171	-0.345	-0.402
-653.857	-51.979	0.068	-0.041
-652.843	-19.394	0.212	0.169
-651.828	-23.148	0.101	0.078
-650.814	312.582	-0.110	0.267
-649.799	65.939	-0.040	-0.053
-648.784	-130.267	0.247	-0.043
-647.770	-68.885	-0.423	-0.210
-646.755	-160.175	-0.257	-0.018
-645.741	-165.814	-0.082	0.004
-644.726	-87.520	-0.265	-0.103
-643.711	-195.828	-0.259	0.002
-642.697	-20.560	-0.069	0.054
-641.682	800.000	0.045	-0.168
-640.668	23.370	0.186	0.197
-639.653	88.215	-0.368	0.528
-638.638	234.815	-0.119	-0.254
-637.624	8.594	0.043	0.042
-636.609	-95.079	-0.412	0.143
-635.595	490.237	0.053	0.158
-634.580	-59.562	0.378	0.208
-633.565	212.793	-0.085	0.173
-632.551	-63.683	-0.271	-0.143
-631.536	114.986	-0.030	-0.047
-630.522	-85.619	0.383	-0.153
-629.507	-31.494	0.182	-0.132
-628.492	104.838	-0.090	-0.136
-627.478	151.064	-0.085	-0.149
-626.463	-144.491	0.368	-0.043
-625.449	-91.114	0.457	0.168
-624.434	216.322	-0.256	0.526
-623.419	161.852	0.251	0.453
-622.405	-12.859	0.457	0.383
-621.390	575.571	0.082	0.259
-620.376	-44.878	-0.028	0.018
-619.361	27.700	-0.154	0.167
-618.346	-162.409	-0.508	0.032
-617.332	-124.185	-0.076	-0.015
-616.317	24.364	0.256	-0.272
-615.303	189.470	0.096	-0.186
-614.288	94.370	0.197	-0.288
-613.273	-62.875	-0.134	0.071
-612.259	600.990	0.093	0.300
-611.244	-12.181	0.139	0.117
-610.230	-10.050	-0.155	0.132
-609.215	385.795	0.115	0.307
-608.201	18.425	-0.200	0.206
-607.186	-61.521	-0.047	0.025
-606.171	-39.570	-0.352	0.237
-605.157	35.081	-0.207	-0.233
-604.142	-164.721	-0.437	-0.025
-603.128	-200.000	0.004	0.072
-602.113	-121.961	0.416	-0.087
-601.098	800.000	-0.065	0.339
-600.084	-70.714	0.560	-0.271
-599.069	93.416	0.061	-0.088
-598.055	-10.818	0.123	-0.105
-597.040	46.675	-0.243	-0.291
-596.025	128.416	-0.530	0.871
-595.011	-31.765	0.314	0.226
-593.996	-200.000	0.013	0.254
-592.982	273.004	0.088	0.202
-591.967	-96.343	-0.255	0.086
-590.952	-37.178	-0.126	0.087
-589.938	-2.280	-0.163	-0.147
-588.923	-70.154	-0.273	-0.133
-587.909	-13.275	-0.222	-0.185
-586.894	474.675	-0.109	0.317
-585.879	-200.000	0.043	0.252
-584.865	-117.393	-0.233	0.054
-583.850	-200.000	-0.039	0.564
-582.836	246.489	-0.206	-0.449
-581.821	90.168	-0.166	0.240
-580.806	151.410	-0.289	0.508
-579.792	800.000	-0.073	-0.277
-578.777	-102.972	0.302	0.091
-577.763	-63.277	-0.083	0.044
-576.748	-22.485	-0.238	-0.185
-575.733	800.000	0.091	0.333
-574.719	-24.039	0.456	-0.350
-573.704	368.317	0.040	0.105
-572.690	-146.708	0.154	0.017
-571.675	-149.196	0.336	0.034
-570.661	683.658	-0.107	-0.362
-569.646	128.796	0.132	-0.217
-568.631	-141.878	-0.347	0.044
-567.617	-64.422	-0.048	0.025
-566.602	-107.923	-0.302	-0.084
-565.588	-164.550	-0.574	0.033
-564.573	-86.449	0.238	0.093
-563.558	295.843	0.139	-0.328
-562.544	-200.000	0.020	-0.622
-561.529	660.099	0.058	0.193
-560.515	153.098	-0.059	-0.104
-559.500	-117.662	-0.235	0.054
-558.485	-200.000	0.017	-0.614
-557.471	-50.818	0.330	0.199
-556.456	162.976	-0.095	-0.173
-555.442	117.318	0.111	-0.175
-554.427	-57.759	-0.361	-0.202
-553.412	-35.756	0.324	0.225
-552.398	-63.118	-0.520	0.275
-551.383	-200.000	-0.001	0.017
-550.369	800.000	-0.097	-0.443
-549.354	160.887	-0.066	0.118
-548.339	-21.002	0.219	-0.172
-547.325	-57.732	0.249	0.139
-546.310	-154.902	0.262	-0.022
-545.296	-119.031	-0.147	0.033
-544.281	-154.348	0.716	-0.061
-543.266	-125.007	0.379	-0.074
-542.252	110.465	0.159	-0.246
-541.237	-133.473	-0.103	0.016
-540.223	377.746	0.124	0.328
-539.208	-200.000	-0.049	0.868
-538.193	-40.884	0.214	0.142
-537.179	-51.179	-0.320	-0.192
-536.164	-105.240	-0.246	-0.071
-535.150	-200.000	0.017	-0.270
-534.135	-85.830	0.492	-0.195
-533.121	-200.000	0.034	0.346
-532.106	-101.686	-0.194	0.060
-531.091	-200.000	0.024	-0.263
-530.077	4.342	-0.061	-0.057
-529.062	25.951	-0.175	0.187
-528.048	800.000	0.087	-0.344
-527.033	377.736	0.036	-0.096
-526.018	8.935	0.199	0.193
-525.004	157.090	0.143	0.255
-523.989	-51.489	-0.198	-0.118
-522.975	120.659	0.182	0.291
-521.960	-200.000	-0.055	-0.377
-520.945	1.515	-0.260	-0.240
-519.931	-44.066	0.265	-0.170
-518.916	-61.753	0.281	-0.151
-517.902	-186.735	-0.530	-0.009
-516.887	115.254	0.150	-0.236
-515.872	800.000	-0.043	0.163
-514.858	-200.000	0.080	-0.544
-513.843	-200.000	0.043	-0.445
-512.829	-112.163	0.455	0.116
-511.814	-115.583	0.271	0.065
-510.799	57.753	0.084	0.105
-509.785	-89.921	0.156	-0.058
-508.770	2.367	-0.306	-0.284
-507.756	396.624	-0.282	-0.758
-506.741	800.000	-0.034	-0.137
-505.726	26.441	0.208	0.223
-504.712	358.770	-0.060	0.155
-503.697	-64.723	0.430	0.223
-502.683	-10.053	0.332	-0.282
-501.668	272.043	0.126	-0.285
-500.653	-145.289	-0.305	0.035
-499.639	74.161	0.228	0.307
-498.624	96.938	-0.164	0.242
-497.610	-27.162	0.201	0.150
-496.595	765.597	-0.056	0.198
-495.581	-144.025	-0.218	-0.026
-494.566	-200.000	0.013	0.282
-493.551	247.362	0.114	0.247
-492.537	241.724	0.079	0.170
-491.522	-117.018	0.234	0.054
-490.508	-197.896	0.361	0.003
-489.493	-98.770	-0.185	0.060
-488.478	-195.741	0.264	0.002
-487.464	-200.000	-0.003	0.212
-486.449	291.966	-0.120	0.281
-485.435	-200.000	0.095	0.561
-484.420	-200.000	-0.042	0.468
-483.405	50.437	-0.206	0.249
-482.391	-25.741	0.069	0.052
-481.376	571.600	-0.078	-0.243
-480.362	57.909	0.165	-0.207
-479.347	-1.484	0.220	0.198
-478.332	371.316	-0.012	-0.032
-477.318	-80.200	-0.108	0.046
-476.303	139.344	-0.118	-0.199
-475.289	-200.000	-0.204	0.001
-474.274	-200.000	0.007	-0.211
-473.259	-16.102	-0.231	0.188
-472.245	-164.459	0.368	-0.021
-471.230	154.415	0.138	-0.244
-470.216	740.244	0.131	0.452
-469.201	31.259	0.631	0.694
-468.186	584.200	0.107	0.338
-467.172	-75.024	0.237	-0.108
-466.157	-159.270	0.306	-0.022
-465.143	9.797	0.360	0.349
-464.128	125.118	0.167	-0.271
-463.113	-19.815	-0.323	0.255
-462.099	42.468	0.119	0.139
-461.084	-71.475	0.270	-0.129
-460.070	8.340	-0.199	-0.191
-459.055	-102.430	0.320	0.098
-458.040	-74.472	0.212	0.098
-457.026	-127.953	-0.438	0.080
-456.011	-3.671	0.319	-0.283
-454.997	590.190	-0.033	0.105
-453.982	-92.452	0.334	-0.120
-452.968	380.010	0.130	0.344
-451.953	65.591	0.102	-0.133
-450.938	-200.000	-0.004	-0.254
-449.924	-98.484	0.109	0.035
-448.909	150.184	0.223	0.388
-447.895	30.234	-0.493	0.538
-446.880	-112.107	-0.141	0.036
-445.865	59.188	0.153	0.193
-444.851	-200.000	-0.023	-0.643
-443.836	10.052	-0.377	-0.366
-442.822	408.565	0.134	-0.363
-441.807	-51.292	-0.207	0.123
-440.792	-107.376	-0.262	0.073
-439.778	800.000	0.073	-0.355
-438.763	-12.113	0.207	-0.173
-437.749	800.000	0.055	0.246
-436.734	605.608	0.054	-0.173
-435.719	-85.337	-0.330	-0.131
-434.705	800.000	-0.062	0.318
-433.690	3.853	0.240	-0.224
-432.676	28.856	-0.140	0.152
-431.661	177.417	-0.109	0.203
-430.646	-32.018	0.153	-0.110
-429.632	59.702	0.102	0.128
-428.617	-67.755	-0.159	-0.079
-427.603	71.419	0.208	0.276
-426.588	-86.946	0.449	0.174
-425.573	-136.529	0.029	0.004
-424.559	43.339	-0.075	-0.088
-423.544	-200.000	-0.007	-0.386
-422.530	65.996	-0.223	-0.290
-421.515	-143.165	-0.362	-0.044
-420.500	-65.822	-0.786	-0.400
-419.486	-34.586	0.243	-0.170
-418.471	-75.741	-0.189	-0.085
-417.457	33.445	-0.303	-0.337
-416.442	-127.991	-0.238	0.043
-415.428	-20.692	0.293	-0.229
-414.413	91.595	0.145	-0.209
-413.398	-139.669	-0.753	0.101
-412.384	286.400	-0.162	-0.374
-411.369	-3.675	0.294	-0.261
-410.355	-12.093	-0.069	-0.058
-409.340	-58.203	0.406	-0.225
-408.325	661.848	0.110	-0.364
-407.311	-68.091	-0.489	-0.242
-406.296	-80.558	-0.399	-0.169
-405.282	-200.000	0.005	0.046
-404.267	-123.402	0.207	0.042
-403.252	-200.000	-0.054	-0.443
-402.238	-53.948	0.439	-0.255
-401.223	592.546	-0.038	0.122
-400.209	268.152	-0.170	-0.381
-399.194	84.055	-0.185	-0.258
-398.179	611.192	-0.076	0.243
-397.165	-97.800	0.702	0.230
-396.150	-13.619	-0.056	0.046
-395.136	-100.539	-0.057	0.018
-394.121	-200.000	-0.028	0.726
-393.106	800.000	-0.069	0.383
-392.092	-14.638	-0.333	0.273
-391.077	-76.348	-0.280	-0.125
-390.063	57.281	0.125	0.156
-389.048	118.699	-0.291	-0.459
-388.033	42.542	-0.253	-0.294
-387.019	-99.049	0.378	-0.121
-386.004	-200.000	-0.025	0.294
-384.990	-81.776	0.420	-0.175
-383.975	-60.275	0.252	-0.137
-382.960	291.529	0.091	0.213
-381.946	-162.338	-0.276	-0.017
-380.931	179.588	0.312	-0.584
-379.917	379.325	0.237	-0.622
-378.902	44.180	-0.325	0.381
-377.888	-23.348	-0.290	0.222
-376.873	-141.004	-0.251	-0.033
-375.858	-22.858	-0.160	0.123
-374.844	-24.207	0.123	0.093
-373.829	-35.419	0.307	-0.213
-372.815	24.357	0.185	0.195
-371.800	98.600	0.177	0.261
-370.785	703.779	0.087	-0.293
-369.771	110.979	-0.207	-0.319
-368.756	-81.340	-0.090	0.038
-367.742	-56.821	-0.081	-0.045
-366.727	-132.736	0.256	0.041
-365.712	-99.069	-0.367	-0.118
-364.698	38.301	0.097	0.110
-363.683	-31.670	-0.525	-0.375
-362.669	5.235	-0.196	-0.184
-361.654	-136.362	0.334	-0.049
-360.639	-117.402	0.360	0.083
-359.625	-25.395	-0.257	0.193
-358.610	-70.647	-0.319	-0.153
-357.596	-175.255	-0.152	-0.005
-356.581	-40.949	-0.357	-0.234
-355.566	-9.685	0.304	0.258
-354.552	-13.562	0.018	-0.015
-353.537	199.147	0.138	0.269
-352.523	-129.446	0.341	0.060
-351.508	-27.148	0.528	-0.392
-350.493	-34.255	0.197	-0.137
-349.479	-104.196	0.447	-0.131
-348.464	545.415	0.188	0.577
-347.450	31.651	-0.304	0.333
-346.435	-91.220	-0.346	0.126
-345.420	-81.800	-0.212	-0.088
-344.406	-96.784	-0.393	0.131
-343.391	620.883	-0.027	0.086
-342.377	-94.541	-0.311	-0.107
-341.362	-35.613	0.261	0.180
-340.348	109.038	0.273	0.417
-339.333	-1.455	-0.315	0.283
-338.318	37.257	0.274	-0.309
-337.304	-119.368	-0.226	0.050
-336.289	102.301	0.091	-0.135
-335.275	541.271	0.058	0.178
-334.260	-200.000	0.009	0.565
-333.245	-200.000	0.011	-0.208
-332.231	481.259	-0.044	0.127
-331.216	-200.000	0.094	-0.534
-330.202	-58.486	0.362	-0.199
-329.187	-64.920	0.131	-0.067
-328.172	-3.273	-0.207	-0.183
-327.158	37.429	-0.385	0.435
-326.143	-150.247	-0.262	-0.025
-325.129	800.000	0.132	-0.624
-324.114	-0.094	-0.184	-0.166
-323.099	-136.847	0.291	0.042
-322.085	-49.971	-0.200	0.120
-321.070	130.763	0.414	0.678
-320.056	800.000	-0.097	-0.404
-319.041	26.992	-0.342	-0.365
-318.026	-166.913	0.226	0.012
-317.012	-200.000	0.008	-0.144
-315.997	77.599	-0.052	0.070
-314.983	-91.180	-0.417	0.151
-313.968	228.136	-0.173	0.360
-312.953	-61.516	-0.627	-0.334
-311.939	-125.327	-0.101	0.020
-310.924	27.646	0.120	-0.128
-309.910	-200.000	0.018	-0.212
-308.895	58.695	0.174	-0.218
-307.880	-0.751	-0.375	-0.338
-306.866	-100.393	0.423	0.133
-305.851	-123.991	-0.171	-0.034
-304.837	8.843	0.156	0.149
-303.822	-200.000	0.006	0.358
-302.807	-39.915	-0.114	0.075
-301.793	754.968	0.082	-0.284
-300.778	-5.315	0.512	0.447
-299.764	-200.000	0.021	-0.172
-298.749	117.189	-0.046	-0.073
-297.735	15.085	0.121	0.121
-296.720	-21.948	0.490	-0.378
-295.705	-200.000	-0.072	-0.454
-294.691	88.983	0.156	-0.221
-293.676	-200.000	0.020	0.148
-292.662	133.285	0.238	0.392
-291.647	800.000	-0.139	0.623
-290.632	-59.711	-0.272	0.148
-289.618	-56.425	0.171	-0.096
-288.603	-53.525	0.328	-0.190
-287.589	-53.492	0.432	0.251
-286.574	-21.478	-0.188	0.146
-285.559	-27.642	0.409	-0.301
-284.545	37.750	0.319	-0.360
-283.530	182.419	-0.136	-0.255
-282.516	-39.991	-0.231	-0.153
-281.501	-91.778	-0.124	0.045
-280.486	-99.272	0.296	-0.095
-279.472	-200.000	0.013	0.133
-278.457	334.900	0.041	0.103
-277.443	73.975	0.238	0.318
-276.428	-139.696	-0.393	0.053
-275.413	631.119	0.098	0.316
-274.399	-129.866	-0.262	-0.045
-273.384	800.000	0.106	0.483
-272.370	-13.964	0.248	-0.203
-271.355	81.084	-0.256	-0.352
-270.340	-79.710	-0.062	-0.026
-269.326	-97.759	0.477	-0.156
-268.311	-12.781	0.390	0.322
-267.297	-32.012	0.143	0.101
-266.282	-92.892	0.223	-0.079
-265.267	-200.000	0.020	0.188
-264.253	-115.463	-0.142	0.034
-263.238	682.321	-0.202	-0.674
-262.224	110.534	-0.117	-0.179
-261.209	-42.815	0.233	-0.150
-260.195	438.355	0.147	0.410
-259.180	-111.274	-0.182	0.047
-258.165	-96.456	-0.285	0.095
-257.151	800.000	0.166	0.616
-256.136	-200.000	-0.000	-0.184
-255.122	-52.762	-0.398	0.232
-254.107	-70.345	-0.302	-0.145
-253.092	465.176	-0.036	0.104
-252.078	-122.609	-0.115	0.023
-251.063	220.140	-0.108	-0.219
-250.049	-200.000	0.013	0.266
-249.034	-17.247	0.269	-0.215
-248.019	800.000	0.030	0.166
-247.005	-200.000	-0.159	-0.000
-245.990	-180.636	0.424	-0.011
-244.976	32.629	-0.213	-0.234
-243.961	-127.685	-0.773	0.141
-242.946	-114.543	-0.421	-0.102
-241.932	-56.755	-0.064	-0.036
-240.917	-141.882	-0.076	-0.009
-239.903	84.054	-0.138	0.192
-238.888	-32.480	-0.326	-0.230
-237.873	1.279	0.148	-0.135
-236.859	639.688	-0.065	0.210
-235.844	299.090	-0.099	-0.231
-234.830	-31.217	-0.353	0.252
-233.815	-120.342	0.220	-0.047
-232.800	-162.030	-0.114	-0.007
-231.786	-90.295	-0.595	0.218
-230.771	79.413	-0.197	0.268
-229.757	-14.755	-0.274	0.223
-228.742	-132.575	0.081	0.013
-227.727	-161.722	-0.272	0.017
-226.713	-23.113	-0.181	0.138
-225.698	-160.518	0.316	0.021
-224.684	-200.000	0.018	0.191
-223.669	-49.712	-0.244	-0.147
-222.655	691.420	0.102	-0.343
-221.640	800.000	-0.141	0.744
-220.625	-68.769	-0.328	-0.160
-219.611	17.996	0.250	-0.253
-218.596	-156.326	0.329	0.026
-217.582	-105.592	0.271	0.077
-216.567	-60.160	0.232	0.125
-215.552	30.228	-0.134	0.145
-214.538	-76.547	0.385	0.171
-213.523	-152.050	0.259	0.024
-212.509	191.992	-0.141	-0.271
-211.494	39.427	-0.250	-0.284
-210.479	-200.000	0.016	-0.249
-209.465	-104.987	0.052	0.015
-208.450	-184.789	-0.236	0.005
-207.436	-74.420	0.124	-0.056
-206.421	-25.555	0.268	-0.200
-205.406	-64.957	0.155	0.079
-204.392	-144.578	0.384	-0.044
-203.377	-200.000	0.026	-0.213
-202.363	300.924	0.116	0.274
-201.348	-131.703	0.127	0.021
-200.333	800.000	-0.076	-0.279
-199.319	-200.000	0.042	0.301
-198.304	800.000	0.146	-0.609
-197.290	-135.682	0.272	-0.040
-196.275	-200.000	0.002	-0.372
-195.260	-69.234	-0.455	-0.221
-194.246	-114.643	-0.213	0.051
-193.231	-73.065	0.223	0.103
-192.217	35.832	0.077	0.085
-191.202	108.816	0.239	-0.362
-190.187	-200.000	0.001	0.174
-189.173	-77.317	0.313	-0.137
-188.158	-200.000	0.040	-0.464
-187.144	-200.000	0.043	-0.257
-186.129	-127.692	-0.206	-0.037
-185.114	-77.922	-0.022	0.010
-184.100	-143.960	-0.036	0.004
-183.085	91.647	-0.133	-0.190
-182.071	-174.751	-0.503	-0.018
-181.056	-200.000	-0.010	0.236
-180.042	109.888	0.184	-0.279
-179.027	-128.980	0.054	0.009
-178.012	39.414	0.092	-0.105
-176.998	-200.000	0.182	0.000
-175.983	-47.262	-0.046	0.028
-174.969	48.390	-0.140	0.166
-173.954	-157.029	0.472	-0.036
-172.939	2.194	0.063	0.058
-171.925	-94.285	-0.271	-0.093
-170.910	-112.388	-0.172	0.043
-169.896	-200.000	0.038	-0.255
-168.881	90.658	-0.158	0.225
-167.866	-125.231	-0.360	-0.069
-166.852	195.522	0.135	0.260
-165.837	-63.135	-0.083	-0.043
-164.823	576.281	0.175	0.543
-163.808	103.433	-0.099	0.148
-162.793	-200.000	-0.026	0.304
-161.779	-129.502	0.290	0.050
-160.764	199.646	0.165	-0.321
-159.750	800.000	-0.040	-0.194
-158.735	-23.288	-0.326	0.248
-157.720	80.493	-0.301	-0.411
-156.706	-119.399	0.600	0.131
-155.691	-100.345	-0.501	0.156
-154.677	-61.191	-0.133	-0.070
-153.662	65.098	0.090	-0.115
-152.647	-139.507	-0.393	0.053
-151.633	-200.000	-0.055	0.393
-150.618	483.951	0.131	0.379
-149.604	-132.617	-0.455	-0.073
-148.589	-63.170	0.253	0.131
-147.574	-102.108	-0.061	-0.018
-146.560	-78.746	0.190	-0.082
-145.545	344.140	0.100	-0.250
-144.531	41.230	-0.144	0.164
-143.516	-61.307	0.742	-0.394
-142.502	-89.753	0.576	-0.212
-141.487	-33.863	-0.244	0.170
-140.472	800.000	0.127	0.502
-139.458	84.819	0.118	-0.163
-138.443	481.559	-0.138	-0.398
-137.429	-59.460	-0.238	-0.129
-136.414	-200.000	-0.012	0.195
-135.399	65.419	-0.129	0.165
-134.385	-93.079	0.274	0.096
-133.370	-16.580	0.063	-0.050
-132.356	135.322	-0.143	-0.236
-131.341	61.617	0.220	-0.277
-130.326	-156.853	0.465	0.036
-129.312	-200.000	0.031	-0.193
-128.297	-168.069	0.169	-0.008
-127.283	-174.828	0.601	-0.021
-126.268	-93.178	0.624	0.218
-125.253	-129.179	-0.449	-0.078
-124.239	449.873	0.092	-0.257
-123.224	-132.548	-0.398	0.064
-122.210	-149.458	-0.268	0.027
-121.195	-65.959	-0.450	0.226
