DTS Sentinel unit serial number:	SN409020Multiplexer serial number:	ORYXHardware model number:	OX4-SRSoftware version number:	ORYX F/W v3.00 Oryx Data Collector v3.7.2.0data status	okinstallation	HaddamTimeLapsedifferential loss correction	single-endedforward channel	channel 3reverse channel	N/Adate	2011/06/21time	14:06:17forward acquisition time	30.00reverse acquisition time	0.00gamma	498.7831k internal	0.1826k external	0.1826temperature offset calibration	1.0074default loss term (dB/km)	0.3790temperature slope calibration	1.3530multiplexer offset coefficient	1.0000multiplexer slope coefficient	1.0000fibre end	0.00T internal ref (°C)	37.62T ext. ref 1 (°C)	33.01T ext. ref 2 (°C)	0.25length (m)	temperature (°C)	Stokes	anti-Stokes-747.200	248.010	0.112	0.242
-746.185	-200.000	0.019	0.474
-745.171	243.522	0.191	-0.408
-744.156	-121.150	0.489	-0.104
-743.142	-55.537	-0.056	0.032
-742.127	4.998	0.455	0.426
-741.112	29.053	-0.214	0.231
-740.098	527.571	0.194	0.587
-739.083	-200.000	0.040	-0.231
-738.069	-107.622	-0.181	-0.050
-737.054	172.911	0.051	-0.093
-736.039	206.942	-0.009	-0.019
-735.025	-148.785	0.655	0.067
-734.010	-200.000	-0.049	0.502
-732.996	81.908	0.236	0.325
-731.981	-200.000	0.024	0.279
-730.966	106.972	0.207	0.314
-729.952	-76.839	-0.435	0.193
-728.937	-105.197	0.224	0.065
-727.923	-153.380	0.509	0.045
-726.908	-78.492	-0.249	-0.108
-725.894	-70.948	-0.221	-0.106
-724.879	418.422	0.018	0.050
-723.864	114.750	0.209	0.324
-722.850	15.955	-0.390	0.391
-721.835	-128.929	-0.249	0.044
-720.821	731.871	0.152	-0.520
-719.806	800.000	-0.090	-0.410
-718.791	-50.294	0.316	-0.189
-717.777	212.033	-0.063	-0.128
-716.762	-10.859	0.251	0.210
-715.748	-125.410	-0.314	0.060
-714.733	-30.870	-0.125	-0.090
-713.718	43.557	-0.253	-0.294
-712.704	182.938	-0.148	0.279
-711.689	55.405	0.607	-0.748
-710.675	-26.241	-0.505	-0.376
-709.660	-134.409	-0.481	-0.074
-708.645	217.176	-0.087	0.177
-707.631	439.691	-0.112	-0.311
-706.616	-90.754	-0.063	0.023
-705.602	-200.000	0.024	-0.216
-704.587	-200.000	-0.071	-0.720
-703.572	-200.000	0.025	-0.548
-702.558	800.000	0.068	0.278
-701.543	-69.320	0.168	-0.082
-700.529	260.963	0.156	0.346
-699.514	67.378	-0.071	-0.092
-698.499	800.000	-0.081	-0.392
-697.485	-142.603	-0.077	-0.009
-696.470	148.253	0.143	-0.246
-695.456	-141.757	-0.642	-0.081
-694.441	19.820	-0.234	-0.239
-693.426	-69.140	-0.135	-0.066
-692.412	145.042	0.072	0.123
-691.397	-161.814	0.695	-0.044
-690.383	-184.171	-0.344	-0.007
-689.368	-38.176	-0.225	-0.152
-688.354	-96.326	-0.141	-0.047
-687.339	-200.000	-0.040	-0.467
-686.324	-200.000	0.025	0.162
-685.310	23.799	-0.065	-0.068
-684.295	800.000	0.066	-0.279
-683.281	60.745	0.332	-0.418
-682.266	-103.393	0.140	-0.042
-681.251	-123.892	-0.104	0.021
-680.237	-200.000	0.017	0.184
-679.222	315.689	0.155	0.373
-678.208	-106.523	0.226	0.064
-677.193	198.048	0.150	-0.292
-676.178	-153.519	-0.540	0.047
-675.164	24.038	0.080	0.084
-674.149	-200.000	0.030	0.279
-673.135	-26.041	-0.376	0.280
-672.120	54.006	-0.313	0.383
-671.105	572.056	0.044	-0.137
-670.091	-200.000	0.065	0.465
-669.076	800.000	0.084	0.466
-668.062	-55.602	0.138	0.078
-667.047	-9.355	-0.258	0.219
-666.032	-24.545	-0.153	0.115
-665.018	-46.554	0.458	-0.284
-664.003	55.941	-0.042	-0.052
-662.989	-200.000	0.040	0.528
-661.974	11.609	0.199	0.194
-660.959	173.013	-0.086	-0.158
-659.945	-30.407	0.593	0.426
-658.930	531.804	-0.216	-0.652
-657.916	-150.865	-0.277	0.026
-656.901	-70.078	-0.406	-0.195
-655.886	-122.740	0.182	-0.037
-654.872	83.141	-0.282	-0.390
-653.857	359.266	-0.107	-0.273
-652.843	265.723	0.232	-0.515
-651.828	800.000	-0.087	-0.371
-650.814	-137.696	0.641	-0.091
-649.799	-200.000	0.015	-0.251
-648.784	157.831	0.095	-0.168
-647.770	-63.110	0.553	-0.289
-646.755	21.204	0.226	0.233
-645.741	-128.211	0.428	-0.077
-644.726	-6.126	0.289	-0.251
-643.711	567.795	-0.046	-0.142
-642.697	-109.157	0.244	-0.065
-641.682	360.014	0.098	0.250
-640.668	-87.179	0.239	-0.092
-639.653	8.132	0.208	0.198
-638.638	-65.997	0.378	-0.191
-637.624	-200.000	-0.004	-0.058
-636.609	-14.742	-0.195	-0.158
-635.595	36.475	-0.225	-0.251
-634.580	-200.000	-0.035	0.270
-633.565	-44.935	0.155	-0.098
-632.551	75.416	-0.405	-0.543
-631.536	-56.083	-0.259	0.146
-630.522	260.049	0.116	0.255
-629.507	-200.000	-0.005	-0.491
-628.492	-50.118	0.503	-0.301
-627.478	-106.649	-0.207	0.058
-626.463	-53.599	-0.297	0.172
-625.449	-100.320	0.429	-0.134
-624.434	56.745	0.249	-0.307
-623.419	-104.139	-0.263	0.077
-622.405	-168.570	0.165	-0.008
-621.390	-83.693	0.099	-0.040
-620.376	-104.148	-0.216	-0.063
-619.361	89.227	-0.117	0.166
-618.346	-11.449	0.125	-0.105
-617.332	-47.048	0.430	-0.265
-616.317	329.654	0.175	0.429
-615.303	-136.539	0.121	-0.018
-614.288	-81.608	0.371	-0.154
-613.273	175.749	0.119	0.219
-612.259	800.000	0.049	0.251
-611.244	-200.000	-0.029	0.197
-610.230	-200.000	-0.002	0.049
-609.215	-26.553	0.302	0.224
-608.201	-42.153	0.250	-0.162
-607.186	-112.002	-0.265	-0.067
-606.171	-110.602	-0.625	-0.163
-605.157	-147.463	0.149	0.016
-604.142	-100.261	0.146	0.046
-603.128	800.000	-0.065	-0.327
-602.113	800.000	-0.087	0.453
-601.098	-26.531	0.119	-0.088
-600.084	-48.034	-0.268	0.164
-599.069	-147.715	0.383	-0.040
-598.055	46.317	-0.544	-0.638
-597.040	154.646	-0.031	0.055
-596.025	800.000	-0.139	-0.528
-595.011	-200.000	-0.015	-0.115
-593.996	-160.949	0.538	-0.035
-592.982	800.000	-0.065	0.234
-591.967	-12.872	0.033	-0.027
-590.952	-42.370	0.151	0.097
-589.938	-47.894	-0.225	0.137
-588.923	-120.069	-0.217	0.047
-587.909	-76.888	-0.507	0.223
-586.894	30.169	-0.319	-0.344
-585.879	9.146	0.039	-0.037
-584.865	-44.149	-0.199	0.126
-583.850	35.378	-0.261	-0.290
-582.836	-150.412	-0.357	-0.034
-581.821	54.951	0.186	0.228
-580.806	24.515	-0.237	0.248
-579.792	285.956	-0.158	-0.362
-578.777	60.013	-0.032	-0.040
-577.763	800.000	-0.039	0.141
-576.748	51.814	0.085	-0.102
-575.733	50.488	0.158	0.189
-574.719	-131.931	0.244	0.040
-573.704	-143.400	0.776	-0.093
-572.690	442.887	-0.037	0.103
-571.675	90.647	0.213	0.302
-570.661	800.000	-0.015	0.056
-569.646	-200.000	-0.048	0.288
-568.631	800.000	-0.064	0.259
-567.617	-200.000	-0.004	0.128
-566.602	143.260	0.265	-0.447
-565.588	-200.000	0.070	-0.469
-564.573	215.961	-0.128	-0.258
-563.558	-87.456	-0.805	0.307
-562.544	-90.761	0.122	0.044
-561.529	309.726	-0.190	0.452
-560.515	-200.000	0.168	-0.001
-559.500	-164.605	0.250	-0.014
-558.485	-97.261	0.234	0.077
-557.471	46.068	0.082	-0.096
-556.456	492.144	-0.086	-0.250
-555.442	393.217	-0.228	-0.602
-554.427	87.356	-0.403	-0.565
-553.412	351.731	0.122	-0.307
-552.398	-53.274	0.277	0.160
-551.383	304.612	0.053	0.126
-550.369	20.331	0.323	-0.329
-549.354	740.818	0.073	0.251
-548.339	-143.937	0.255	-0.030
-547.325	-145.947	-0.358	0.040
-546.310	-30.233	0.316	-0.226
-545.296	108.275	0.377	0.569
-544.281	-30.596	0.447	-0.320
-543.266	0.747	0.197	0.178
-542.252	1.569	0.394	-0.358
-541.237	-26.056	0.191	0.141
-540.223	-130.113	0.042	0.007
-539.208	92.749	0.115	0.164
-538.193	-200.000	0.036	0.360
-537.179	800.000	0.029	-0.154
-536.164	-152.559	-0.142	-0.013
-535.150	-118.683	-0.427	-0.094
-534.135	-40.990	-0.334	0.218
-533.121	800.000	0.055	0.208
-532.106	116.895	0.043	-0.066
-531.091	-77.736	0.220	-0.095
-530.077	-200.000	0.070	-0.427
-529.062	-200.000	-0.003	-0.199
-528.048	-102.949	0.196	-0.058
-527.033	-18.390	0.240	0.189
-526.018	-200.000	-0.004	-0.025
-525.004	800.000	0.068	0.289
-523.989	-152.535	0.085	-0.008
-522.975	-200.000	-0.050	-0.336
-521.960	-63.687	0.498	0.257
-520.945	800.000	0.104	-0.386
-519.931	-112.574	0.326	0.082
-518.916	-200.000	-0.018	0.353
-517.902	-138.346	-0.299	-0.041
-516.887	-161.758	-0.219	0.014
-515.872	-63.014	-0.299	0.155
-514.858	61.490	-0.141	-0.177
-513.843	6.497	-0.135	-0.126
-512.829	185.194	-0.081	0.153
-511.814	111.205	0.078	0.118
-510.799	-54.299	-0.130	-0.074
-509.785	-146.948	-0.104	0.011
-508.770	-76.546	-0.497	0.219
-507.756	-22.960	0.082	-0.062
-506.741	-129.792	0.176	-0.030
-505.726	-34.202	-0.512	-0.354
-504.712	35.484	-0.380	0.421
-503.697	800.000	-0.050	0.185
-502.683	-200.000	0.012	-0.317
-501.668	657.895	0.066	0.215
-500.653	800.000	0.066	0.321
-499.639	-99.012	0.651	0.207
-498.624	-14.533	0.442	-0.358
-497.610	-86.637	0.508	0.195
-496.595	-92.069	-0.215	0.076
-495.581	-106.291	-0.181	-0.051
-494.566	-31.985	-0.489	0.345
-493.551	-81.120	-0.201	-0.083
-492.537	-135.730	-0.222	-0.033
-491.522	-200.000	0.018	0.252
-490.508	-47.054	0.183	0.112
-489.493	-164.078	-0.120	0.007
-488.478	8.040	-0.160	0.151
-487.464	58.131	0.108	-0.134
-486.449	-87.411	0.661	0.251
-485.435	-28.671	0.510	-0.369
-484.420	212.283	-0.223	-0.444
-483.405	-147.439	0.511	0.054
-482.391	-149.727	0.154	0.015
-481.376	94.607	-0.145	0.209
-480.362	-200.000	-0.592	0.001
-479.347	347.287	-0.189	0.472
-478.332	-142.591	-0.530	-0.065
-477.318	113.271	0.083	0.127
-476.303	-200.000	0.039	0.499
-475.289	-14.282	-0.211	-0.171
-474.274	322.115	-0.185	-0.447
-473.259	-7.715	-0.280	-0.239
-472.245	800.000	-0.046	-0.180
-471.230	353.747	0.221	-0.556
-470.216	-29.941	-0.159	0.114
-469.201	611.267	-0.233	-0.738
-468.186	-155.357	0.422	-0.034
-467.172	1.460	-0.229	0.208
-466.157	-148.453	-0.101	-0.010
-465.143	800.000	-0.061	-0.219
-464.128	14.905	-0.257	-0.253
-463.113	-13.902	-0.343	0.279
-462.099	-133.657	0.455	0.071
-461.084	-124.035	-0.310	-0.061
-460.070	-180.816	-0.363	0.009
-459.055	645.511	0.189	-0.610
-458.040	-80.573	-0.339	-0.141
-457.026	93.491	-0.207	-0.296
-456.011	800.000	0.037	0.179
-454.997	380.248	-0.057	-0.147
-453.982	372.237	-0.128	-0.330
-452.968	80.156	-0.049	0.066
-451.953	187.927	-0.248	0.468
-450.938	-200.000	-0.064	0.637
-449.924	90.274	0.029	0.040
-448.909	-35.969	0.322	-0.219
-447.895	-29.638	-0.207	-0.148
-446.880	-91.874	0.198	-0.070
-445.865	-41.265	-0.249	0.161
-444.851	800.000	-0.061	0.231
-443.836	-200.000	0.037	0.287
-442.822	-52.950	-0.301	-0.174
-441.807	-7.414	0.154	-0.132
-440.792	-102.941	0.160	-0.048
-439.778	-109.532	-0.343	-0.091
-438.763	-126.351	-0.148	-0.028
-437.749	-200.000	0.024	-0.386
-436.734	41.888	0.187	-0.214
-435.719	-155.713	0.194	-0.015
-434.705	800.000	0.107	-0.548
-433.690	-64.935	0.373	0.189
-432.676	362.370	-0.174	0.442
-431.661	-90.157	0.174	-0.063
-430.646	225.773	-0.097	0.199
-429.632	-188.971	0.118	-0.002
-428.617	122.772	0.164	0.259
-427.603	136.121	0.176	-0.290
-426.588	-11.542	-0.189	-0.156
-425.573	-200.000	-0.020	-0.440
-424.559	44.891	-0.306	0.354
-423.544	384.701	-0.099	0.259
-422.530	-60.561	-0.655	-0.349
-421.515	-173.865	0.395	-0.014
-420.500	32.439	-0.256	-0.278
-419.486	-21.882	0.008	0.006
-418.471	-42.105	-0.254	-0.163
-417.457	173.990	-0.093	0.170
-416.442	-171.797	-0.386	0.016
-415.428	800.000	-0.171	-0.601
-414.413	-200.000	0.022	0.171
-413.398	-200.000	-0.447	0.001
-412.384	-77.250	0.395	0.172
-411.369	167.217	0.310	0.555
-410.355	8.739	-0.359	0.340
-409.340	-200.000	0.021	-0.139
-408.325	73.158	0.116	-0.153
-407.311	800.000	0.027	0.108
-406.296	-13.457	-0.357	0.291
-405.282	-200.000	0.061	-0.507
-404.267	24.803	0.128	-0.134
-403.252	64.792	-0.063	-0.080
-402.238	-200.000	0.446	0.001
-401.223	-149.018	-0.459	-0.046
-400.209	-46.520	0.189	-0.116
-399.194	-200.000	0.074	0.705
-398.179	-200.000	-0.009	-0.206
-397.165	630.700	-0.120	0.383
-396.150	-42.328	-0.242	0.155
-395.136	405.476	0.063	0.167
-394.121	800.000	0.040	0.193
-393.106	-192.883	0.439	-0.005
-392.092	27.753	0.493	-0.522
-391.077	192.115	0.174	-0.331
-390.063	-113.108	-0.524	0.129
-389.048	-42.347	-0.253	0.162
-388.033	31.619	0.305	-0.330
-387.019	-87.534	0.334	0.126
-386.004	-78.897	-0.128	-0.054
-384.990	471.384	0.096	-0.274
-383.975	516.292	-0.093	-0.274
-382.960	-115.129	0.299	-0.071
-381.946	800.000	0.113	-0.408
-380.931	-200.000	0.041	0.679
-379.917	411.142	-0.220	-0.589
-378.902	-200.000	0.028	-0.208
-377.888	800.000	-0.097	-0.340
-376.873	-148.394	0.434	-0.044
-375.858	800.000	-0.046	-0.162
-374.844	-200.000	-0.050	0.400
-373.829	-100.632	0.380	0.117
-372.815	-73.489	0.097	-0.044
-371.800	-117.576	-0.034	-0.008
-370.785	37.848	-0.174	-0.194
-369.771	212.567	0.215	-0.428
-368.756	-200.000	-0.024	-0.549
-367.742	1.023	-0.415	0.374
-366.727	-22.933	0.164	0.124
-365.712	102.832	-0.306	0.450
-364.698	-54.544	-0.143	0.081
-363.683	-178.030	0.355	-0.010
-362.669	-140.631	0.069	-0.009
-361.654	-76.361	0.338	-0.149
-360.639	-34.565	-0.218	-0.149
-359.625	-152.956	-0.189	-0.016
-358.610	-149.676	-0.426	0.042
-357.596	-152.770	0.237	0.021
-356.581	800.000	-0.021	-0.115
-355.566	480.505	0.021	-0.061
-354.552	40.425	0.366	-0.414
-353.537	310.447	0.059	0.140
-352.523	-183.203	0.537	-0.012
-351.508	228.650	-0.177	-0.363
-350.493	-200.000	-0.021	-0.214
-349.479	-79.934	-0.678	0.284
-348.464	-136.026	0.183	0.027
-347.450	140.854	0.055	0.091
-346.435	-200.000	-0.011	-0.288
-345.420	-164.569	0.570	0.032
-344.406	-108.066	-0.030	-0.008
-343.391	-200.000	-0.031	0.620
-342.377	622.349	-0.098	0.311
-341.362	-33.077	-0.096	-0.067
-340.348	-99.104	-0.289	0.091
-339.333	-37.132	0.419	0.280
-338.318	-200.000	0.019	0.135
-337.304	800.000	-0.007	0.027
-336.289	800.000	-0.038	-0.170
-335.275	-148.534	-0.165	-0.017
-334.260	-106.508	0.040	-0.011
-333.245	156.211	0.214	0.372
-332.231	313.948	0.088	0.208
-331.216	57.727	-0.309	-0.379
-330.202	-134.240	0.400	0.061
-329.187	-55.069	-0.435	0.245
-328.172	128.948	-0.184	-0.295
-327.158	156.737	0.089	-0.154
-326.143	-42.454	-0.306	0.195
-325.129	64.076	0.277	0.350
-324.114	-200.000	0.109	0.780
-323.099	-110.548	0.474	0.122
-322.085	-53.186	0.388	-0.223
-321.070	10.967	0.068	0.065
-320.056	103.202	-0.191	0.280
-319.041	323.171	-0.213	0.511
-318.026	-9.035	0.378	0.317
-317.012	208.653	0.193	0.379
-315.997	-200.000	-0.031	0.883
-314.983	275.999	-0.239	0.534
-313.968	489.461	-0.074	0.213
-312.953	158.826	-0.298	0.520
-311.939	-200.000	0.008	-0.225
-310.924	120.255	-0.175	-0.272
-309.910	9.128	-0.259	-0.245
-308.895	-62.156	-0.213	-0.111
-307.880	117.289	0.136	-0.210
-306.866	-128.829	0.225	-0.039
-305.851	-200.000	-0.023	0.220
-304.837	-56.715	-0.224	-0.124
-303.822	-73.313	-0.522	-0.238
-302.807	-90.589	-0.214	-0.077
-301.793	-75.528	0.462	0.205
-300.778	-100.754	0.267	-0.082
-299.764	-86.482	-0.304	-0.116
-298.749	59.371	0.170	-0.209
-297.735	-34.951	0.104	0.071
-296.720	-63.879	-0.346	-0.177
-295.705	-22.570	0.227	-0.171
-294.691	69.219	0.147	-0.189
-293.676	483.024	0.058	0.166
-292.662	55.350	0.160	0.194
-291.647	62.357	0.365	-0.457
-290.632	-53.509	-0.207	0.118
-289.618	408.894	-0.037	0.100
-288.603	-122.169	-0.235	0.048
-287.589	-116.009	-0.116	-0.027
-286.574	-41.323	0.096	-0.062
-285.559	-200.000	0.029	0.502
-284.545	-16.020	0.133	-0.106
-283.530	0.107	-0.257	0.229
-282.516	-1.929	0.292	0.257
-281.501	-117.521	0.316	-0.071
-280.486	-19.455	0.143	0.110
-279.472	320.072	-0.111	-0.264
-278.457	-12.378	-0.187	-0.152
-277.443	-200.000	0.036	-0.865
-276.428	-10.893	-0.187	-0.154
-275.413	-145.945	-0.617	0.068
-274.399	-200.000	-0.014	-0.213
-273.384	-126.024	-0.363	0.068
-272.370	-34.514	-0.458	0.313
-271.355	125.348	-0.113	-0.179
-270.340	56.328	0.080	-0.098
-269.326	460.085	0.064	0.180
-268.311	800.000	-0.133	0.543
-267.297	434.585	0.079	0.216
-266.282	116.101	0.098	0.150
-265.267	167.079	-0.225	0.401
-264.253	-86.266	0.236	-0.090
-263.238	-149.196	0.577	0.057
-262.224	34.271	-0.289	-0.315
-261.209	69.392	-0.127	-0.164
-260.195	-11.242	0.139	0.114
-259.180	113.135	0.165	-0.251
-258.165	-168.846	0.192	0.009
-257.151	-77.185	0.038	-0.016
-256.136	-200.000	-0.047	-0.403
-255.122	-149.579	-0.232	-0.023
-254.107	-103.075	0.541	-0.159
-253.092	-121.840	0.290	0.059
-252.078	-108.364	0.147	-0.039
-251.063	69.679	-0.087	0.112
-250.049	-129.237	-0.421	0.073
-249.034	-57.078	-0.204	-0.112
-248.019	45.016	-0.227	0.261
-247.005	161.614	0.054	0.094
-245.990	-156.390	0.350	0.027
-244.976	-41.347	-0.203	-0.130
-243.961	362.044	-0.054	0.137
-242.946	-143.182	0.102	0.012
-241.932	770.634	0.084	0.287
-240.917	507.114	0.025	-0.072
-239.903	800.000	0.073	-0.340
-238.888	-116.221	-0.136	0.031
-237.873	-158.364	-0.479	-0.034
-236.859	-65.961	-0.349	-0.174
-235.844	-53.791	-0.245	0.139
-234.830	-48.363	0.112	0.067
-233.815	-200.000	0.031	0.216
-232.800	-38.219	-0.138	0.091
-231.786	235.576	0.213	0.440
-230.771	-24.983	0.153	-0.113
-229.757	-122.110	-0.316	0.064
-228.742	37.879	0.268	-0.297
-227.727	95.664	0.177	0.253
-226.713	75.602	-0.263	0.347
-225.698	-76.278	-0.238	0.104
-224.684	22.831	-0.407	0.416
-223.669	-88.333	0.216	0.080
-222.655	-136.258	0.124	-0.018
-221.640	613.396	0.063	0.199
-220.625	98.514	0.198	-0.286
-219.611	-200.000	0.001	0.183
-218.596	37.009	0.110	0.121
-217.582	800.000	0.030	-0.135
-216.567	-20.031	-0.215	-0.165
-215.552	-115.061	-0.237	-0.056
-214.538	156.949	0.268	-0.464
-213.523	-138.114	-0.129	0.018
-212.509	124.676	-0.302	-0.475
-211.494	-19.846	0.087	-0.067
-210.479	-110.122	0.513	0.133
-209.465	22.398	0.272	-0.277
-208.450	-115.699	-0.045	0.010
-207.436	-85.811	-0.724	0.278
-206.421	-52.261	0.196	0.113
-205.406	-122.372	-0.218	0.044
-204.392	108.445	0.040	0.059
-203.377	-51.755	0.102	-0.059
-202.363	71.449	0.255	0.330
-201.348	112.742	-0.230	0.348
-200.333	103.424	0.147	-0.216
-199.319	-200.000	0.012	0.142
-198.304	123.564	0.200	0.314
-197.290	-45.006	0.336	0.208
-196.275	800.000	-0.122	-0.516
-195.260	-59.716	-0.350	0.186
-194.246	319.115	-0.110	-0.261
-193.231	37.123	-0.052	-0.058
-192.217	-31.169	-0.099	-0.070
-191.202	-200.000	-0.009	-0.091
-190.187	-67.287	0.254	-0.124
-189.173	-7.897	-0.150	-0.126
-188.158	798.167	0.054	-0.185
-187.144	-32.139	0.071	-0.049
-186.129	800.000	0.043	-0.166
-185.114	348.069	0.086	0.213
-184.100	55.382	0.228	-0.276
-183.085	800.000	0.139	-0.531
-182.071	40.843	0.307	-0.346
-181.056	-51.851	0.265	0.153
-180.042	-35.141	0.207	-0.140
-179.027	-29.840	-0.219	0.155
-178.012	-134.861	0.267	0.040
-176.998	-200.000	-0.017	0.158
-175.983	11.675	0.121	0.116
-174.969	231.530	-0.135	0.277
-173.954	-76.658	-0.566	0.246
-172.939	-124.569	-0.508	-0.098
-171.925	-200.000	-0.050	0.803
-170.910	-81.169	0.454	0.186
-169.896	-119.411	-0.155	-0.033
-168.881	-148.451	0.277	0.028
-167.866	-65.455	-0.503	-0.251
-166.852	706.173	0.120	0.396
-165.837	129.138	-0.159	-0.253
-164.823	2.378	-0.260	0.234
-163.808	-28.198	-0.262	0.188
-162.793	-97.840	0.262	-0.084
-161.779	-90.512	0.310	0.111
-160.764	-125.011	-0.338	-0.064
-159.750	132.307	0.146	0.234
-158.735	-3.800	-0.214	-0.185
-157.720	96.450	0.175	0.250
-156.706	-139.034	0.232	-0.031
-155.691	-79.932	-0.704	0.293
-154.677	-200.000	-0.023	0.294
-153.662	800.000	-0.070	-0.314
-152.647	35.310	0.089	-0.097
-151.633	90.567	-0.060	0.084
-150.618	1.374	-0.131	-0.117
-149.604	-68.735	0.368	0.176
-148.589	-200.000	-0.046	0.269
-147.574	-60.022	-0.319	0.169
-146.560	278.006	-0.050	-0.112
-145.545	359.557	-0.151	-0.377
-144.531	-200.000	0.025	0.178
-143.516	156.895	0.294	0.507
-142.502	63.866	0.310	0.388
-141.487	-105.693	0.453	0.127
-140.472	-200.000	0.031	0.292
-139.458	309.826	0.135	0.315
-138.443	-200.000	0.190	0.000
-137.429	-74.120	-0.242	0.109
-136.414	750.392	0.154	0.520
-135.399	-200.000	0.012	0.390
-134.385	129.617	-0.131	0.208
-133.370	800.000	-0.103	0.441
-132.356	-200.000	0.080	-0.466
-131.341	-200.000	0.040	-0.230
-130.326	-200.000	0.034	0.200
-129.312	189.772	0.131	-0.244
-128.297	408.367	0.034	0.090
-127.283	5.459	-0.224	0.206
-126.268	256.129	-0.047	-0.101
-125.253	673.302	0.163	-0.527
-124.239	146.528	0.006	0.011
-123.224	-167.500	-0.504	-0.025
-122.210	-161.732	-0.446	-0.028
-121.195	76.825	-0.064	-0.085
