DTS Sentinel unit serial number:	SN409020Multiplexer serial number:	ORYXHardware model number:	OX4-SRSoftware version number:	ORYX F/W v3.00 Oryx Data Collector v3.7.2.0data status	okinstallation	HaddamTimeLapsedifferential loss correction	single-endedforward channel	channel 3reverse channel	N/Adate	2011/06/21time	14:41:17forward acquisition time	30.00reverse acquisition time	0.00gamma	498.7831k internal	0.1817k external	0.1817temperature offset calibration	1.0074default loss term (dB/km)	0.3790temperature slope calibration	1.3530multiplexer offset coefficient	1.0000multiplexer slope coefficient	1.0000fibre end	0.00T internal ref (°C)	38.50T ext. ref 1 (°C)	29.45T ext. ref 2 (°C)	0.25length (m)	temperature (°C)	Stokes	anti-Stokes-747.200	113.005	0.196	-0.305
-746.185	-200.000	0.002	0.030
-745.171	-200.000	-0.066	-0.455
-744.156	-41.342	0.219	0.144
-743.142	13.183	0.424	-0.420
-742.127	800.000	-0.181	0.775
-741.112	207.264	-0.057	0.115
-740.098	-28.871	-0.334	0.245
-739.083	-31.840	-0.357	0.255
-738.069	-200.000	-0.041	0.347
-737.054	-141.189	-0.594	-0.077
-736.039	3.235	0.233	0.216
-735.025	-39.918	0.738	0.492
-734.010	14.449	-0.206	-0.206
-732.996	-159.165	0.437	0.031
-731.981	-200.000	0.007	0.281
-730.966	123.215	0.195	0.313
-729.952	-171.412	-0.683	0.029
-728.937	-10.268	-0.199	-0.169
-727.923	-69.299	0.341	-0.167
-726.908	-97.999	0.181	0.059
-725.894	-83.734	0.391	0.159
-724.879	-40.228	0.191	-0.127
-723.864	-178.494	-0.729	-0.021
-722.850	-93.013	-0.338	-0.120
-721.835	41.818	0.396	0.459
-720.821	172.995	-0.253	-0.467
-719.806	61.184	-0.349	-0.444
-718.791	-177.924	0.437	0.013
-717.777	297.112	0.170	-0.402
-716.762	800.000	0.077	-0.391
-715.748	800.000	-0.089	-0.381
-714.733	-88.047	-0.448	-0.171
-713.718	-200.000	-0.025	0.366
-712.704	160.275	-0.263	-0.470
-711.689	21.537	0.262	-0.273
-710.675	-200.000	-0.025	0.174
-709.660	316.194	0.145	-0.352
-708.645	-47.986	0.747	-0.461
-707.631	263.605	-0.115	-0.256
-706.616	414.184	-0.116	0.318
-705.602	-54.095	0.074	0.043
-704.587	157.286	0.168	0.297
-703.572	-113.384	-0.100	-0.025
-702.558	-47.885	-0.143	-0.089
-701.543	800.000	0.060	-0.272
-700.529	-58.969	-0.261	-0.143
-699.514	336.943	-0.078	0.195
-698.499	-178.842	-0.200	0.006
-697.485	-27.264	-0.117	-0.087
-696.470	-158.171	-0.427	-0.032
-695.456	-181.642	0.259	0.006
-694.441	-167.448	0.607	0.031
-693.426	-58.203	0.127	0.070
-692.412	-14.958	0.461	0.377
-691.397	-200.000	-0.036	0.359
-690.383	54.504	-0.166	-0.205
-689.368	-89.515	0.252	0.094
-688.354	-96.987	0.729	0.242
-687.339	-109.768	-0.315	0.084
-686.324	-96.845	-0.574	0.191
-685.310	-39.326	-0.101	-0.068
-684.295	-20.884	0.109	-0.085
-683.281	22.879	-0.156	0.163
-682.266	-200.000	0.005	0.030
-681.251	800.000	-0.135	0.513
-680.237	-114.203	-0.239	-0.059
-679.222	800.000	-0.074	0.296
-678.208	299.352	-0.146	-0.344
-677.193	446.901	0.054	-0.151
-676.178	398.982	-0.150	-0.403
-675.164	-143.409	-0.244	0.030
-674.149	-94.404	-0.261	-0.090
-673.135	-149.044	-0.607	-0.062
-672.120	-6.266	-0.153	0.133
-671.105	-143.557	0.025	0.003
-670.091	-27.053	-0.363	0.270
-669.076	800.000	-0.029	0.156
-668.062	-73.196	0.122	0.057
-667.047	-157.464	-0.329	0.025
-666.032	-200.000	-0.002	0.035
-665.018	-171.758	0.588	0.024
-664.003	16.644	0.270	0.272
-662.989	135.622	-0.111	0.185
-661.974	447.392	0.179	-0.506
-660.959	630.301	-0.158	0.514
-659.945	31.266	0.488	0.535
-658.930	280.102	0.210	0.480
-657.916	-58.322	-0.424	0.234
-656.901	-200.000	0.015	0.191
-655.886	-200.000	-0.104	0.588
-654.872	-152.655	-0.250	0.022
-653.857	-165.447	0.550	-0.030
-652.843	-34.525	0.562	-0.392
-651.828	586.100	-0.140	-0.443
-650.814	800.000	-0.020	-0.088
-649.799	-73.096	0.088	-0.041
-648.784	-124.874	-0.206	0.040
-647.770	102.632	-0.279	-0.417
-646.755	-39.628	0.332	0.221
-645.741	800.000	-0.136	0.516
-644.726	-107.477	-0.266	0.074
-643.711	-200.000	-0.019	0.432
-642.697	164.579	0.148	-0.266
-641.682	-75.553	-0.165	0.075
-640.668	42.728	-0.221	0.257
-639.653	800.000	0.042	0.212
-638.638	-109.145	-0.634	-0.171
-637.624	18.099	-0.485	-0.493
-636.609	3.362	-0.027	0.025
-635.595	-50.844	0.341	-0.204
-634.580	-8.703	-0.551	0.470
-633.565	35.953	-0.234	-0.263
-632.551	222.016	0.154	-0.317
-631.536	-175.484	0.349	-0.012
-630.522	-160.097	0.094	0.006
-629.507	119.753	-0.261	-0.414
-628.492	-200.000	0.016	-0.328
-627.478	800.000	0.116	-0.527
-626.463	-113.553	-0.129	0.032
-625.449	-65.399	-0.314	-0.160
-624.434	244.820	-0.143	-0.307
-623.419	-200.000	-0.085	0.493
-622.405	-22.761	0.031	-0.024
-621.390	61.319	-0.155	0.197
-620.376	18.554	-0.062	-0.063
-619.361	-86.555	-0.144	0.056
-618.346	-96.065	-0.221	0.074
-617.332	261.230	-0.169	-0.375
-616.317	-7.626	0.359	-0.309
-615.303	-39.282	0.281	0.187
-614.288	-200.000	-0.010	0.214
-613.273	-59.761	-0.279	-0.152
-612.259	171.380	0.088	-0.162
-611.244	-200.000	0.016	-0.531
-610.230	-48.175	0.241	-0.148
-609.215	631.675	-0.167	-0.543
-608.201	-50.769	-0.550	-0.329
-607.186	101.481	-0.048	0.072
-606.171	-113.436	-0.138	-0.034
-605.157	112.801	0.179	0.276
-604.142	1.091	-0.614	0.560
-603.128	-17.138	-0.146	-0.117
-602.113	398.461	-0.049	0.132
-601.098	31.270	-0.143	0.156
-600.084	92.131	0.197	-0.283
-599.069	177.776	0.180	0.335
-598.055	164.924	0.090	-0.162
-597.040	-60.642	-0.123	-0.066
-596.025	39.395	0.116	0.132
-595.011	-200.000	-0.003	-0.242
-593.996	-122.433	0.112	0.023
-592.982	-10.430	0.086	0.073
-591.967	-83.456	0.391	-0.158
-590.952	141.607	-0.208	0.352
-589.938	-40.938	0.036	0.024
-588.923	85.764	0.346	-0.484
-587.909	-200.000	-0.005	-0.581
-586.894	-126.733	0.533	-0.099
-585.879	196.213	-0.104	-0.201
-584.865	800.000	-0.024	-0.101
-583.850	109.594	-0.051	-0.078
-582.836	-113.186	0.684	-0.170
-581.821	-39.101	-0.059	-0.040
-580.806	-175.018	-0.323	-0.011
-579.792	-143.081	-0.277	0.034
-578.777	-200.000	0.005	-0.112
-577.763	237.114	-0.085	0.180
-576.748	138.191	0.283	0.473
-575.733	49.044	0.127	0.151
-574.719	26.382	-0.161	0.172
-573.704	-200.000	0.019	-0.307
-572.690	70.984	0.367	-0.484
-571.675	568.798	0.129	0.402
-570.661	-200.000	0.049	-0.305
-569.646	-87.988	-0.560	0.213
-568.631	-51.470	0.346	0.205
-567.617	-66.959	0.306	-0.153
-566.602	-13.330	-0.311	-0.256
-565.588	800.000	-0.066	0.253
-564.573	-46.815	-0.468	0.290
-563.558	546.068	0.064	0.195
-562.544	-200.000	0.061	-0.571
-561.529	-51.775	-0.218	-0.129
-560.515	-108.130	-0.324	-0.089
-559.500	72.803	0.288	-0.382
-558.485	333.189	-0.125	-0.308
-557.471	98.514	-0.145	-0.213
-556.456	-143.097	-0.431	0.052
-555.442	-191.197	0.307	-0.004
-554.427	-10.997	-0.143	-0.119
-553.412	-84.482	-0.344	-0.137
-552.398	56.487	-0.286	-0.354
-551.383	-183.801	-0.196	0.004
-550.369	117.823	0.086	0.134
-549.354	-107.499	-0.222	-0.061
-548.339	-99.976	-0.566	0.178
-547.325	-154.415	-0.366	-0.031
-546.310	-200.000	-0.011	-0.107
-545.296	29.820	-0.217	0.235
-544.281	519.983	-0.049	-0.147
-543.266	-200.000	-0.005	-0.216
-542.252	-200.000	0.022	-0.151
-541.237	17.562	-0.162	0.164
-540.223	4.114	-0.202	0.187
-539.208	800.000	-0.061	0.267
-538.193	512.391	-0.133	0.397
-537.179	655.899	-0.138	0.453
-536.164	-200.000	-0.015	0.445
-535.150	-164.113	0.264	-0.015
-534.135	150.862	-0.241	-0.417
-533.121	301.748	0.129	-0.303
-532.106	317.222	0.102	-0.245
-531.091	-54.616	-0.093	-0.053
-530.077	273.907	-0.142	0.320
-529.062	61.353	-0.137	0.173
-528.048	-128.970	0.441	-0.078
-527.033	-83.804	0.531	-0.214
-526.018	-58.691	0.422	-0.231
-525.004	54.674	0.282	-0.345
-523.989	-200.000	0.002	-0.088
-522.975	800.000	0.066	0.317
-521.960	-73.593	0.230	0.106
-520.945	-35.724	-0.100	0.069
-519.931	-96.039	0.264	0.089
-518.916	-117.175	0.256	-0.059
-517.902	-151.864	-0.568	0.052
-516.887	-149.896	0.195	0.019
-515.872	24.296	0.304	0.319
-514.858	98.900	0.321	0.471
-513.843	-142.023	-0.282	0.035
-512.829	8.279	0.464	0.443
-511.814	-161.090	0.344	0.023
-510.799	-81.277	-0.584	-0.243
-509.785	-200.000	0.048	-0.302
-508.770	138.892	-0.120	-0.201
-507.756	-51.504	-0.219	0.129
-506.741	800.000	-0.120	-0.461
-505.726	43.991	-0.288	0.335
-504.712	800.000	-0.047	-0.214
-503.697	153.248	0.074	0.129
-502.683	174.514	-0.188	0.346
-501.668	-200.000	0.016	-0.178
-500.653	-150.345	0.522	0.050
-499.639	580.001	0.049	0.154
-498.624	-200.000	-0.015	0.313
-497.610	607.664	0.148	0.472
-496.595	-163.786	-0.239	0.014
-495.581	273.660	-0.045	0.101
-494.566	-24.964	0.225	0.169
-493.551	-99.989	0.559	0.176
-492.537	-59.220	0.021	-0.012
-491.522	-200.000	-0.044	0.903
-490.508	-176.194	-0.090	-0.003
-489.493	61.900	-0.243	0.307
-488.478	-160.710	0.394	-0.026
-487.464	-200.000	0.030	-0.234
-486.449	39.365	-0.021	0.024
-485.435	39.515	0.184	0.209
-484.420	2.979	0.206	-0.190
-483.405	-57.176	0.296	0.165
-482.391	-79.019	0.430	-0.185
-481.376	-13.275	-0.058	0.048
-480.362	-185.269	0.376	-0.007
-479.347	-200.000	0.033	-0.356
-478.332	143.634	-0.048	-0.081
-477.318	58.686	0.171	-0.213
-476.303	-200.000	-0.009	-0.158
-475.289	-140.688	0.153	-0.020
-474.274	-81.188	0.346	0.144
-473.259	-15.002	0.269	0.218
-472.245	-49.562	0.218	-0.131
-471.230	125.169	0.355	-0.568
-470.216	-22.226	-0.246	-0.189
-469.201	-200.000	-0.045	-0.460
-468.186	22.767	-0.041	0.043
-467.172	-64.682	0.175	-0.089
-466.157	210.503	0.263	0.524
-465.143	100.242	0.143	0.210
-464.128	-87.096	0.357	-0.137
-463.113	105.239	0.118	0.176
-462.099	-86.316	0.455	0.176
-461.084	0.747	0.499	-0.452
-460.070	-166.889	0.147	-0.008
-459.055	-31.530	0.644	-0.457
-458.040	233.680	0.178	-0.372
-457.026	-200.000	0.024	-0.425
-456.011	130.201	0.063	0.102
-454.997	30.245	-0.272	-0.294
-453.982	204.299	0.135	0.265
-452.968	-200.000	-0.048	-0.290
-451.953	87.660	0.256	-0.359
-450.938	12.561	0.287	0.280
-449.924	-33.528	-0.311	-0.217
-448.909	-58.956	0.456	-0.248
-447.895	-30.843	0.557	-0.398
-446.880	-200.000	0.043	-0.264
-445.865	-180.645	0.394	-0.010
-444.851	800.000	0.083	-0.320
-443.836	-54.409	-0.083	-0.048
-442.822	50.836	-0.295	-0.353
-441.807	-149.988	-0.267	-0.026
-440.792	167.340	-0.123	0.222
-439.778	-67.488	0.492	-0.243
-438.763	-138.656	0.230	-0.032
-437.749	-148.176	-0.113	0.012
-436.734	90.280	-0.179	0.253
-435.719	-153.352	-0.271	-0.024
-434.705	-200.000	0.009	0.190
-433.690	45.464	0.399	0.466
-432.676	800.000	-0.058	0.272
-431.661	-89.519	-0.389	0.144
-430.646	110.299	0.086	-0.131
-429.632	53.973	0.271	0.329
-428.617	-29.258	-0.096	-0.069
-427.603	-53.121	0.101	-0.059
-426.588	-132.962	-0.329	0.052
-425.573	43.466	-0.037	0.043
-424.559	75.371	0.191	0.255
-423.544	-118.479	-0.535	0.119
-422.530	-88.481	-0.585	0.219
-421.515	235.056	0.148	-0.311
-420.500	-79.042	-0.223	0.095
-419.486	800.000	-0.008	0.032
-418.471	39.801	-0.177	-0.200
-417.457	800.000	-0.047	-0.255
-416.442	-73.845	0.372	0.170
-415.428	-200.000	-0.009	-0.060
-414.413	-71.566	-0.767	0.361
-413.398	-73.180	0.143	-0.066
-412.384	-141.796	0.003	0.000
-411.369	-64.446	0.225	0.115
-410.355	-200.000	0.007	-0.046
-409.340	115.763	-0.339	0.525
-408.325	-65.926	-0.257	0.129
-407.311	-109.477	-0.491	-0.130
-406.296	-4.206	-0.423	-0.369
-405.282	-56.030	-0.220	0.123
-404.267	95.636	0.135	-0.195
-403.252	-37.126	-0.122	-0.082
-402.238	-1.367	0.185	-0.165
-401.223	-188.023	-0.308	-0.005
-400.209	73.009	-0.337	0.445
-399.194	-197.411	-0.196	0.002
-398.179	-121.145	-0.388	-0.081
-397.165	403.162	0.095	0.253
-396.150	224.330	0.161	-0.330
-395.136	77.109	-0.331	0.445
-394.121	-110.095	-0.389	0.102
-393.106	199.751	-0.192	0.373
-392.092	-200.000	-0.068	0.501
-391.077	-112.316	0.134	0.034
-390.063	182.031	0.132	0.246
-389.048	6.385	0.133	0.125
-388.033	-126.830	-0.463	-0.086
-387.019	-0.775	-0.195	0.174
-386.004	-19.741	0.299	-0.233
-384.990	182.843	-0.232	-0.433
-383.975	-28.675	0.237	-0.172
-382.960	-200.000	0.057	-0.395
-381.946	-200.000	-0.172	-0.001
-380.931	46.934	0.186	0.219
-379.917	-200.000	-0.017	0.230
-378.902	-14.404	-0.266	-0.216
-377.888	115.200	-0.324	-0.501
-376.873	-55.756	0.275	0.155
-375.858	-70.105	-0.201	0.096
-374.844	86.623	-0.135	0.188
-373.829	62.241	-0.232	-0.292
-372.815	-121.654	0.150	-0.031
-371.800	-200.000	-0.016	0.190
-370.785	-56.873	-0.259	0.144
-369.771	-66.519	-0.363	-0.181
-368.756	800.000	-0.077	-0.326
-367.742	609.486	-0.050	-0.158
-366.727	-9.905	-0.300	0.252
-365.712	47.591	-0.222	0.261
-364.698	-120.556	-0.093	-0.020
-363.683	102.442	0.148	-0.219
-362.669	-200.000	-0.004	-0.178
-361.654	-125.007	0.292	-0.056
-360.639	800.000	0.077	-0.410
-359.625	36.960	0.115	-0.129
-358.610	238.996	0.109	0.228
-357.596	-160.650	0.440	0.029
-356.581	64.956	0.256	-0.327
-355.566	800.000	0.105	-0.394
-354.552	32.712	-0.351	-0.383
-353.537	27.119	-0.191	-0.202
-352.523	-159.786	0.140	0.010
-351.508	-119.391	0.182	0.040
-350.493	19.431	0.191	0.193
-349.479	-59.184	0.475	0.257
-348.464	800.000	-0.128	0.463
-347.450	35.248	-0.433	0.478
-346.435	-200.000	0.014	0.245
-345.420	-35.380	-0.169	-0.116
-344.406	-12.699	-0.230	0.189
-343.391	-104.603	0.333	0.096
-342.377	37.640	0.197	0.220
-341.362	-32.285	-0.407	0.286
-340.348	-200.000	0.073	-1.095
-339.333	28.235	0.495	-0.527
-338.318	-98.605	-0.347	0.111
-337.304	-86.419	-0.379	0.146
-336.289	227.934	-0.024	0.049
-335.275	-137.094	0.154	-0.022
-334.260	-32.795	-0.037	0.026
-333.245	12.020	-0.115	0.112
-332.231	-89.595	-0.178	-0.066
-331.216	-200.000	-0.009	-0.289
-330.202	360.216	-0.028	0.070
-329.187	-132.684	-0.758	0.121
-328.172	-200.000	0.009	0.491
-327.158	-150.022	0.269	-0.026
-326.143	69.803	0.099	0.128
-325.129	-39.176	-0.151	0.100
-324.114	-200.000	0.014	0.366
-323.099	-140.421	0.242	0.031
-322.085	-111.941	0.208	-0.052
-321.070	-26.109	0.067	0.050
-320.056	94.085	0.097	-0.139
-319.041	176.938	-0.230	-0.422
-318.026	166.982	0.072	-0.128
-317.012	-113.327	0.133	0.033
-315.997	-200.000	0.007	-0.056
-314.983	228.087	-0.165	-0.338
-313.968	-37.080	-0.313	0.211
-312.953	-32.526	0.396	0.277
-311.939	154.953	0.192	-0.334
-310.924	-153.202	0.222	-0.019
-309.910	-90.606	-0.072	-0.026
-308.895	361.257	-0.064	0.162
-307.880	-1.142	0.097	-0.086
-306.866	-188.427	-0.210	0.003
-305.851	327.072	-0.101	-0.245
-304.837	-19.177	0.176	-0.137
-303.822	-139.689	0.377	-0.050
-302.807	-112.288	-0.184	-0.046
-301.793	-130.076	-0.215	0.037
-300.778	174.878	-0.214	0.390
-299.764	-200.000	0.046	-0.300
-298.749	-59.777	0.162	-0.087
-297.735	-56.388	-0.456	-0.254
-296.720	-63.201	-0.268	0.138
-295.705	-67.755	0.428	0.210
-294.691	-125.015	0.417	-0.080
-293.676	-3.122	-0.176	-0.154
-292.662	-135.773	-0.099	-0.015
-291.647	135.142	-0.143	-0.235
-290.632	121.600	0.076	-0.120
-289.618	800.000	-0.017	-0.062
-288.603	141.416	-0.157	0.261
-287.589	-13.384	0.278	0.227
-286.574	-78.573	0.291	0.125
-285.559	-119.639	-0.522	-0.113
-284.545	-86.899	0.345	0.132
-283.530	112.193	0.122	0.185
-282.516	800.000	-0.085	-0.358
-281.501	-31.429	0.500	0.353
-280.486	-17.823	0.054	-0.043
-279.472	-174.747	-0.378	0.013
-278.457	342.875	-0.079	0.196
-277.443	-143.200	-0.438	0.052
-276.428	14.922	0.145	0.143
-275.413	80.722	0.172	-0.233
-274.399	189.386	-0.249	0.470
-273.384	72.944	-0.146	0.192
-272.370	-29.315	-0.617	-0.443
-271.355	142.354	-0.270	-0.451
-270.340	-142.816	0.096	0.012
-269.326	-87.280	-0.170	0.064
-268.311	-52.607	-0.316	-0.183
-267.297	312.611	0.204	0.484
-266.282	800.000	-0.045	-0.210
-265.267	800.000	0.064	-0.260
-264.253	-50.548	-0.110	0.065
-263.238	531.933	-0.119	0.354
-262.224	-200.000	-0.015	0.118
-261.209	-200.000	0.008	0.448
-260.195	-11.318	-0.213	0.176
-259.180	476.767	0.046	0.130
-258.165	-200.000	0.026	-0.271
-257.151	206.116	0.243	0.477
-256.136	-101.795	-0.294	0.089
-255.122	-200.000	-0.017	0.409
-254.107	-85.851	0.276	0.107
-253.092	800.000	0.110	0.477
-252.078	-200.000	0.085	0.519
-251.063	126.359	0.185	0.295
-250.049	800.000	0.096	0.341
-249.034	-119.500	-0.503	0.109
-248.019	-200.000	0.009	0.051
-247.005	26.903	-0.485	-0.510
-245.990	-74.575	-0.122	-0.055
-244.976	800.000	-0.032	-0.139
-243.961	77.565	0.465	0.623
-242.946	-134.557	-0.248	-0.038
-241.932	-200.000	0.005	-0.311
-240.917	-56.021	0.196	-0.109
-239.903	-197.475	0.187	0.001
-238.888	-71.388	-0.253	0.118
-237.873	-200.000	-0.002	0.230
-236.859	-4.030	0.179	-0.156
-235.844	-77.174	-0.430	0.187
-234.830	800.000	0.156	0.548
-233.815	-21.626	0.543	0.414
-232.800	-133.369	-0.353	0.055
-231.786	306.112	-0.038	0.089
-230.771	-200.000	0.041	0.266
-229.757	4.744	-0.115	0.106
-228.742	-114.012	-0.475	-0.115
-227.727	-200.000	0.023	-0.210
-226.713	67.608	0.184	-0.236
-225.698	-64.506	-0.400	0.203
-224.684	-75.653	-0.021	-0.009
-223.669	94.397	0.253	-0.361
-222.655	-37.750	0.199	0.132
-221.640	800.000	-0.039	0.140
-220.625	277.730	-0.133	-0.298
-219.611	-9.419	-0.137	0.115
-218.596	-46.152	-0.211	0.130
-217.582	66.356	-0.195	-0.248
-216.567	268.724	-0.113	0.249
-215.552	114.559	-0.167	0.256
-214.538	-138.146	0.226	0.031
-213.523	210.588	0.348	-0.687
-212.509	0.607	0.108	0.097
-211.494	-131.499	-0.537	-0.088
-210.479	58.268	-0.067	-0.082
-209.465	800.000	0.068	-0.292
-208.450	-112.650	0.496	-0.123
-207.436	38.897	0.189	0.212
-206.421	387.564	0.105	-0.274
-205.406	-82.145	0.054	-0.022
-204.392	-37.224	-0.296	-0.198
-203.377	77.033	0.311	0.415
-202.363	-149.178	0.530	0.053
-201.348	-54.861	0.160	0.090
-200.333	-127.998	0.371	-0.066
-199.319	671.844	0.165	0.538
-198.304	288.114	-0.174	0.397
-197.290	369.486	-0.026	0.067
-196.275	305.494	0.165	-0.386
-195.260	104.281	-0.096	-0.142
-194.246	-90.252	-0.058	0.021
-193.231	-40.585	-0.107	-0.069
-192.217	-20.894	-0.298	0.229
-191.202	-52.342	-0.099	0.057
-190.187	318.353	0.200	-0.478
-189.173	-25.369	0.234	0.173
-188.158	192.909	0.119	-0.226
-187.144	31.179	-0.312	0.335
-186.129	-48.703	-0.102	-0.061
-185.114	-200.000	0.674	-0.002
-184.100	60.415	-0.167	-0.208
-183.085	-200.000	0.047	-0.453
-182.071	-188.410	0.366	0.006
-181.056	-200.000	0.030	0.355
-180.042	88.828	0.112	0.156
-179.027	-143.936	-0.352	-0.041
-178.012	-125.432	0.100	0.019
-176.998	-163.981	0.601	-0.034
-175.983	-24.327	0.410	-0.306
-174.969	64.585	0.107	-0.135
-173.954	117.925	-0.230	-0.356
-172.939	800.000	0.037	-0.156
-171.925	6.807	0.296	0.275
-170.910	-123.676	-0.143	0.028
-169.896	-200.000	0.029	0.204
-168.881	142.687	0.231	0.386
-167.866	-151.569	0.406	0.037
-166.852	800.000	0.095	-0.465
-165.837	-78.668	-0.093	-0.040
-164.823	21.281	0.131	-0.133
-163.808	263.304	-0.213	0.465
-162.793	-125.572	0.533	-0.100
-161.779	145.519	0.202	-0.339
-160.764	-107.549	0.564	-0.153
-159.750	134.888	0.212	0.345
-158.735	-200.000	-0.032	0.603
-157.720	576.850	-0.102	0.314
-156.706	97.580	-0.051	0.073
-155.691	-200.000	-0.042	-0.305
-154.677	388.982	0.174	0.454
-153.662	506.947	0.172	-0.502
-152.647	-200.000	-0.017	0.248
-151.633	288.693	-0.142	-0.324
-150.618	-22.588	0.159	0.120
-149.604	-82.516	0.033	-0.013
-148.589	800.000	-0.152	-0.705
-147.574	-64.751	-0.683	0.345
-146.560	-124.050	-0.115	-0.022
-145.545	-194.634	0.259	0.002
-144.531	90.954	0.175	-0.246
-143.516	-89.038	0.453	0.167
-142.502	-74.981	-0.245	0.109
-141.487	-37.058	-0.459	-0.306
-140.472	-126.996	-0.456	-0.083
-139.458	-0.464	-0.404	-0.359
-138.443	218.092	0.085	-0.171
-137.429	-200.000	-0.011	0.227
-136.414	126.324	0.148	0.234
-135.399	-9.918	0.522	0.434
-134.385	359.214	0.097	0.242
-133.370	144.066	-0.095	0.159
-132.356	698.930	0.065	0.215
-131.341	-111.566	-0.526	-0.133
-130.326	-108.424	-0.346	-0.093
-129.312	800.000	0.066	0.258
-128.297	-176.987	0.263	-0.008
-127.283	119.652	0.154	-0.239
-126.268	-103.917	0.281	0.081
-125.253	309.019	-0.042	-0.098
-124.239	403.797	-0.029	-0.076
-123.224	-90.547	-0.116	-0.042
-122.210	-96.222	0.088	0.029
-121.195	234.084	-0.156	-0.323
