DTS Sentinel unit serial number:	SN409020Multiplexer serial number:	ORYXHardware model number:	OX4-SRSoftware version number:	ORYX F/W v3.00 Oryx Data Collector v3.7.2.0data status	okinstallation	HaddamTimeLapsedifferential loss correction	single-endedforward channel	channel 3reverse channel	N/Adate	2011/06/22time	11:31:01forward acquisition time	30.00reverse acquisition time	0.00gamma	498.7831k internal	0.1756k external	0.1756temperature offset calibration	1.0074default loss term (dB/km)	0.3790temperature slope calibration	1.3530multiplexer offset coefficient	1.0000multiplexer slope coefficient	1.0000fibre end	0.00T internal ref (°C)	28.50T ext. ref 1 (°C)	23.45T ext. ref 2 (°C)	-0.09length (m)	temperature (°C)	Stokes	anti-Stokes-747.200	47.347	-0.330	0.408
-746.185	800.000	0.127	0.621
-745.171	-148.851	-0.561	0.059
-744.156	158.479	-0.229	0.421
-743.142	-173.601	-0.197	-0.008
-742.127	800.000	-0.083	0.327
-741.112	338.760	-0.049	-0.126
-740.098	307.645	0.106	0.262
-739.083	57.970	-0.368	-0.478
-738.069	143.118	-0.096	0.169
-737.054	-22.796	-0.445	0.355
-736.039	198.456	-0.171	0.348
-735.025	5.063	0.701	0.683
-734.010	-25.590	0.256	-0.199
-732.996	-200.000	0.045	-0.668
-731.981	800.000	0.125	-0.586
-730.966	800.000	0.066	0.283
-729.952	-178.051	-0.257	0.008
-728.937	-25.661	-0.423	0.330
-727.923	-91.770	-0.353	-0.132
-726.908	159.634	-0.096	0.178
-725.894	-47.748	-0.042	-0.027
-724.879	-71.345	-0.145	0.072
-723.864	-200.000	0.024	-0.266
-722.850	-62.358	-0.460	-0.252
-721.835	-25.016	-0.102	0.080
-720.821	-100.203	-0.098	-0.032
-719.806	-35.121	-0.217	-0.156
-718.791	-87.089	0.301	0.120
-717.777	-160.965	0.338	-0.023
-716.762	185.992	0.233	-0.460
-715.748	-131.256	-0.245	0.043
-714.733	-50.922	-0.317	-0.196
-713.718	-132.163	-0.574	-0.098
-712.704	-4.818	-0.379	0.345
-711.689	-200.000	0.053	-0.377
-710.675	-99.574	-0.354	-0.117
-709.660	-54.223	0.185	-0.111
-708.645	-81.895	-0.220	-0.095
-707.631	53.536	-0.117	-0.148
-706.616	-23.067	0.188	0.150
-705.602	-159.978	0.067	-0.005
-704.587	-64.286	-0.422	-0.227
-703.572	-6.180	-0.185	-0.167
-702.558	-138.133	-0.754	0.110
-701.543	164.400	-0.110	0.205
-700.529	77.301	0.179	-0.252
-699.514	-200.000	-0.010	-0.162
-698.499	753.095	-0.060	0.215
-697.485	-24.455	0.378	0.298
-696.470	358.202	0.177	-0.470
-695.456	800.000	0.123	0.480
-694.441	-74.275	0.074	-0.035
-693.426	-10.064	0.367	-0.322
-692.412	142.792	0.059	-0.104
-691.397	60.054	-0.235	-0.307
-690.383	-136.672	-0.568	-0.086
-689.368	4.105	-0.261	-0.252
-688.354	-69.604	-0.159	0.080
-687.339	-5.903	0.100	-0.091
-686.324	523.222	-0.243	0.758
-685.310	35.750	-0.260	-0.303
-684.295	8.199	0.153	-0.152
-683.281	-48.487	0.120	0.076
-682.266	-200.000	0.013	-0.316
-681.251	-66.736	-0.381	-0.199
-680.237	-106.141	-0.452	0.133
-679.222	-117.447	-0.258	-0.061
-678.208	-170.407	0.233	0.011
-677.193	101.871	-0.108	-0.167
-676.178	800.000	0.088	-0.340
-675.164	62.864	-0.259	0.343
-674.149	66.061	0.236	-0.317
-673.135	90.599	0.390	-0.578
-672.120	-78.451	0.223	0.101
-671.105	-124.191	-0.428	0.088
-670.091	-105.680	0.413	0.123
-669.076	289.316	-0.136	-0.327
-668.062	-171.351	-0.702	0.031
-667.047	39.969	-0.236	0.280
-666.032	-149.987	-0.347	0.035
-665.018	-140.317	-0.133	-0.018
-664.003	16.963	-0.314	-0.328
-662.989	16.879	0.488	0.511
-661.974	5.433	-0.544	0.530
-660.959	800.000	0.101	0.533
-659.945	-125.542	-0.083	-0.016
-658.930	182.431	-0.076	0.149
-657.916	359.614	0.061	0.162
-656.901	-44.387	0.425	-0.280
-655.886	-132.496	-0.084	-0.014
-654.872	-107.585	-0.138	0.040
-653.857	-107.961	0.119	-0.034
-652.843	-73.139	0.536	-0.258
-651.828	71.256	-0.131	-0.179
-650.814	-124.851	-0.269	0.054
-649.799	-149.115	-0.553	0.058
-648.784	8.706	-0.126	-0.126
-647.770	-121.594	0.167	-0.036
-646.755	6.573	0.334	0.328
-645.741	-160.806	-0.234	-0.016
-644.726	-200.000	0.001	0.241
-643.711	-99.595	0.179	0.059
-642.697	-200.000	-0.003	-0.363
-641.682	-200.000	0.056	-0.460
-640.668	800.000	-0.049	0.268
-639.653	-200.000	0.017	-0.141
-638.638	-78.192	-0.444	-0.201
-637.624	800.000	-0.052	0.210
-636.609	-145.316	0.168	0.020
-635.595	249.623	0.051	-0.114
-634.580	-199.461	0.445	0.003
-633.565	0.861	-0.069	-0.065
-632.551	115.745	-0.178	-0.288
-631.536	318.883	0.094	-0.236
-630.522	202.945	-0.232	-0.474
-629.507	70.680	0.240	0.328
-628.492	-30.291	0.265	-0.198
-627.478	-45.048	0.351	-0.230
-626.463	-80.903	0.278	0.121
-625.449	-24.208	0.459	-0.360
-624.434	-163.350	-0.496	-0.031
-623.419	-119.703	0.319	-0.072
-622.405	175.892	0.067	-0.129
-621.390	-184.439	-0.268	0.006
-620.376	-70.243	0.538	0.268
-619.361	378.833	0.210	0.570
-618.346	50.722	0.127	0.158
-617.332	122.949	-0.157	0.260
-616.317	40.970	-0.188	-0.224
-615.303	97.256	-0.151	0.229
-614.288	207.354	-0.094	-0.193
-613.273	-39.706	-0.180	-0.123
-612.259	-200.000	0.030	0.264
-611.244	-129.442	0.557	-0.101
-610.230	-96.336	0.202	0.070
-609.215	201.986	0.279	0.569
-608.201	-177.259	-0.621	-0.020
-607.186	-128.452	0.184	-0.034
-606.171	-57.970	0.135	0.078
-605.157	231.597	0.128	-0.278
-604.142	-100.807	-0.260	0.084
-603.128	-35.420	-0.508	0.363
-602.113	-200.000	-0.053	0.338
-601.098	473.747	0.133	0.398
-600.084	160.309	0.095	-0.175
-599.069	-200.000	0.053	0.000
-598.055	800.000	0.021	0.084
-597.040	-200.000	-0.025	-0.323
-596.025	-99.646	-0.066	-0.022
-595.011	545.102	-0.163	-0.515
-593.996	219.668	-0.203	-0.431
-592.982	-35.470	-0.348	-0.248
-591.967	266.795	-0.101	0.233
-590.952	-7.333	-0.183	-0.163
-589.938	-25.577	0.176	0.137
-588.923	800.000	0.034	0.165
-587.909	-128.642	0.352	-0.065
-586.894	-109.731	0.192	0.053
-585.879	800.000	0.040	0.184
-584.865	-97.681	0.754	0.256
-583.850	-200.000	-0.029	-0.252
-582.836	-34.963	0.307	0.220
-581.821	112.829	0.169	-0.270
-580.806	-62.100	-0.301	0.165
-579.792	-136.242	0.234	0.036
-578.777	-126.953	-0.141	-0.027
-577.763	-155.145	0.136	0.012
-576.748	274.045	-0.027	0.064
-575.733	-112.453	-0.295	-0.077
-574.719	-139.452	0.398	0.056
-573.704	-147.106	-0.107	0.012
-572.690	100.944	-0.249	0.382
-571.675	-102.162	0.565	-0.178
-570.661	239.651	0.160	0.353
-569.646	800.000	-0.107	0.504
-568.631	55.446	0.129	0.165
-567.617	-70.091	-0.256	0.128
-566.602	-26.285	0.076	-0.059
-565.588	-112.191	-0.091	0.024
-564.573	-73.291	-0.699	0.335
-563.558	205.531	0.156	0.319
-562.544	-200.000	0.039	0.621
-561.529	800.000	-0.085	-0.352
-560.515	160.588	-0.268	-0.494
-559.500	-113.938	-0.408	0.103
-558.485	12.611	-0.238	0.241
-557.471	-46.477	0.504	-0.325
-556.456	-1.831	0.277	0.256
-555.442	-200.000	-0.001	-0.243
-554.427	8.210	0.158	-0.156
-553.412	494.511	-0.068	-0.207
-552.398	-147.099	0.381	0.042
-551.383	-16.799	0.210	0.174
-550.369	240.150	-0.067	-0.146
-549.354	-148.615	0.282	0.030
-548.339	-79.891	-0.098	0.043
-547.325	-45.339	0.230	-0.150
-546.310	304.423	-0.087	-0.214
-545.296	59.878	-0.088	-0.114
-544.281	-18.150	-0.369	-0.303
-543.266	205.287	-0.076	0.155
-542.252	-160.688	-0.640	-0.044
-541.237	-175.155	-0.244	-0.009
-540.223	-181.243	0.183	0.005
-539.208	56.973	0.188	0.241
-538.193	-72.450	-0.130	0.063
-537.179	0.451	-0.310	0.291
-536.164	800.000	0.102	0.482
-535.150	176.321	0.104	-0.199
-534.135	467.999	0.173	-0.512
-533.121	800.000	-0.053	-0.303
-532.106	21.231	-0.415	-0.443
-531.091	-125.075	0.153	-0.031
-530.077	800.000	0.098	-0.482
-529.062	187.243	-0.251	-0.492
-528.048	-24.264	-0.166	0.130
-527.033	203.884	-0.178	-0.363
-526.018	-104.113	-0.337	-0.102
-525.004	-11.451	-0.150	-0.129
-523.989	-200.000	-0.048	0.664
-522.975	-1.007	-0.273	0.254
-521.960	7.799	-0.405	0.398
-520.945	-191.624	0.195	0.002
-519.931	800.000	-0.035	-0.144
-518.916	-137.130	-0.031	0.005
-517.902	-50.590	-0.156	-0.096
-516.887	296.463	-0.092	0.223
-515.872	-86.973	-0.055	-0.022
-514.858	-62.789	-0.126	-0.069
-513.843	-118.185	-0.167	-0.039
-512.829	800.000	0.063	0.361
-511.814	-200.000	-0.026	0.214
-510.799	29.620	-0.154	-0.172
-509.785	-83.774	-0.428	0.178
-508.770	-200.000	0.011	-0.290
-507.756	-27.376	0.150	-0.114
-506.741	-56.848	-0.258	0.149
-505.726	-200.000	0.040	0.358
-504.712	800.000	0.151	0.682
-503.697	184.096	-0.085	-0.166
-502.683	422.030	0.129	-0.364
-501.668	-92.271	-0.146	0.054
-500.653	-22.890	-0.187	-0.148
-499.639	-73.612	-0.085	0.040
-498.624	-200.000	0.039	-0.245
-497.610	27.585	-0.223	0.246
-496.595	326.282	0.121	-0.307
-495.581	800.000	-0.025	-0.125
-494.566	-200.000	-0.199	0.000
-493.551	-43.177	0.222	0.147
-492.537	36.217	-0.278	0.321
-491.522	688.328	-0.066	0.227
-490.508	-200.000	0.021	0.290
-489.493	210.428	-0.089	0.185
-488.478	18.452	0.315	0.330
-487.464	-200.000	0.244	-0.000
-486.449	800.000	-0.097	0.507
-485.435	296.473	0.202	0.487
-484.420	-80.922	0.291	-0.126
-483.405	-101.507	0.326	-0.103
-482.391	-77.692	0.213	-0.096
-481.376	56.451	-0.329	-0.420
-480.362	800.000	-0.078	-0.370
-479.347	166.333	0.100	0.187
-478.332	16.863	-0.173	0.179
-477.318	-51.489	-0.343	0.209
-476.303	-163.816	-0.251	0.015
-475.289	-95.884	0.654	-0.227
-474.274	-162.195	-0.318	-0.021
-473.259	80.068	-0.184	0.259
-472.245	-144.606	0.014	0.002
-471.230	-158.582	-0.328	0.024
-470.216	800.000	-0.104	0.458
-469.201	-30.096	-0.314	0.234
-468.186	23.444	0.336	-0.362
-467.172	160.744	0.059	0.109
-466.157	301.225	-0.128	0.312
-465.143	106.225	0.246	0.382
-464.128	661.339	0.049	0.168
-463.113	-35.467	-0.179	-0.127
-462.099	-200.000	0.065	-0.650
-461.084	800.000	-0.037	-0.198
-460.070	-200.000	0.001	0.500
-459.055	-56.358	-0.199	-0.115
-458.040	-102.055	-0.519	-0.163
-457.026	-27.079	-0.306	-0.233
-456.011	-73.699	0.546	-0.259
-454.997	-62.685	0.238	-0.129
-453.982	-200.000	0.008	-0.367
-452.968	-48.778	-0.350	0.220
-451.953	123.151	0.199	0.327
-450.938	85.457	-0.094	0.135
-449.924	800.000	-0.032	0.182
-448.909	-150.135	0.289	0.029
-447.895	-4.945	-0.229	0.207
-446.880	-3.344	0.125	0.114
-445.865	16.730	-0.187	-0.193
-444.851	-150.709	-0.242	-0.024
-443.836	-149.723	0.656	-0.067
-442.822	-14.400	-0.352	0.296
-441.807	-200.000	0.036	0.252
-440.792	-113.385	-0.689	-0.176
-439.778	800.000	0.043	-0.169
-438.763	800.000	0.042	0.217
-437.749	-139.350	-0.313	0.044
-436.734	-117.795	0.112	0.026
-435.719	800.000	-0.120	-0.510
-434.705	-97.617	-0.172	0.058
-433.690	-130.994	-0.541	0.094
-432.676	89.758	0.232	0.339
-431.661	-162.835	-0.163	0.010
-430.646	-25.783	0.273	-0.210
-429.632	-56.681	-0.561	-0.324
-428.617	114.929	0.139	-0.222
-427.603	-55.096	0.318	-0.187
-426.588	800.000	0.007	-0.037
-425.573	22.665	0.168	-0.180
-424.559	-84.592	-0.196	0.081
-423.544	-38.986	-0.337	0.231
-422.530	800.000	-0.021	-0.120
-421.515	-200.000	-0.005	0.033
-420.500	-104.729	0.310	0.093
-419.486	380.509	-0.072	-0.193
-418.471	-39.557	0.345	0.236
-417.457	62.873	0.148	-0.194
-416.442	-200.000	0.052	-0.401
-415.428	34.375	0.151	0.172
-414.413	-77.676	-0.256	0.115
-413.398	-200.000	0.037	0.307
-412.384	33.379	0.155	0.176
-411.369	-91.063	0.302	0.113
-410.355	14.957	0.380	-0.389
-409.340	-96.371	0.110	-0.038
-408.325	-56.243	-0.115	-0.067
-407.311	429.800	0.083	-0.236
-406.296	134.753	0.200	0.340
-405.282	335.115	0.023	-0.058
-404.267	-83.129	0.486	-0.204
-403.252	380.239	0.068	0.183
-402.238	342.365	0.136	0.349
-401.223	-118.783	0.315	0.072
-400.209	160.010	0.083	0.152
-399.194	-178.612	-0.357	0.011
-398.179	-46.419	0.380	0.243
-397.165	-33.932	0.319	0.229
-396.150	-102.258	-0.270	-0.084
-395.136	34.243	-0.298	-0.340
-394.121	800.000	0.061	0.251
-393.106	174.550	0.300	-0.568
-392.092	38.910	-0.184	-0.215
-391.077	-134.073	0.192	0.031
-390.063	-11.589	-0.150	0.129
-389.048	-74.742	0.113	-0.053
-388.033	5.200	0.036	-0.035
-387.019	-200.000	-0.008	-0.105
-386.004	37.128	0.212	0.246
-384.990	8.747	0.344	0.339
-383.975	-7.863	-0.059	-0.052
-382.960	-200.000	0.014	-0.331
-381.946	19.089	0.051	-0.054
-380.931	215.178	-0.197	0.410
-379.917	70.725	0.368	-0.498
-378.902	-125.882	-0.423	0.083
-377.888	-200.000	-0.072	-0.462
-376.873	-169.739	-0.269	-0.013
-375.858	-129.668	-0.284	0.051
-374.844	-121.704	-0.388	-0.083
-373.829	-123.463	0.024	-0.005
-372.815	-140.270	-0.334	-0.045
-371.800	-200.000	0.029	0.332
-370.785	83.898	-0.042	0.060
-369.771	-91.590	0.365	-0.135
-368.756	48.066	-0.012	0.014
-367.742	-23.247	0.292	-0.229
-366.727	-54.670	0.380	-0.223
-365.712	189.816	0.111	-0.219
-364.698	-200.000	-0.048	-0.279
-363.683	-139.350	0.434	0.060
-362.669	-18.248	-0.440	0.358
-361.654	-200.000	0.010	-0.109
-360.639	-79.940	-0.159	-0.069
-359.625	-22.023	0.181	0.143
-358.610	383.895	-0.167	0.451
-357.596	-158.854	0.535	0.039
-356.581	800.000	0.025	0.136
-355.566	-55.550	-0.146	0.085
-354.552	-200.000	0.001	0.412
-353.537	-200.000	0.037	0.391
-352.523	-39.789	-0.034	0.023
-351.508	365.354	0.077	0.202
-350.493	129.337	0.093	-0.155
-349.479	-2.276	-0.201	-0.184
-348.464	-55.957	0.099	-0.057
-347.450	-148.293	-0.152	-0.016
-346.435	241.996	0.027	0.059
-345.420	-25.046	-0.206	-0.159
-344.406	112.528	-0.318	0.502
-343.391	46.630	-0.139	-0.168
-342.377	-44.386	-0.241	-0.157
-341.362	640.428	0.061	-0.203
-340.348	-95.584	-0.344	0.120
-339.333	-132.316	-0.187	-0.031
-338.318	-82.026	0.119	0.051
-337.304	81.011	0.211	0.298
-336.289	-112.128	0.600	0.156
-335.275	100.676	0.033	0.050
-334.260	1.936	0.265	-0.249
-333.245	137.305	0.179	-0.305
-332.231	45.437	-0.104	-0.125
-331.216	-57.007	0.352	0.202
-330.202	-86.656	0.238	0.095
-329.187	-112.214	0.300	-0.078
-328.172	-29.944	0.400	-0.297
-327.158	72.540	0.375	-0.510
-326.143	318.098	0.131	0.324
-325.129	-26.635	0.232	-0.176
-324.114	670.582	0.047	0.161
-323.099	-136.443	-0.305	-0.046
-322.085	-46.510	-0.061	-0.039
-321.070	-114.443	0.239	-0.059
-320.056	419.518	0.087	0.244
-319.041	-200.000	-0.032	-0.210
-318.026	-200.000	-0.007	-0.049
-317.012	-114.588	-0.311	-0.077
-315.997	355.962	-0.124	0.324
-314.983	-140.099	-0.612	-0.083
-313.968	-44.662	-0.453	0.294
-312.953	800.000	-0.030	0.150
-311.939	-95.797	0.239	-0.083
-310.924	67.898	-0.126	0.168
-309.910	-157.969	0.732	-0.055
-308.895	50.476	0.311	-0.383
-307.880	-200.000	-0.043	-0.336
-306.866	78.957	-0.204	-0.285
-305.851	475.759	0.170	0.502
-304.837	-85.758	0.113	-0.045
-303.822	-65.952	0.507	0.263
-302.807	24.460	0.281	0.303
-301.793	0.108	-0.172	-0.159
-300.778	95.446	0.254	0.378
-299.764	-21.505	-0.117	0.093
-298.749	92.750	0.152	-0.224
-297.735	-35.759	0.317	-0.223
-296.720	-200.000	0.088	-0.726
-295.705	-101.812	-0.121	-0.038
-294.691	-167.559	0.172	0.009
-293.676	-163.344	-0.396	0.024
-292.662	-70.608	0.450	-0.221
-291.647	-5.019	0.040	-0.036
-290.632	44.623	-0.097	-0.117
-289.618	-139.359	0.448	-0.062
-288.603	-56.889	0.332	-0.190
-287.589	-98.510	0.356	0.118
-286.574	88.609	0.213	0.309
-285.559	-93.392	-0.192	0.069
-284.545	-36.025	0.269	-0.189
-283.530	-82.384	0.377	0.159
-282.516	-200.000	-0.017	-0.354
-281.501	-35.268	-0.406	0.287
-280.486	-200.000	-0.008	0.747
-279.472	-39.094	-0.278	-0.190
-278.457	96.721	-0.225	-0.336
-277.443	26.970	0.269	0.293
-276.428	713.502	0.027	0.094
-275.413	-59.561	0.314	-0.175
-274.399	117.493	0.083	0.133
-273.384	-17.905	-0.627	-0.511
-272.370	40.344	-0.084	-0.099
-271.355	78.622	0.127	0.177
-270.340	13.722	0.272	-0.275
-269.326	-99.715	-0.537	-0.174
-268.311	-136.006	-0.530	0.080
-267.297	800.000	-0.150	0.610
-266.282	88.560	-0.159	-0.231
-265.267	-200.000	0.028	-0.191
-264.253	800.000	-0.080	0.360
-263.238	91.669	0.286	0.419
-262.224	103.503	-0.159	-0.244
-261.209	175.860	0.186	-0.352
-260.195	800.000	-0.038	0.192
-259.180	283.049	-0.168	0.395
-258.165	-81.793	-0.701	0.297
-257.151	660.487	0.271	0.912
-256.136	-200.000	0.001	0.472
-255.122	78.412	-0.164	0.229
-254.107	255.003	0.198	-0.443
-253.092	34.948	0.134	0.153
-252.078	800.000	-0.063	0.233
-251.063	28.504	0.127	-0.139
-250.049	105.624	-0.267	0.410
-249.034	-85.480	-0.082	-0.033
-248.019	-200.000	-0.042	0.361
-247.005	-200.000	0.015	0.103
-245.990	800.000	-0.082	0.439
-244.976	92.618	0.213	-0.312
-243.961	148.629	-0.189	-0.332
-242.946	61.271	0.127	0.164
-241.932	-119.811	0.290	0.064
-240.917	-122.746	-0.115	-0.024
-239.903	-29.260	0.292	-0.217
-238.888	-73.479	-0.212	-0.100
-237.873	696.629	0.092	-0.317
-236.859	800.000	-0.032	0.175
-235.844	152.201	0.262	0.465
-234.830	80.976	-0.124	-0.174
-233.815	-177.232	0.517	0.016
-232.800	800.000	-0.023	-0.124
-231.786	-3.160	0.222	-0.201
-230.771	49.013	0.221	0.270
-229.757	61.856	-0.194	-0.251
-228.742	-16.651	0.055	0.045
-227.727	800.000	0.080	-0.415
-226.713	-200.000	0.001	-0.124
-225.698	-79.633	-0.285	-0.124
-224.684	-129.126	-0.252	0.045
-223.669	190.386	0.219	0.428
-222.655	-200.000	-0.035	-0.218
-221.640	-88.072	-0.239	-0.093
-220.625	-30.933	-0.234	0.171
-219.611	-138.177	-0.274	-0.039
-218.596	-9.485	0.121	0.105
-217.582	9.762	0.148	0.146
-216.567	575.498	-0.014	0.044
-215.552	800.000	-0.022	-0.083
-214.538	-200.000	0.054	-0.443
-213.523	3.248	-0.178	0.168
-212.509	-150.103	0.351	-0.035
-211.494	-62.177	-0.139	-0.075
-210.479	-124.843	0.159	-0.032
-209.465	-200.000	0.069	-0.532
-208.450	-200.000	0.019	-0.136
-207.436	258.242	-0.071	0.160
-206.421	-69.768	-0.348	0.172
-205.406	800.000	0.014	0.070
-204.392	358.412	0.230	-0.599
-203.377	-200.000	-0.073	-0.543
-202.363	-126.905	-0.237	0.045
-201.348	-98.505	-0.310	-0.102
-200.333	-34.594	-0.323	-0.229
-199.319	17.292	-0.162	-0.166
-198.304	217.920	-0.217	-0.451
-197.290	-28.291	-0.064	0.048
-196.275	-61.831	0.056	0.030
-195.260	454.290	-0.052	0.151
-194.246	11.209	-0.048	0.048
-193.231	800.000	0.054	-0.249
-192.217	-91.250	0.498	0.184
-191.202	-82.340	-0.324	-0.136
-190.187	18.226	-0.112	-0.116
-189.173	-41.318	0.368	-0.246
-188.158	-99.249	-0.626	0.204
-187.144	-26.929	-0.264	0.200
-186.129	90.209	-0.255	0.370
-185.114	-42.295	-0.045	-0.030
-184.100	112.086	0.173	-0.271
-183.085	170.067	0.144	-0.267
-182.071	800.000	0.093	0.349
-181.056	-60.091	-0.106	0.058
-180.042	-200.000	-0.026	-0.410
-179.027	67.887	0.474	-0.629
-178.012	-200.000	-0.039	-0.328
-176.998	-59.433	-0.336	0.187
-175.983	-64.547	0.333	0.175
-174.969	380.748	-0.130	-0.347
-173.954	37.804	0.273	-0.315
-172.939	226.261	0.141	0.298
-171.925	-200.000	-0.030	0.359
-170.910	12.346	-0.286	0.285
-169.896	-22.478	0.171	-0.134
-168.881	-46.725	0.181	0.115
-167.866	227.083	-0.154	0.326
-166.852	549.945	0.084	0.262
-165.837	230.270	-0.104	-0.220
-164.823	111.819	-0.144	-0.226
-163.808	-200.000	-0.012	0.255
-162.793	-116.605	-0.363	-0.086
-161.779	-17.302	0.224	-0.182
-160.764	-85.356	-0.267	0.107
-159.750	530.281	-0.083	-0.256
-158.735	-200.000	-0.035	-0.344
-157.720	-200.000	0.083	-0.656
-156.706	180.603	-0.126	0.241
-155.691	233.042	0.203	-0.434
-154.677	82.506	-0.248	-0.348
-153.662	-120.224	-0.200	0.044
-152.647	118.711	0.173	-0.277
-151.633	567.329	0.047	0.148
-150.618	-135.074	0.295	0.046
-149.604	-62.108	-0.216	-0.116
-148.589	-123.858	-0.349	0.071
-147.574	-200.000	0.016	-0.205
-146.560	-200.000	-0.013	-0.293
-145.545	-126.085	0.597	-0.115
-144.531	800.000	-0.046	-0.237
-143.516	-50.222	-0.265	0.162
-142.502	-42.154	-0.200	-0.132
-141.487	-80.790	0.120	-0.052
-140.472	417.180	-0.108	-0.300
-139.458	-34.071	-0.414	0.294
-138.443	0.178	-0.335	0.309
-137.429	-8.515	0.368	0.320
-136.414	-200.000	0.003	-0.034
-135.399	-119.561	-0.037	-0.008
-134.385	800.000	0.021	-0.091
-133.370	-45.233	0.634	-0.406
-132.356	191.668	0.118	0.231
-131.341	-123.830	-0.264	0.053
-130.326	-200.000	0.009	-0.364
-129.312	115.907	0.121	0.192
-128.297	-160.550	0.045	-0.003
-127.283	-67.120	-0.103	0.052
-126.268	180.369	-0.118	0.225
-125.253	358.399	-0.199	0.516
-124.239	-200.000	0.036	0.217
-123.224	14.451	0.274	0.276
-122.210	-25.685	-0.249	0.190
-121.195	-63.539	0.314	0.166
