DTS Sentinel unit serial number:	SN409020Multiplexer serial number:	ORYXHardware model number:	OX4-SRSoftware version number:	ORYX F/W v3.00 Oryx Data Collector v3.7.2.0data status	okinstallation	HaddamTimeLapsedifferential loss correction	single-endedforward channel	channel 3reverse channel	N/Adate	2011/06/22time	02:16:17forward acquisition time	30.00reverse acquisition time	0.00gamma	498.7831k internal	0.1750k external	0.1750temperature offset calibration	1.0074default loss term (dB/km)	0.3790temperature slope calibration	1.3530multiplexer offset coefficient	1.0000multiplexer slope coefficient	1.0000fibre end	0.00T internal ref (°C)	22.34T ext. ref 1 (°C)	17.50T ext. ref 2 (°C)	0.02length (m)	temperature (°C)	Stokes	anti-Stokes-747.200	123.257	-0.189	0.316
-746.185	-200.000	0.096	0.636
-745.171	-168.319	-0.434	0.022
-744.156	-60.436	0.264	0.148
-743.142	221.351	-0.096	-0.206
-742.127	55.368	-0.230	0.296
-741.112	286.367	0.086	-0.208
-740.098	-141.016	-0.494	0.067
-739.083	65.039	0.186	-0.250
-738.069	-200.000	0.040	0.450
-737.054	48.844	0.155	-0.193
-736.039	-102.946	-0.563	-0.176
-735.025	101.753	-0.175	-0.272
-734.010	523.573	-0.122	0.383
-732.996	-75.290	0.216	0.102
-731.981	168.526	-0.062	-0.118
-730.966	-200.000	-0.003	-0.059
-729.952	-159.051	0.352	0.026
-728.937	-161.890	0.218	0.014
-727.923	28.163	0.245	-0.275
-726.908	103.877	-0.223	-0.349
-725.894	-94.950	0.304	0.108
-724.879	88.053	0.238	-0.351
-723.864	-200.000	0.048	0.317
-722.850	-26.653	-0.279	0.216
-721.835	206.049	0.013	0.026
-720.821	800.000	-0.112	-0.562
-719.806	-200.000	0.023	-0.428
-718.791	-200.000	-0.043	-0.311
-717.777	-23.031	0.118	0.094
-716.762	-11.426	0.246	-0.215
-715.748	97.501	0.322	0.492
-714.733	58.845	0.223	-0.291
-713.718	19.746	-0.313	-0.334
-712.704	-76.118	-0.219	0.102
-711.689	-142.943	-0.379	0.048
-710.675	-61.210	0.117	0.065
-709.660	-200.000	-0.047	0.309
-708.645	703.482	0.017	0.059
-707.631	-72.942	0.339	-0.164
-706.616	-12.841	-0.615	-0.531
-705.602	-35.098	-0.468	0.338
-704.587	34.405	0.273	0.316
-703.572	-145.273	-0.103	-0.012
-702.558	-61.439	0.123	0.068
-701.543	-1.729	-0.437	-0.408
-700.529	-78.692	-0.120	0.054
-699.514	800.000	0.081	-0.306
-698.499	-200.000	-0.034	-0.429
-697.485	92.148	-0.130	-0.194
-696.470	-7.238	0.156	-0.140
-695.456	-68.676	0.088	-0.045
-694.441	590.782	0.233	-0.768
-693.426	-80.258	0.316	0.140
-692.412	376.720	0.112	0.304
-691.397	-2.577	0.293	0.272
-690.383	33.662	-0.332	0.383
-689.368	30.274	-0.158	-0.179
-688.354	-34.536	0.341	-0.247
-687.339	31.957	0.432	-0.494
-686.324	-118.535	0.297	-0.069
-685.310	800.000	0.111	-0.478
-684.295	-200.000	0.000	0.198
-683.281	-67.621	0.052	0.027
-682.266	62.315	-0.298	-0.395
-681.251	800.000	-0.110	0.474
-680.237	-81.953	-0.368	-0.159
-679.222	-163.678	0.395	0.024
-678.208	22.431	0.378	0.410
-677.193	800.000	-0.030	-0.142
-676.178	93.586	0.226	0.340
-675.164	-134.896	0.406	-0.064
-674.149	-16.322	0.078	-0.065
-673.135	60.502	0.090	-0.118
-672.120	-172.409	0.056	0.002
-671.105	219.442	-0.168	-0.358
-670.091	54.403	0.162	-0.207
-669.076	5.386	0.183	-0.179
-668.062	341.018	0.086	0.223
-667.047	-134.165	-0.317	-0.051
-666.032	-200.000	0.003	0.141
-665.018	-88.474	0.069	-0.027
-664.003	-28.798	-0.229	0.174
-662.989	546.270	0.084	-0.268
-661.974	-172.514	-0.348	0.014
-660.959	30.109	0.175	-0.198
-659.945	-97.424	-0.269	-0.092
-658.930	-97.073	0.380	0.131
-657.916	-135.106	-0.111	-0.017
-656.901	-150.030	0.122	0.012
-655.886	-177.164	0.249	0.008
-654.872	-106.359	0.287	-0.084
-653.857	-129.530	-0.372	0.068
-652.843	452.332	0.065	-0.190
-651.828	-200.000	0.048	0.297
-650.814	-113.217	-0.615	0.159
-649.799	-70.170	-0.329	0.165
-648.784	-53.950	-0.362	0.217
-647.770	-160.413	0.186	0.013
-646.755	41.956	-0.097	-0.116
-645.741	-200.000	-0.024	-0.150
-644.726	158.670	0.189	-0.348
-643.711	-70.081	-0.068	-0.034
-642.697	-69.192	-0.173	-0.088
-641.682	-61.892	0.134	0.074
-640.668	-107.333	0.159	-0.046
-639.653	-42.661	-0.279	-0.188
-638.638	-131.782	-0.266	-0.046
-637.624	-39.061	-0.218	-0.151
-636.609	-83.028	0.064	0.027
-635.595	-45.271	-0.547	0.358
-634.580	-44.226	-0.054	0.036
-633.565	-52.116	-0.131	0.080
-632.551	103.148	-0.217	0.338
-631.536	-24.687	-0.213	0.168
-630.522	3.507	-0.253	0.244
-629.507	800.000	0.089	0.360
-628.492	-8.559	0.208	0.184
-627.478	-200.000	-0.060	0.431
-626.463	16.849	-0.323	0.339
-625.449	-75.984	-0.161	-0.075
-624.434	-56.984	-0.199	0.116
-623.419	-91.106	0.435	0.164
-622.405	15.935	0.170	0.177
-621.390	87.321	-0.153	-0.225
-620.376	-100.403	-0.373	0.121
-619.361	-6.903	-0.420	0.377
-618.346	-128.165	-0.555	0.104
-617.332	-127.245	-0.385	0.074
-616.317	16.936	-0.239	-0.250
-615.303	254.468	0.208	-0.473
-614.288	23.546	-0.033	0.035
-613.273	494.253	-0.036	0.111
-612.259	800.000	0.087	0.333
-611.244	-91.809	0.405	-0.151
-610.230	-105.456	0.574	0.171
-609.215	800.000	0.033	0.159
-608.201	-200.000	-0.072	0.491
-607.186	-50.243	-0.186	-0.116
-606.171	208.432	-0.063	0.131
-605.157	-31.262	-0.356	0.265
-604.142	127.814	0.194	-0.327
-603.128	216.031	-0.158	0.333
-602.113	106.865	-0.132	-0.208
-601.098	41.453	0.073	-0.087
-600.084	800.000	-0.062	0.242
-599.069	-84.505	-0.134	0.056
-598.055	60.163	0.222	-0.291
-597.040	608.936	-0.067	0.222
-596.025	14.612	0.271	-0.280
-595.011	-13.465	0.271	-0.232
-593.996	53.370	0.249	0.316
-592.982	-86.045	0.357	0.145
-591.967	-100.960	0.223	0.072
-590.952	-41.574	-0.292	0.198
-589.938	-20.587	-0.283	-0.230
-588.923	-140.805	0.434	0.058
-587.909	332.029	-0.121	0.309
-586.894	-78.738	0.247	-0.111
-585.879	-108.411	0.228	-0.064
-584.865	-6.827	-0.469	0.420
-583.850	287.603	-0.144	0.344
-582.836	239.054	-0.210	-0.463
-581.821	-151.813	-0.287	-0.027
-580.806	-146.595	-0.415	0.047
-579.792	197.844	0.134	0.271
-578.777	-81.951	0.556	-0.239
-577.763	-82.129	0.157	0.067
-576.748	-88.138	0.222	0.087
-575.733	-76.584	0.307	-0.142
-574.719	-45.799	-0.144	0.093
-573.704	-73.235	-0.265	-0.128
-572.690	-57.834	-0.313	-0.180
-571.675	-116.224	0.358	-0.087
-570.661	-200.000	0.064	-0.539
-569.646	-19.606	-0.206	0.168
-568.631	-3.737	0.226	-0.207
-567.617	227.878	0.098	-0.211
-566.602	-84.808	0.223	0.092
-565.588	-12.593	0.167	0.143
-564.573	-90.585	0.323	0.123
-563.558	-93.350	-0.484	-0.176
-562.544	181.404	-0.087	0.169
-561.529	196.103	0.242	0.488
-560.515	-29.751	-0.128	0.096
-559.500	-33.836	-0.408	-0.296
-558.485	-158.206	0.048	-0.004
-557.471	-136.902	0.141	0.021
-556.456	-142.262	0.253	-0.033
-555.442	-44.120	-0.249	0.165
-554.427	-200.000	0.016	0.356
-553.412	-194.606	0.283	0.003
-552.398	-200.000	-0.026	0.175
-551.383	-171.150	-0.291	0.013
-550.369	-37.490	-0.272	0.191
-549.354	-200.000	-0.021	0.123
-548.339	-59.899	0.651	0.366
-547.325	131.159	-0.153	0.260
-546.310	-96.010	-0.337	-0.117
-545.296	78.254	-0.102	0.144
-544.281	-177.552	0.375	0.012
-543.266	-102.995	0.098	-0.031
-542.252	386.728	-0.153	-0.419
-541.237	-90.035	0.409	0.156
-540.223	426.153	-0.134	-0.384
-539.208	-78.183	-0.395	-0.178
-538.193	-34.360	0.468	-0.338
-537.179	-70.166	0.097	0.049
-536.164	-130.450	0.361	-0.064
-535.150	744.154	0.104	0.372
-534.135	-200.000	-0.004	-0.127
-533.121	-9.702	0.394	0.345
-532.106	-7.610	-0.315	0.280
-531.091	-113.076	0.250	-0.064
-530.077	203.691	0.103	0.211
-529.062	-92.336	0.195	0.072
-528.048	-158.056	0.412	0.031
-527.033	302.121	-0.155	-0.380
-526.018	52.314	0.368	0.462
-525.004	91.236	-0.270	0.399
-523.989	800.000	-0.099	0.483
-522.975	-40.195	-0.317	0.217
-521.960	-75.807	0.230	0.107
-520.945	87.493	0.116	0.170
-519.931	-111.447	-0.300	0.080
-518.916	-0.261	0.187	-0.175
-517.902	198.892	0.283	0.574
-516.887	-78.129	-0.079	0.036
-515.872	98.675	-0.175	0.267
-514.858	-143.955	0.525	0.064
-513.843	-139.073	0.592	-0.084
-512.829	-64.614	0.412	-0.219
-511.814	-61.799	-0.407	0.224
-510.799	460.701	-0.097	-0.287
-509.785	-44.954	-0.132	-0.086
-508.770	-79.722	0.068	0.030
-507.756	-155.774	-0.676	-0.056
-506.741	-26.802	-0.116	-0.089
-505.726	-200.000	-0.006	-0.056
-504.712	-0.563	-0.150	0.140
-503.697	800.000	0.071	-0.309
-502.683	402.463	-0.025	-0.068
-501.668	-151.199	-0.186	-0.018
-500.653	164.044	0.105	0.194
-499.639	-55.717	-0.245	0.144
-498.624	-104.242	-0.250	0.076
-497.610	-200.000	-0.020	-0.345
-496.595	-57.359	0.457	-0.263
-495.581	-126.795	0.441	-0.085
-494.566	327.510	-0.076	-0.193
-493.551	5.858	-0.220	0.214
-492.537	-81.816	-0.401	0.172
-491.522	771.175	0.123	0.445
-490.508	-93.416	-0.723	0.262
-489.493	-148.449	-0.470	-0.050
-488.478	-26.861	0.472	-0.362
-487.464	800.000	0.062	0.237
-486.449	-124.181	-0.681	-0.139
-485.435	-200.000	0.041	-0.244
-484.420	-64.774	-0.107	0.057
-483.405	-128.433	-0.420	-0.078
-482.391	-86.353	0.253	-0.102
-481.376	-169.976	-0.175	0.008
-480.362	133.523	0.025	-0.043
-479.347	-200.000	0.040	-0.444
-478.332	-114.815	-0.711	0.177
-477.318	-132.252	-0.544	0.092
-476.303	-82.019	0.227	0.097
-475.289	99.368	-0.396	-0.603
-474.274	45.560	-0.069	0.084
-473.259	-13.578	-0.375	0.319
-472.245	-26.589	0.441	-0.339
-471.230	-200.000	-0.007	-0.137
-470.216	-27.922	0.384	-0.292
-469.201	-101.555	0.378	-0.120
-468.186	-200.000	0.008	0.338
-467.172	-200.000	-0.022	0.324
-466.157	-114.240	0.365	0.092
-465.143	-64.109	0.345	0.184
-464.128	-68.117	0.196	-0.100
-463.113	800.000	0.031	-0.138
-462.099	800.000	0.070	-0.290
-461.084	-62.764	-0.252	0.137
-460.070	-200.000	0.004	-0.170
-459.055	29.615	0.134	-0.150
-458.040	205.766	-0.103	0.212
-457.026	-55.829	0.207	0.121
-456.011	133.104	-0.215	-0.366
-454.997	-200.000	-0.007	0.315
-453.982	762.841	-0.107	-0.383
-452.968	-200.000	-0.088	0.546
-451.953	786.361	-0.074	0.270
-450.938	23.965	-0.411	-0.445
-449.924	515.693	0.067	0.206
-448.909	-95.655	0.307	0.107
-447.895	-155.197	0.143	-0.012
-446.880	-73.153	-0.400	0.192
-445.865	-56.845	-0.516	-0.299
-444.851	21.366	-0.157	-0.168
-443.836	-14.847	0.316	-0.266
-442.822	-200.000	-0.009	-0.308
-441.807	-45.713	-0.051	-0.033
-440.792	-3.209	-0.077	0.070
-439.778	-167.254	0.166	-0.009
-438.763	-200.000	0.013	-0.183
-437.749	-116.514	0.510	-0.122
-436.734	10.828	0.204	-0.205
-435.719	-117.473	-0.172	0.041
-434.705	800.000	0.101	-0.435
-433.690	-12.626	0.302	-0.259
-432.676	-200.000	-0.034	0.244
-431.661	58.481	0.135	0.174
-430.646	711.094	0.073	-0.254
-429.632	-89.779	-0.295	-0.113
-428.617	-181.067	-0.358	-0.009
-427.603	-200.000	0.018	0.350
-426.588	192.931	-0.146	0.290
-425.573	449.815	0.065	0.188
-424.559	-47.484	0.068	-0.043
-423.544	-133.203	0.461	-0.076
-422.530	-54.341	0.073	-0.043
-421.515	-200.000	-0.038	0.356
-420.500	-20.488	0.151	-0.122
-419.486	-138.914	-0.300	0.042
-418.471	-154.498	0.416	0.036
-417.457	-163.010	0.654	0.041
-416.442	-200.000	0.014	0.432
-415.428	671.998	-0.143	0.490
-414.413	-115.195	-0.464	0.114
-413.398	59.018	-0.161	-0.207
-412.384	-56.815	-0.417	-0.241
-411.369	-114.445	-0.147	0.037
-410.355	800.000	-0.074	-0.280
-409.340	-200.000	0.023	-0.221
-408.325	-104.738	0.250	0.075
-407.311	-26.237	0.287	0.221
-406.296	-57.069	0.239	0.138
-405.282	-69.278	-0.208	0.105
-404.267	154.831	0.128	0.231
-403.252	-107.490	-0.310	-0.089
-402.238	497.843	0.112	0.339
-401.223	-200.000	0.002	-0.317
-400.209	-75.364	0.137	0.064
-399.194	-92.302	0.303	0.111
-398.179	147.781	0.098	-0.174
-397.165	-200.000	-0.011	0.405
-396.150	468.948	0.177	-0.524
-395.136	312.431	0.079	-0.195
-394.121	228.172	0.111	0.238
-393.106	-200.000	0.070	-0.438
-392.092	-58.256	0.172	-0.098
-391.077	-200.000	0.004	-0.171
-390.063	349.133	0.116	-0.300
-389.048	78.356	0.338	-0.474
-388.033	-81.662	0.464	0.199
-387.019	-200.000	0.042	-0.656
-386.004	309.212	-0.126	-0.311
-384.990	141.417	0.081	-0.141
-383.975	124.890	0.424	-0.702
-382.960	-28.946	-0.306	-0.230
-381.946	-9.060	0.038	0.033
-380.931	-185.507	0.198	0.004
-379.917	-56.025	-0.137	0.080
-378.902	-104.745	0.264	-0.079
-377.888	335.217	0.190	-0.485
-376.873	127.285	0.393	-0.655
-375.858	-127.263	0.530	-0.100
-374.844	-105.445	0.324	-0.096
-373.829	47.883	-0.069	-0.084
-372.815	800.000	0.028	0.151
-371.800	-136.940	0.471	-0.070
-370.785	-26.464	0.311	-0.239
-369.771	-129.417	-0.193	0.035
-368.756	193.307	0.167	-0.332
-367.742	-161.228	-0.272	0.018
-366.727	101.573	0.261	-0.399
-365.712	-200.000	-0.018	-0.274
-364.698	-42.590	-0.394	-0.262
-363.683	-37.163	-0.409	0.286
-362.669	800.000	-0.077	-0.399
-361.654	-82.571	0.283	0.120
-360.639	-42.614	-0.212	0.141
-359.625	70.879	-0.147	0.199
-358.610	800.000	0.072	0.264
-357.596	133.752	0.132	-0.224
-356.581	-67.005	-0.224	0.115
-355.566	-171.871	-0.251	0.011
-354.552	-175.790	0.671	0.023
-353.537	151.439	0.017	-0.030
-352.523	-129.437	0.148	-0.027
-351.508	-75.485	0.347	0.161
-350.493	142.707	-0.215	0.374
-349.479	-129.724	-0.219	-0.039
-348.464	141.185	-0.249	0.433
-347.450	-81.325	-0.244	-0.105
-346.435	222.226	0.204	-0.430
-345.420	-134.363	-0.188	-0.030
-344.406	16.294	-0.233	-0.240
-343.391	-144.107	-0.181	-0.022
-342.377	543.884	-0.064	0.200
-341.362	476.841	0.126	0.374
-340.348	135.986	0.105	-0.179
-339.333	-74.713	0.361	-0.169
-338.318	41.734	0.124	0.147
-337.304	800.000	-0.061	0.347
-336.289	-200.000	0.010	-0.195
-335.275	-159.106	0.235	-0.017
-334.260	12.699	0.112	-0.114
-333.245	800.000	-0.081	-0.304
-332.231	304.839	-0.090	-0.220
-331.216	243.458	0.153	0.336
-330.202	-200.000	-0.019	0.221
-329.187	-200.000	-0.014	-0.092
-328.172	800.000	-0.051	0.227
-327.158	95.198	0.115	-0.172
-326.143	-33.878	-0.125	0.090
-325.129	-73.416	-0.391	-0.186
-324.114	-123.743	-0.274	0.056
-323.099	221.350	-0.095	-0.200
-322.085	-42.889	-0.169	0.112
-321.070	-129.499	0.241	0.043
-320.056	180.559	-0.128	0.246
-319.041	-72.946	0.374	0.179
-318.026	-195.048	-0.466	-0.005
-317.012	800.000	0.052	-0.299
-315.997	320.530	-0.165	0.411
-314.983	511.505	0.077	0.237
-313.968	-95.268	-0.085	0.030
-312.953	-93.152	0.149	0.054
-311.939	275.516	-0.050	-0.115
-310.924	122.025	0.207	-0.339
-309.910	-128.494	0.651	0.120
-308.895	-135.149	-0.315	-0.049
-307.880	-165.629	0.190	0.011
-306.866	-16.239	0.163	0.135
-305.851	-125.313	-0.652	-0.129
-304.837	-200.000	-0.032	-0.187
-303.822	800.000	0.099	-0.429
-302.807	-115.254	0.365	0.089
-301.793	800.000	-0.150	0.578
-300.778	-143.450	0.258	-0.032
-299.764	458.430	0.101	0.294
-298.749	-77.595	0.268	0.121
-297.735	205.833	0.257	0.524
-296.720	341.004	-0.158	0.404
-295.705	-200.000	-0.013	0.822
-294.691	-112.094	-0.184	0.048
-293.676	-38.301	-0.306	-0.211
-292.662	320.401	0.290	-0.723
-291.647	-99.593	-0.300	-0.098
-290.632	-96.770	-0.356	0.121
-289.618	-152.916	-0.541	0.049
-288.603	320.824	-0.068	-0.170
-287.589	668.393	0.076	0.257
-286.574	71.432	0.127	-0.173
-285.559	-200.000	-0.024	0.170
-284.545	-133.873	-0.308	0.049
-283.530	-93.080	-0.305	0.110
-282.516	45.767	0.229	-0.277
-281.501	-200.000	0.049	-0.501
-280.486	-109.190	0.254	0.070
-279.472	-115.625	-0.320	0.078
-278.457	-126.875	-0.706	-0.135
-277.443	23.418	0.139	-0.149
-276.428	-14.582	0.236	0.198
-275.413	211.749	0.068	-0.141
-274.399	41.545	0.278	-0.329
-273.384	-74.030	0.034	0.016
-272.370	800.000	0.128	0.555
-271.355	6.810	0.296	-0.288
-270.340	19.123	0.123	-0.128
-269.326	92.927	-0.146	0.215
-268.311	-190.667	-0.096	0.001
-267.297	-200.000	0.042	0.471
-266.282	-46.830	0.258	-0.164
-265.267	278.755	0.375	-0.875
-264.253	90.696	-0.273	-0.400
-263.238	-178.836	0.580	0.017
-262.224	147.274	0.187	-0.328
-261.209	-132.811	-0.307	-0.051
-260.195	82.931	-0.070	-0.099
-259.180	-74.202	-0.294	0.138
-258.165	-31.202	0.388	-0.285
-257.151	-137.118	-0.425	-0.063
-256.136	367.277	-0.100	-0.263
-255.122	49.486	0.161	-0.197
-254.107	23.991	0.265	-0.285
-253.092	17.216	0.486	-0.502
-252.078	288.551	-0.087	0.207
-251.063	800.000	0.143	-0.699
-250.049	-200.000	0.074	0.458
-249.034	-102.005	-0.252	0.079
-248.019	82.391	-0.223	-0.316
-247.005	50.596	-0.126	-0.155
-245.990	133.642	0.223	0.377
-244.976	-163.045	-0.325	-0.020
-243.961	-179.966	-0.018	-0.000
-242.946	34.994	0.321	-0.366
-241.932	-121.147	-0.410	-0.089
-240.917	653.116	-0.031	0.105
-239.903	-33.607	0.261	-0.187
-238.888	72.299	-0.113	0.154
-237.873	-58.399	0.255	-0.144
-236.859	-200.000	-0.007	0.147
-235.844	-30.119	0.304	-0.225
-234.830	-200.000	-0.007	0.055
-233.815	5.960	-0.366	0.353
-232.800	-89.057	0.181	0.069
-231.786	800.000	0.089	0.507
-230.771	98.764	0.158	0.238
-229.757	800.000	-0.096	0.390
-228.742	-108.724	-0.341	0.094
-227.727	57.390	0.342	0.436
-226.713	-3.354	0.347	0.314
-225.698	-200.000	-0.018	-0.113
-224.684	225.723	0.043	-0.091
-223.669	800.000	-0.097	-0.533
-222.655	-56.297	0.504	0.291
-221.640	-200.000	-0.006	0.063
-220.625	-10.094	-0.041	0.035
-219.611	189.902	0.098	0.192
-218.596	99.768	0.111	-0.168
-217.582	-200.000	-0.006	-0.131
-216.567	-2.700	0.156	0.142
-215.552	-161.831	-0.387	0.025
-214.538	416.446	0.211	-0.589
-213.523	583.562	-0.120	0.386
-212.509	-162.072	0.109	-0.007
-211.494	58.227	-0.176	-0.224
-210.479	-57.444	0.460	-0.262
-209.465	235.394	0.091	0.197
-208.450	33.013	-0.313	0.353
-207.436	-155.411	-0.804	-0.067
-206.421	146.768	-0.177	0.310
-205.406	-90.411	-0.490	0.184
-204.392	31.685	0.170	0.190
-203.377	461.571	0.210	-0.614
-202.363	-200.000	-0.006	0.267
-201.348	-57.979	0.323	-0.183
-200.333	-107.938	-0.272	0.076
-199.319	-138.412	-0.354	-0.050
-198.304	10.598	-0.316	0.314
-197.290	264.905	-0.136	-0.310
-196.275	742.984	-0.046	-0.161
-195.260	5.639	0.308	0.296
-194.246	-200.000	0.057	0.551
-193.231	95.946	0.149	-0.222
-192.217	139.079	-0.138	0.236
-191.202	220.143	-0.148	0.309
-190.187	-200.000	-0.019	-0.165
-189.173	64.387	-0.216	-0.283
-188.158	-200.000	0.009	0.156
-187.144	-138.591	0.072	-0.010
-186.129	101.993	-0.171	0.260
-185.114	45.395	0.347	-0.417
-184.100	-47.979	-0.244	-0.153
-183.085	20.942	0.395	0.417
-182.071	-126.878	0.317	0.060
-181.056	-106.910	-0.068	0.019
-180.042	-76.278	0.418	-0.191
-179.027	-200.000	0.052	0.830
-178.012	31.060	-0.283	0.315
-176.998	-120.955	0.201	0.044
-175.983	-68.972	-0.461	-0.230
-174.969	-62.307	0.213	0.115
-173.954	-200.000	0.029	-0.320
-172.939	800.000	0.149	-0.742
-171.925	-41.904	0.281	-0.187
-170.910	-50.516	-0.637	-0.389
-169.896	109.954	-0.186	-0.291
-168.881	16.031	0.200	0.205
-167.866	30.642	-0.176	-0.195
-166.852	-101.706	-0.191	-0.060
-165.837	129.982	-0.289	-0.482
-164.823	-15.327	-0.494	0.410
-163.808	28.795	0.238	-0.262
-162.793	-200.000	-0.018	-0.141
-161.779	-131.867	-0.141	0.024
-160.764	800.000	0.083	0.332
-159.750	53.005	-0.328	0.408
-158.735	67.603	0.180	0.240
-157.720	-103.835	0.216	-0.065
-156.706	-117.102	-0.453	0.106
-155.691	-34.180	-0.403	-0.287
-154.677	179.111	0.015	0.029
-153.662	466.042	-0.046	0.136
-152.647	319.456	-0.150	-0.371
-151.633	-23.499	0.478	-0.372
-150.618	-85.762	-0.349	0.140
-149.604	-39.888	-0.240	-0.163
-148.589	166.419	-0.009	-0.016
-147.574	-127.338	-0.404	-0.076
-146.560	-200.000	-0.029	0.230
-145.545	-147.794	0.420	0.045
-144.531	79.545	-0.171	0.238
-143.516	30.405	-0.171	0.189
-142.502	-200.000	-0.004	-0.293
-141.487	129.744	0.266	-0.443
-140.472	54.840	-0.078	-0.097
-139.458	18.221	0.317	0.328
-138.443	800.000	0.032	0.123
-137.429	-81.655	-0.395	0.167
-136.414	800.000	-0.035	-0.199
-135.399	-100.554	-0.074	0.024
-134.385	-113.113	0.197	-0.050
-133.370	609.614	0.063	0.204
-132.356	-190.443	-0.406	-0.006
-131.341	159.766	-0.204	0.369
-130.326	-110.429	0.206	0.055
-129.312	-97.274	0.606	-0.204
-128.297	-140.867	0.224	0.030
-127.283	800.000	-0.040	0.225
-126.268	-26.474	-0.237	0.180
-125.253	-48.551	-0.300	0.187
-124.239	-135.012	0.128	-0.020
-123.224	-60.290	-0.393	-0.217
-122.210	800.000	-0.022	0.103
-121.195	-92.341	-0.263	-0.095
