DTS Sentinel unit serial number:	SN409020Multiplexer serial number:	ORYXHardware model number:	OX4-SRSoftware version number:	ORYX F/W v3.00 Oryx Data Collector v3.7.2.0data status	okinstallation	HaddamTimeLapsedifferential loss correction	single-endedforward channel	channel 3reverse channel	N/Adate	2011/06/21time	16:11:16forward acquisition time	30.00reverse acquisition time	0.00gamma	498.7831k internal	0.1792k external	0.1792temperature offset calibration	1.0074default loss term (dB/km)	0.3790temperature slope calibration	1.3530multiplexer offset coefficient	1.0000multiplexer slope coefficient	1.0000fibre end	0.00T internal ref (°C)	34.47T ext. ref 1 (°C)	26.43T ext. ref 2 (°C)	0.23length (m)	temperature (°C)	Stokes	anti-Stokes-747.200	-110.859	-0.559	0.148
-746.185	-93.407	-0.180	-0.064
-745.171	27.466	0.060	-0.066
-744.156	-200.000	-0.039	0.718
-743.142	800.000	-0.054	0.270
-742.127	800.000	-0.118	0.485
-741.112	-200.000	0.008	0.126
-740.098	117.480	-0.297	0.475
-739.083	137.713	0.222	0.378
-738.069	-200.000	-0.045	0.981
-737.054	-138.134	-0.222	0.032
-736.039	294.563	0.159	-0.378
-735.025	-98.671	0.144	-0.047
-734.010	-21.009	-0.159	0.126
-732.996	800.000	0.053	0.201
-731.981	-96.593	0.193	-0.065
-730.966	-165.354	-0.100	0.006
-729.952	-114.590	0.267	0.066
-728.937	800.000	0.051	-0.187
-727.923	174.476	-0.131	-0.247
-726.908	253.006	-0.157	-0.349
-725.894	6.393	-0.299	-0.288
-724.879	209.768	0.074	0.151
-723.864	-53.971	0.284	-0.167
-722.850	-22.712	-0.091	-0.071
-721.835	-158.863	0.358	0.026
-720.821	99.331	-0.058	-0.087
-719.806	-30.167	-0.279	-0.205
-718.791	-26.401	0.446	-0.339
-717.777	692.662	0.015	-0.051
-716.762	-150.939	0.252	-0.024
-715.748	-200.000	-0.029	0.352
-714.733	-134.012	0.315	0.050
-713.718	-0.500	-0.273	-0.251
-712.704	-79.256	0.212	0.093
-711.689	-200.000	0.063	0.500
-710.675	398.314	-0.079	-0.217
-709.660	28.223	-0.385	-0.421
-708.645	-200.000	0.031	-0.389
-707.631	-115.322	0.460	-0.112
-706.616	-29.038	-0.090	0.067
-705.602	-131.317	0.109	0.019
-704.587	-90.996	-0.412	-0.152
-703.572	193.905	0.291	-0.573
-702.558	-87.078	0.314	-0.123
-701.543	-200.000	-0.060	-0.648
-700.529	46.063	-0.154	0.185
-699.514	-115.913	-0.513	0.123
-698.499	800.000	0.050	0.246
-697.485	800.000	0.067	0.244
-696.470	8.990	-0.250	-0.245
-695.456	205.898	0.079	-0.159
-694.441	800.000	0.125	-0.480
-693.426	3.428	-0.292	-0.276
-692.412	-45.438	0.251	-0.161
-691.397	332.824	0.300	-0.753
-690.383	-95.147	-0.138	-0.048
-689.368	800.000	0.057	-0.268
-688.354	-169.802	-0.172	-0.008
-687.339	-99.170	-0.066	0.021
-686.324	-55.530	0.155	0.090
-685.310	-62.504	0.307	0.165
-684.295	30.497	0.150	0.166
-683.281	399.936	-0.157	-0.429
-682.266	-200.000	0.028	-0.434
-681.251	800.000	-0.058	-0.324
-680.237	-133.837	-0.185	0.030
-679.222	-20.320	-0.348	-0.277
-678.208	-72.577	-0.350	-0.167
-677.193	-156.880	0.100	-0.008
-676.178	306.733	0.125	-0.302
-675.164	245.993	0.149	-0.327
-674.149	-200.000	0.027	-0.347
-673.135	-130.617	0.312	-0.054
-672.120	-85.368	0.342	0.137
-671.105	-55.630	-0.206	0.119
-670.091	800.000	0.056	0.226
-669.076	137.013	0.169	-0.287
-668.062	-34.713	-0.293	-0.207
-667.047	324.852	-0.123	0.305
-666.032	-157.208	0.444	-0.034
-665.018	-1.904	-0.655	-0.595
-664.003	418.062	-0.111	0.309
-662.989	-99.843	0.490	0.158
-661.974	-10.088	0.624	0.536
-660.959	45.819	-0.202	0.242
-659.945	21.959	-0.198	0.209
-658.930	-43.570	0.133	-0.087
-657.916	-20.444	0.265	-0.210
-656.901	-200.000	-0.002	-0.116
-655.886	34.964	0.300	-0.340
-654.872	-7.738	0.181	-0.158
-653.857	238.153	0.131	0.282
-652.843	-88.372	-0.349	0.134
-651.828	-59.238	0.293	0.162
-650.814	223.826	0.214	0.448
-649.799	800.000	0.075	0.295
-648.784	31.350	-0.204	0.226
-647.770	21.678	0.174	-0.183
-646.755	9.575	-0.205	0.201
-645.741	-200.000	0.023	-0.143
-644.726	-88.585	-0.331	-0.127
-643.711	-68.814	-0.300	0.149
-642.697	-200.000	-0.017	0.563
-641.682	-149.756	-0.550	-0.055
-640.668	-65.064	-0.426	-0.221
-639.653	-200.000	-0.029	-0.518
-638.638	437.983	-0.089	-0.253
-637.624	-63.075	0.118	-0.063
-636.609	258.898	-0.213	-0.476
-635.595	-173.983	0.093	0.003
-634.580	800.000	-0.044	-0.206
-633.565	-170.712	-0.384	0.017
-632.551	-87.995	0.369	0.143
-631.536	96.201	-0.019	-0.028
-630.522	21.515	-0.213	0.224
-629.507	-113.132	0.414	0.105
-628.492	-86.403	0.268	0.106
-627.478	-55.964	-0.144	-0.083
-626.463	-121.908	0.314	0.066
-625.449	-13.826	0.708	0.590
-624.434	-124.944	-0.178	-0.035
-623.419	21.400	-0.276	-0.290
-622.405	61.083	-0.232	0.298
-621.390	4.699	-0.148	-0.140
-620.376	73.486	0.164	0.223
-619.361	-174.140	-0.170	0.006
-618.346	-200.000	-0.018	0.217
-617.332	153.061	-0.361	0.640
-616.317	129.365	-0.028	-0.047
-615.303	-54.162	-0.331	-0.194
-614.288	-2.169	0.193	-0.175
-613.273	88.477	-0.179	-0.257
-612.259	-143.995	-0.403	0.048
-611.244	69.296	0.235	-0.313
-610.230	-200.000	0.031	-0.312
-609.215	154.897	0.313	-0.556
-608.201	14.043	-0.099	-0.099
-607.186	-200.000	-0.018	0.195
-606.171	-19.545	0.254	-0.203
-605.157	800.000	-0.047	0.245
-604.142	-200.000	-0.030	-0.243
-603.128	800.000	-0.032	0.158
-602.113	213.360	0.104	-0.212
-601.098	312.040	0.106	0.258
-600.084	-39.882	0.298	-0.200
-599.069	-118.538	0.193	0.044
-598.055	-200.000	-0.016	0.265
-597.040	-43.127	-0.032	-0.021
-596.025	800.000	-0.048	0.250
-595.011	544.257	-0.087	-0.269
-593.996	75.287	-0.123	0.168
-592.982	-35.890	-0.155	-0.108
-591.967	-161.180	-0.362	-0.024
-590.952	-124.288	-0.276	0.055
-589.938	11.783	0.467	0.462
-588.923	-200.000	-0.047	0.348
-587.909	30.218	-0.201	-0.222
-586.894	-68.927	-0.377	-0.187
-585.879	90.572	-0.082	0.119
-584.865	-119.632	0.706	-0.156
-583.850	274.294	0.172	0.395
-582.836	-112.389	-0.298	0.076
-581.821	-141.549	-0.364	-0.047
-580.806	199.091	0.045	0.089
-579.792	-126.136	-0.127	0.024
-578.777	709.714	0.096	-0.330
-577.763	140.933	0.145	-0.247
-576.748	-200.000	0.001	-0.113
-575.733	-25.787	0.245	0.186
-574.719	800.000	-0.189	-0.856
-573.704	265.801	-0.263	-0.595
-572.690	63.443	0.185	0.239
-571.675	-200.000	0.060	-0.386
-570.661	207.795	0.049	-0.100
-569.646	51.747	-0.149	0.183
-568.631	272.970	0.267	-0.609
-567.617	-72.266	0.052	0.025
-566.602	-2.484	0.474	-0.427
-565.588	-31.977	-0.400	-0.288
-564.573	-64.688	-0.248	0.129
-563.558	800.000	-0.117	-0.443
-562.544	183.252	0.115	-0.219
-561.529	-75.701	-0.300	-0.137
-560.515	71.701	-0.131	0.176
-559.500	-200.000	-0.030	0.172
-558.485	-54.232	-0.154	0.090
-557.471	530.362	-0.248	0.758
-556.456	94.203	0.205	0.301
-555.442	-200.000	-0.010	-0.242
-554.427	-35.621	-0.244	-0.170
-553.412	265.696	-0.138	0.312
-552.398	-150.473	0.234	-0.023
-551.383	-21.185	-0.384	0.302
-550.369	-42.678	0.231	-0.151
-549.354	-16.068	-0.123	-0.101
-548.339	51.420	0.382	0.467
-547.325	-30.027	0.185	0.135
-546.310	188.228	0.088	-0.171
-545.296	41.833	0.179	-0.209
-544.281	36.415	-0.269	-0.306
-543.266	-38.138	0.460	0.314
-542.252	-107.211	0.298	0.084
-541.237	-200.000	-0.017	-0.174
-540.223	83.499	-0.107	-0.151
-539.208	270.789	0.209	0.475
-538.193	78.572	0.254	0.351
-537.179	-68.976	0.121	-0.060
-536.164	800.000	-0.070	0.295
-535.150	-200.000	0.023	-0.228
-534.135	1.732	-0.133	0.124
-533.121	245.309	-0.265	0.575
-532.106	-92.047	0.227	0.082
-531.091	-143.933	-0.379	0.045
-530.077	4.414	-0.082	0.077
-529.062	-9.082	0.349	0.300
-528.048	-175.945	-0.215	-0.007
-527.033	53.671	0.373	-0.461
-526.018	800.000	0.040	-0.164
-525.004	-41.644	-0.333	-0.219
-523.989	37.103	0.141	0.161
-522.975	675.022	0.106	-0.358
-521.960	-16.079	-0.185	0.151
-520.945	-200.000	-0.024	0.176
-519.931	-6.462	-0.293	-0.257
-518.916	-173.665	0.303	0.011
-517.902	-149.483	-0.281	-0.028
-516.887	63.792	-0.204	-0.264
-515.872	198.201	-0.129	-0.254
-514.858	1.891	0.198	-0.184
-513.843	164.752	0.041	-0.075
-512.829	-13.486	0.018	0.015
-511.814	654.714	-0.148	-0.491
-510.799	95.028	0.073	-0.107
-509.785	-149.519	0.108	0.011
-508.770	-13.672	0.263	0.219
-507.756	-142.623	-0.578	-0.072
-506.741	414.449	-0.106	-0.291
-505.726	-91.712	-0.640	-0.233
-504.712	8.111	-0.434	-0.418
-503.697	-172.651	0.518	-0.021
-502.683	23.412	0.232	-0.246
-501.668	253.011	0.187	0.412
-500.653	191.452	-0.039	-0.077
-499.639	35.521	0.335	-0.378
-498.624	-135.547	0.499	-0.076
-497.610	-100.079	0.208	0.066
-496.595	-200.000	0.060	0.459
-495.581	23.502	0.408	0.431
-494.566	575.779	0.087	0.275
-493.551	-100.274	-0.360	0.114
-492.537	-30.413	0.132	0.096
-491.522	36.878	0.072	0.082
-490.508	-200.000	0.056	0.354
-489.493	135.702	-0.342	0.574
-488.478	12.907	-0.268	0.266
-487.464	-161.375	0.654	0.043
-486.449	743.204	0.109	0.379
-485.435	20.333	-0.173	0.180
-484.420	-88.094	0.276	0.106
-483.405	-165.035	0.229	0.013
-482.391	-59.671	-0.282	-0.155
-481.376	-75.700	0.666	0.302
-480.362	32.412	0.314	0.349
-479.347	112.367	0.247	0.384
-478.332	147.415	0.152	-0.263
-477.318	-200.000	0.020	-0.270
-476.303	-98.222	-0.365	0.120
-475.289	9.735	-0.269	-0.262
-474.274	-155.872	0.313	-0.025
-473.259	-55.402	0.235	-0.135
-472.245	354.966	-0.129	0.332
-471.230	248.068	0.201	-0.438
-470.216	-51.758	0.180	-0.107
-469.201	-200.000	0.034	-0.632
-468.186	480.441	-0.117	-0.342
-467.172	-136.539	0.813	-0.120
-466.157	4.331	-0.152	0.143
-465.143	58.296	-0.216	-0.272
-464.128	24.118	-0.229	0.242
-463.113	-141.051	0.232	0.030
-462.099	800.000	0.055	0.260
-461.084	353.133	0.105	-0.269
-460.070	-141.087	0.464	0.060
-459.055	800.000	-0.080	-0.402
-458.040	-200.000	0.007	-0.233
-457.026	30.045	0.367	0.401
-456.011	176.289	0.083	-0.156
-454.997	740.015	0.069	0.241
-453.982	-106.763	0.097	0.027
-452.968	-108.804	0.289	-0.079
-451.953	-110.823	0.561	0.147
-450.938	131.443	-0.168	-0.278
-449.924	34.409	-0.245	0.274
-448.909	-121.804	-0.269	-0.056
-447.895	219.055	-0.278	-0.573
-446.880	99.083	0.105	-0.157
-445.865	67.357	0.153	-0.201
-444.851	-200.000	-0.001	-0.558
-443.836	-200.000	-0.431	0.001
-442.822	-137.972	-0.502	-0.071
-441.807	-47.158	-0.225	0.140
-440.792	60.831	0.109	0.139
-439.778	-53.670	-0.179	0.105
-438.763	-52.923	0.310	0.183
-437.749	-13.103	0.275	0.229
-436.734	-200.000	0.005	-0.334
-435.719	127.692	-0.090	0.147
-434.705	-75.141	0.251	-0.114
-433.690	12.968	-0.176	0.175
-432.676	-194.986	0.255	-0.002
-431.661	-200.000	-0.035	-0.226
-430.646	-77.182	-0.357	0.158
-429.632	-167.823	-0.409	0.020
-428.617	-91.469	-0.195	-0.071
-427.603	265.211	0.131	-0.293
-426.588	532.233	0.144	-0.440
-425.573	-60.880	-0.166	0.090
-424.559	-151.116	-0.029	-0.003
-423.544	-111.680	-0.104	0.027
-422.530	226.295	-0.074	-0.155
-421.515	-33.264	-0.222	0.158
-420.500	148.402	-0.271	0.470
-419.486	-31.941	-0.307	0.220
-418.471	10.218	-0.218	0.213
-417.457	4.470	-0.299	-0.280
-416.442	-54.582	-0.293	0.170
-415.428	-12.381	-0.241	0.201
-414.413	-200.000	0.002	0.063
-413.398	412.079	0.070	-0.190
-412.384	140.031	-0.350	-0.592
-411.369	73.103	0.190	0.255
-410.355	-120.734	0.180	0.039
-409.340	-155.862	0.220	-0.018
-408.325	-3.103	0.028	0.025
-407.311	800.000	-0.091	0.397
-406.296	-148.011	-0.337	-0.035
-405.282	-200.000	0.011	0.230
-404.267	-200.000	-0.016	0.235
-403.252	-45.570	0.104	-0.066
-402.238	-200.000	0.003	-0.095
-401.223	-148.786	0.280	0.029
-400.209	-102.731	0.313	0.095
-399.194	-87.738	-0.320	-0.123
-398.179	55.311	-0.085	-0.105
-397.165	201.053	-0.160	-0.317
-396.150	163.712	-0.077	-0.140
-395.136	-115.735	-0.144	0.034
-394.121	-200.000	0.016	0.258
-393.106	-14.432	-0.246	-0.202
-392.092	265.615	0.093	0.208
-391.077	18.126	0.193	0.197
-390.063	166.010	0.086	-0.155
-389.048	800.000	-0.120	0.478
-388.033	-93.358	-0.031	-0.011
-387.019	-62.547	-0.223	-0.118
-386.004	800.000	-0.120	0.443
-384.990	72.709	-0.240	0.321
-383.975	203.712	0.266	0.528
-382.960	-141.568	-0.248	-0.032
-381.946	-108.229	-0.404	0.111
-380.931	800.000	0.070	0.267
-379.917	-88.228	0.406	-0.155
-378.902	-96.849	-0.342	-0.114
-377.888	-105.272	-0.466	0.135
-376.873	-195.053	0.250	0.002
-375.858	96.896	0.142	-0.208
-374.844	-55.073	-0.156	-0.090
-373.829	-7.524	-0.233	-0.201
-372.815	-97.400	-0.140	-0.046
-371.800	266.924	-0.069	-0.154
-370.785	-163.725	0.454	0.027
-369.771	800.000	-0.067	-0.295
-368.756	206.783	-0.206	0.412
-367.742	118.947	-0.262	0.415
-366.727	232.570	-0.052	-0.110
-365.712	-112.627	-0.210	-0.053
-364.698	129.513	0.046	-0.076
-363.683	-41.518	-0.172	-0.113
-362.669	-126.977	-0.166	-0.031
-361.654	-169.703	-0.189	0.009
-360.639	8.576	0.125	0.120
-359.625	-200.000	-0.039	-0.502
-358.610	-198.636	-0.483	-0.003
-357.596	-14.658	-0.332	-0.273
-356.581	800.000	-0.076	-0.335
-355.566	-200.000	0.025	0.245
-354.552	520.454	-0.029	-0.087
-353.537	-200.000	0.018	0.307
-352.523	4.503	-0.231	0.216
-351.508	15.609	0.271	0.272
-350.493	-54.306	0.349	0.202
-349.479	-159.613	0.517	0.036
-348.464	362.360	0.020	-0.052
-347.450	55.034	0.163	-0.202
-346.435	-132.592	-0.396	0.064
-345.420	30.492	0.117	0.128
-344.406	-190.926	0.321	-0.004
-343.391	32.127	0.081	-0.090
-342.377	-170.822	-0.296	0.013
-341.362	-106.221	0.018	-0.005
-340.348	-89.140	0.528	-0.198
-339.333	800.000	0.009	0.044
-338.318	291.475	-0.066	-0.153
-337.304	-200.000	0.019	-0.137
-336.289	-174.535	0.218	0.008
-335.275	-183.612	0.137	-0.003
-334.260	-163.689	0.341	-0.020
-333.245	-51.322	-0.069	0.041
-332.231	-22.844	-0.358	-0.275
-331.216	-124.106	-0.424	0.084
-330.202	-200.000	-0.033	-0.225
-329.187	-173.548	0.388	-0.015
-328.172	800.000	-0.053	0.236
-327.158	-132.931	-0.740	0.119
-326.143	-8.848	0.233	-0.200
-325.129	-132.867	0.491	-0.079
-324.114	9.648	0.304	0.294
-323.099	-90.348	0.296	0.109
-322.085	-75.115	0.319	0.145
-321.070	-46.382	-0.406	-0.254
-320.056	-24.737	-0.207	0.157
-319.041	5.429	-0.023	0.022
-318.026	-200.000	0.614	-0.002
-317.012	16.555	-0.443	-0.447
-315.997	-72.802	0.067	0.032
-314.983	-144.711	0.135	0.016
-313.968	-200.000	0.057	-0.450
-312.953	800.000	0.077	0.385
-311.939	-200.000	-0.074	0.444
-310.924	273.952	0.196	0.445
-309.910	31.847	0.037	-0.041
-308.895	-168.859	-0.252	0.012
-307.880	-69.924	0.378	0.183
-306.866	-21.210	0.259	0.201
-305.851	-200.000	-0.030	0.540
-304.837	-82.653	0.164	0.068
-303.822	-135.551	0.344	0.052
-302.807	-200.000	0.004	0.375
-301.793	566.581	0.029	0.090
-300.778	15.712	0.209	-0.210
-299.764	-90.417	0.130	-0.048
-298.749	-93.147	0.251	-0.088
-297.735	-47.058	0.183	-0.113
-296.720	-100.300	-0.493	0.155
-295.705	-19.424	0.226	0.178
-294.691	90.202	0.121	-0.173
-293.676	-75.917	0.469	0.211
-292.662	-35.584	-0.390	0.269
-291.647	-200.000	0.029	0.199
-290.632	-37.551	0.036	-0.024
-289.618	251.823	-0.274	-0.596
-288.603	800.000	0.084	0.323
-287.589	-200.000	0.029	-0.264
-286.574	-160.394	-0.239	0.016
-285.559	-116.232	0.044	0.010
-284.545	-30.338	0.123	0.089
-283.530	112.887	-0.152	0.235
-282.516	-200.000	0.012	-0.133
-281.501	-42.616	-0.464	0.301
-280.486	-200.000	0.019	-0.197
-279.472	-94.850	0.318	0.109
-278.457	39.080	-0.210	0.240
-277.443	800.000	-0.080	-0.433
-276.428	44.622	0.102	0.120
-275.413	240.163	-0.176	-0.375
-274.399	23.574	-0.101	0.106
-273.384	648.272	0.021	0.068
-272.370	50.389	0.330	0.398
-271.355	26.607	0.177	0.189
-270.340	-200.000	-0.011	-0.259
-269.326	-123.755	0.136	0.027
-268.311	-118.089	-0.840	-0.190
-267.297	19.309	-0.294	0.301
-266.282	12.142	0.282	0.276
-265.267	-52.923	0.243	-0.142
-264.253	111.074	0.049	-0.076
-263.238	-45.884	0.212	0.133
-262.224	-90.875	0.182	0.066
-261.209	168.974	-0.332	0.605
-260.195	20.783	0.054	-0.056
-259.180	-200.000	-0.022	-0.200
-258.165	-174.104	0.522	-0.019
-257.151	-104.337	-0.190	-0.056
-256.136	70.770	-0.233	-0.307
-255.122	219.001	-0.121	0.246
-254.107	-36.791	0.156	-0.107
-253.092	-126.056	0.729	-0.138
-252.078	-200.000	0.001	0.200
-251.063	20.931	-0.299	-0.309
-250.049	731.497	-0.074	0.254
-249.034	177.774	0.300	0.559
-248.019	-43.184	-0.360	0.232
-247.005	-200.000	-0.114	-0.643
-245.990	-100.954	-0.356	-0.111
-244.976	-90.901	0.167	-0.061
-243.961	-186.012	-0.151	-0.003
-242.946	57.867	0.104	-0.130
-241.932	800.000	-0.025	-0.112
-240.917	-68.765	-0.450	0.221
-239.903	178.647	0.172	-0.320
-238.888	111.399	0.343	-0.527
-237.873	56.294	0.352	0.435
-236.859	800.000	-0.027	-0.143
-235.844	337.438	0.054	0.134
-234.830	-200.000	-0.042	-0.306
-233.815	-24.804	-0.229	-0.173
-232.800	-77.463	0.360	0.158
-231.786	-167.062	-0.071	-0.004
-230.771	-77.942	-0.161	-0.070
-229.757	751.685	-0.173	0.597
-228.742	-200.000	0.041	-0.382
-227.727	-125.958	-0.400	0.076
-226.713	-171.777	0.267	-0.011
-225.698	-124.553	0.151	0.030
-224.684	44.362	0.152	-0.178
-223.669	44.070	0.192	-0.224
-222.655	-11.640	0.508	-0.424
-221.640	179.890	-0.311	-0.582
-220.625	234.571	-0.021	0.043
-219.611	-200.000	0.021	0.204
-218.596	-200.000	-0.005	-0.178
-217.582	-115.542	0.553	0.131
-216.567	61.821	0.443	-0.561
-215.552	-122.889	0.440	0.089
-214.538	-25.119	0.104	0.078
-213.523	-150.827	-0.403	0.038
-212.509	-174.909	-0.181	-0.006
-211.494	605.561	0.050	-0.160
-210.479	145.609	-0.210	-0.358
-209.465	-69.955	-0.395	0.190
-208.450	-51.446	-0.372	0.220
-207.436	68.170	-0.153	0.199
-206.421	-200.000	-0.019	-0.228
-205.406	-3.222	0.369	-0.326
-204.392	-164.644	-0.272	-0.015
-203.377	-162.861	0.113	-0.007
-202.363	35.301	0.233	0.260
-201.348	-55.862	-0.091	0.052
-200.333	-98.517	-0.157	-0.051
-199.319	94.863	-0.124	-0.180
-198.304	-200.000	-0.000	0.098
-197.290	143.555	-0.134	0.228
-196.275	293.403	0.023	0.054
-195.260	-68.164	-0.192	0.095
-194.246	-200.000	-0.002	0.074
-193.231	-200.000	-0.043	-0.478
-192.217	40.263	-0.320	-0.366
-191.202	-57.335	-0.268	0.149
-190.187	173.336	-0.298	-0.548
-189.173	-106.672	0.231	-0.065
-188.158	-118.209	0.119	-0.027
-187.144	264.812	-0.110	0.244
-186.129	-5.104	0.102	-0.089
-185.114	133.202	0.308	0.507
-184.100	-35.572	-0.216	-0.149
-183.085	-138.129	-0.336	-0.047
-182.071	-6.265	0.209	-0.181
-181.056	304.481	0.143	0.338
-180.042	-117.793	0.313	0.071
-179.027	-20.763	-0.339	0.263
-178.012	-108.751	-0.160	-0.043
-176.998	-99.640	0.296	0.094
-175.983	-78.643	-0.184	0.080
-174.969	-108.897	0.379	-0.102
-173.954	262.644	-0.108	0.238
-172.939	800.000	0.072	0.313
-171.925	-36.350	0.532	-0.363
-170.910	69.556	-0.127	0.166
-169.896	-101.215	-0.067	0.021
-168.881	-113.963	-0.080	-0.020
-167.866	123.509	0.126	-0.202
-166.852	127.185	-0.127	0.205
-165.837	37.766	0.075	0.085
-164.823	-51.699	0.383	0.226
-163.808	190.528	-0.182	0.348
-162.793	-22.524	-0.104	0.080
-161.779	800.000	0.033	-0.130
-160.764	17.780	0.163	-0.164
-159.750	96.972	0.304	-0.443
-158.735	-200.000	0.076	-0.652
-157.720	-33.192	-0.201	0.141
-156.706	71.249	-0.154	0.203
-155.691	17.897	0.087	-0.088
-154.677	-141.257	0.370	0.047
-153.662	-5.507	0.118	-0.103
-152.647	-169.683	-0.208	0.009
-151.633	800.000	-0.088	0.416
-150.618	800.000	-0.113	-0.514
-149.604	-109.288	-0.160	0.043
-148.589	-56.465	0.198	-0.111
-147.574	326.176	0.113	-0.275
-146.560	116.729	0.086	0.134
-145.545	217.782	0.052	-0.106
-144.531	165.062	0.192	0.345
-143.516	479.137	-0.123	-0.356
-142.502	-134.034	-0.611	-0.095
-141.487	-162.631	-0.154	-0.009
-140.472	163.825	-0.259	-0.464
-139.458	308.666	0.213	-0.507
-138.443	144.902	-0.148	-0.251
-137.429	60.592	0.086	-0.108
-136.414	-159.748	-0.351	-0.024
-135.399	-67.719	-0.607	0.300
-134.385	-157.653	-0.196	-0.015
-133.370	157.904	0.118	-0.207
-132.356	-20.196	0.170	-0.133
-131.341	554.267	-0.064	0.197
-130.326	-69.981	0.475	-0.228
-129.312	35.406	0.414	-0.460
-128.297	-176.290	0.472	0.015
-127.283	-131.374	0.456	0.076
-126.268	365.600	-0.106	0.273
-125.253	800.000	0.031	-0.139
-124.239	-200.000	0.013	-0.173
-123.224	-150.173	0.485	0.047
-122.210	-170.108	-0.413	-0.018
-121.195	-200.000	-0.004	0.201
