DTS Sentinel unit serial number:	SN409020Multiplexer serial number:	ORYXHardware model number:	OX4-SRSoftware version number:	ORYX F/W v3.00 Oryx Data Collector v3.7.2.0data status	okinstallation	HaddamTimeLapsedifferential loss correction	single-endedforward channel	channel 3reverse channel	N/Adate	2011/06/22time	03:31:16forward acquisition time	30.00reverse acquisition time	0.00gamma	498.7831k internal	0.1751k external	0.1751temperature offset calibration	1.0074default loss term (dB/km)	0.3790temperature slope calibration	1.3530multiplexer offset coefficient	1.0000multiplexer slope coefficient	1.0000fibre end	0.00T internal ref (°C)	22.31T ext. ref 1 (°C)	17.90T ext. ref 2 (°C)	0.08length (m)	temperature (°C)	Stokes	anti-Stokes-747.200	-157.965	0.349	-0.027
-746.185	-200.000	-0.006	-0.104
-745.171	19.638	0.407	0.435
-744.156	-65.293	-0.217	0.116
-743.142	800.000	-0.023	0.088
-742.127	-63.174	0.176	0.096
-741.112	-109.107	-0.304	0.085
-740.098	551.022	-0.034	-0.109
-739.083	-165.883	-0.476	0.027
-738.069	-27.151	-0.379	0.293
-737.054	-120.143	-0.270	-0.061
-736.039	-85.381	-0.393	-0.162
-735.025	-197.380	0.357	-0.003
-734.010	-200.000	-0.045	-0.392
-732.996	-169.682	-0.872	0.041
-731.981	104.840	-0.151	-0.237
-730.966	-65.139	-0.115	0.062
-729.952	6.611	-0.188	0.186
-728.937	-200.000	-0.005	-0.160
-727.923	-200.000	-0.062	-0.555
-726.908	93.670	-0.225	-0.338
-725.894	108.717	-0.236	0.375
-724.879	800.000	0.041	-0.198
-723.864	-200.000	-0.027	0.440
-722.850	-16.681	-0.235	0.197
-721.835	48.274	-0.259	0.322
-720.821	-13.243	-0.363	0.312
-719.806	41.748	0.215	0.258
-718.791	5.700	0.382	0.375
-717.777	-175.756	-0.561	-0.020
-716.762	800.000	-0.067	0.260
-715.748	108.891	0.154	0.244
-714.733	-143.849	-0.257	-0.032
-713.718	-108.182	-0.477	-0.136
-712.704	-200.000	-0.044	-0.396
-711.689	92.805	-0.064	-0.097
-710.675	-200.000	0.008	-0.049
-709.660	-12.296	0.097	0.084
-708.645	800.000	-0.016	-0.087
-707.631	-65.473	-0.393	-0.209
-706.616	721.284	0.194	-0.690
-705.602	-50.950	0.284	-0.176
-704.587	-21.355	0.204	-0.165
-703.572	800.000	0.049	-0.252
-702.558	30.933	0.246	-0.280
-701.543	-23.569	-0.390	-0.310
-700.529	-176.833	0.226	0.007
-699.514	-72.447	-0.314	0.153
-698.499	-149.023	-0.119	0.013
-697.485	-200.000	-0.186	-0.001
-696.470	25.317	0.071	0.079
-695.456	-97.940	0.297	0.101
-694.441	-142.773	-0.114	0.015
-693.426	-84.160	0.245	-0.103
-692.412	401.467	-0.097	-0.271
-691.397	-200.000	-0.038	-0.356
-690.383	-40.752	-0.268	-0.184
-689.368	-166.665	-0.381	-0.021
-688.354	-79.833	0.330	-0.147
-687.339	-164.832	-0.390	0.023
-686.324	56.345	0.400	-0.515
-685.310	151.310	0.167	-0.302
-684.295	-35.706	0.180	-0.129
-683.281	-123.270	0.405	-0.085
-682.266	-122.222	-0.441	-0.095
-681.251	-61.236	-0.493	-0.275
-680.237	1.746	-0.574	-0.548
-679.222	7.128	0.152	-0.151
-678.208	-51.988	-0.315	-0.193
-677.193	-142.607	-0.419	0.054
-676.178	59.752	0.213	0.279
-675.164	-112.376	-0.527	-0.139
-674.149	66.107	0.150	-0.202
-673.135	-81.370	0.186	-0.081
-672.120	-96.698	-0.312	-0.108
-671.105	-200.000	0.022	0.181
-670.091	119.775	0.375	-0.617
-669.076	-123.445	0.421	-0.088
-668.062	95.537	-0.293	-0.443
-667.047	-36.071	0.192	-0.137
-666.032	-44.046	-0.266	0.176
-665.018	-25.470	0.132	-0.103
-664.003	-79.876	0.557	-0.247
-662.989	381.909	0.102	0.279
-661.974	-59.600	-0.322	0.182
-660.959	-49.360	0.049	-0.031
-659.945	119.590	-0.148	0.243
-658.930	-48.047	0.131	0.084
-657.916	-52.745	0.173	0.105
-656.901	-85.976	0.041	-0.017
-655.886	-106.485	-0.034	0.010
-654.872	-35.067	0.036	0.026
-653.857	-139.710	-0.050	-0.007
-652.843	224.155	-0.238	0.511
-651.828	-72.278	0.471	-0.230
-650.814	449.353	0.081	-0.237
-649.799	-11.717	0.186	-0.161
-648.784	-139.104	-0.642	-0.091
-647.770	-200.000	-0.113	-0.001
-646.755	234.347	-0.152	0.332
-645.741	91.070	-0.030	0.045
-644.726	-104.018	-0.355	0.109
-643.711	337.494	0.070	0.181
-642.697	76.300	-0.057	-0.079
-641.682	177.480	-0.238	0.461
-640.668	800.000	-0.097	0.388
-639.653	-113.566	-0.277	0.071
-638.638	-142.658	0.880	-0.113
-637.624	-55.017	0.219	-0.130
-636.609	145.978	0.193	-0.343
-635.595	-105.289	0.097	-0.029
-634.580	-72.326	0.393	0.192
-633.565	70.255	0.140	0.191
-632.551	273.399	-0.293	-0.687
-631.536	688.364	-0.062	0.215
-630.522	16.013	0.111	-0.115
-629.507	-64.069	-0.285	-0.153
-628.492	-95.230	-0.166	-0.059
-627.478	-47.088	-0.241	0.155
-626.463	-72.040	-0.591	-0.289
-625.449	-200.000	0.004	0.037
-624.434	204.252	-0.035	-0.072
-623.419	91.414	0.036	-0.054
-622.405	-53.554	-0.103	0.062
-621.390	-91.925	0.268	0.100
-620.376	-31.864	-0.332	-0.245
-619.361	-144.744	-0.589	-0.071
-618.346	27.639	-0.176	0.196
-617.332	-138.192	-0.203	0.029
-616.317	-8.560	0.355	0.315
-615.303	83.053	0.314	-0.452
-614.288	16.752	0.200	0.209
-613.273	-200.000	-0.007	0.154
-612.259	-4.367	-0.336	0.307
-611.244	-200.000	0.002	-0.352
-610.230	800.000	0.047	-0.242
-609.215	368.001	0.046	0.123
-608.201	18.726	0.138	0.146
-607.186	635.070	0.094	-0.316
-606.171	-71.175	-0.057	-0.028
-605.157	274.382	0.137	0.321
-604.142	-190.047	0.198	-0.003
-603.128	-188.202	-0.695	0.011
-602.113	-200.000	-0.020	-0.413
-601.098	-131.945	0.414	0.071
-600.084	-109.444	0.346	0.096
-599.069	800.000	-0.041	0.226
-598.055	16.395	-0.114	-0.119
-597.040	-164.213	-0.095	0.006
-596.025	-73.632	-0.176	0.084
-595.011	-149.849	-0.639	0.065
-593.996	-146.502	-0.156	0.018
-592.982	-61.669	-0.290	0.160
-591.967	12.437	-0.441	0.449
-590.952	-93.349	-0.453	0.165
-589.938	23.949	-0.353	0.385
-588.923	-68.301	0.095	-0.048
-587.909	-31.649	-0.272	-0.201
-586.894	-200.000	0.082	0.914
-585.879	800.000	-0.083	0.336
-584.865	244.289	0.177	0.395
-583.850	11.646	0.174	0.176
-582.836	-171.979	0.588	0.025
-581.821	800.000	-0.109	-0.582
-580.806	64.000	-0.107	-0.142
-579.792	278.961	0.027	-0.063
-578.777	496.211	0.071	-0.218
-577.763	-84.787	0.288	0.119
-576.748	69.046	-0.177	0.241
-575.733	-200.000	-0.027	0.206
-574.719	-189.138	0.113	-0.002
-573.704	333.983	-0.224	-0.575
-572.690	493.302	0.170	-0.517
-571.675	578.815	0.107	0.347
-570.661	-158.698	0.200	-0.015
-569.646	-200.000	-0.011	-0.476
-568.631	-32.485	0.455	-0.334
-567.617	-200.000	-0.017	0.299
-566.602	-63.914	0.063	0.034
-565.588	90.753	-0.332	-0.491
-564.573	-68.137	-0.257	0.132
-563.558	-35.772	0.163	0.117
-562.544	-40.363	0.224	-0.153
-561.529	-131.483	-0.121	-0.021
-560.515	-162.106	0.123	-0.008
-559.500	800.000	-0.028	-0.135
-558.485	-141.676	0.142	0.019
-557.471	-200.000	-0.030	0.235
-556.456	58.250	-0.455	0.588
-555.442	617.424	0.042	0.141
-554.427	-22.711	0.642	0.511
-553.412	124.203	0.282	0.469
-552.398	57.394	0.213	0.274
-551.383	196.704	-0.250	0.505
-550.369	-69.128	0.321	0.162
-549.354	-126.992	-0.712	-0.137
-548.339	-85.618	-0.369	0.150
-547.325	-6.195	0.046	-0.041
-546.310	-56.925	-0.149	-0.087
-545.296	-138.697	0.349	-0.050
-544.281	-200.000	-0.031	-0.261
-543.266	16.283	0.303	0.316
-542.252	-102.123	-0.186	-0.059
-541.237	-63.961	0.159	0.085
-540.223	-112.803	0.466	-0.121
-539.208	-35.908	0.368	0.262
-538.193	-9.474	-0.181	-0.159
-537.179	76.499	0.306	-0.428
-536.164	-200.000	-0.010	-0.427
-535.150	800.000	-0.027	-0.116
-534.135	104.704	0.198	0.309
-533.121	-35.980	-0.070	0.050
-532.106	-108.084	0.484	-0.137
-531.091	800.000	-0.083	-0.309
-530.077	-108.093	-0.100	0.028
-529.062	-52.144	0.240	0.146
-528.048	-128.484	0.416	-0.077
-527.033	-13.307	0.556	-0.475
-526.018	-11.845	-0.333	-0.287
-525.004	-75.934	-0.199	0.092
-523.989	-200.000	0.007	0.302
-522.975	6.422	-0.104	0.101
-521.960	-81.532	0.251	-0.108
-520.945	-74.002	0.145	0.069
-519.931	152.713	-0.110	0.199
-518.916	-177.613	-0.402	0.013
-517.902	-111.330	-0.192	-0.051
-516.887	-140.328	-0.165	0.023
-515.872	-174.763	0.439	-0.016
-514.858	70.600	-0.584	-0.796
-513.843	106.588	0.092	0.144
-512.829	-3.561	-0.192	-0.176
-511.814	-200.000	-0.150	0.000
-510.799	800.000	0.027	-0.136
-509.785	-8.498	-0.322	-0.284
-508.770	-158.747	-0.555	-0.041
-507.756	-198.526	-0.258	0.002
-506.741	-168.103	-0.370	-0.019
-505.726	800.000	0.091	-0.340
-504.712	-139.462	-0.222	-0.031
-503.697	-40.043	0.087	-0.060
-502.683	-186.975	0.271	-0.005
-501.668	-200.000	0.008	-0.429
-500.653	26.308	0.237	0.260
-499.639	-72.429	0.032	-0.016
-498.624	-117.638	0.646	-0.152
-497.610	732.877	0.112	0.397
-496.595	36.575	-0.192	-0.223
-495.581	-200.000	-0.023	0.470
-494.566	213.518	-0.136	0.283
-493.551	327.775	0.082	-0.208
-492.537	-200.000	-0.041	0.322
-491.522	-34.962	0.132	0.094
-490.508	-79.392	-0.321	-0.142
-489.493	43.597	-0.324	-0.390
-488.478	-83.362	0.483	0.203
-487.464	183.551	0.082	-0.160
-486.449	439.290	0.083	0.240
-485.435	30.265	0.217	-0.244
-484.420	90.993	0.462	0.683
-483.405	113.147	0.391	0.625
-482.391	-57.620	-0.318	-0.183
-481.376	-33.611	-0.150	0.108
-480.362	773.554	-0.054	-0.194
-479.347	-55.270	-0.103	0.061
-478.332	53.443	-0.100	-0.127
-477.318	-87.874	0.225	-0.088
-476.303	-132.458	-0.347	0.058
-475.289	423.541	0.052	0.146
-474.274	-112.490	-0.190	-0.049
-473.259	-79.913	-0.368	0.162
-472.245	-47.337	-0.120	-0.076
-471.230	556.937	0.165	-0.526
-470.216	762.640	0.145	0.520
-469.201	-22.947	0.192	0.152
-468.186	800.000	0.083	-0.304
-467.172	-82.741	0.149	0.063
-466.157	176.981	0.148	0.285
-465.143	-12.376	-0.343	-0.294
-464.128	22.822	-0.304	-0.327
-463.113	-56.992	-0.281	-0.163
-462.099	-200.000	0.083	-0.719
-461.084	-200.000	-0.036	-0.597
-460.070	-144.489	0.303	0.037
-459.055	-50.158	-0.293	-0.182
-458.040	352.496	0.140	-0.367
-457.026	232.224	0.193	-0.417
-456.011	800.000	-0.055	-0.308
-454.997	-167.015	0.191	0.010
-453.982	-90.615	-0.059	-0.022
-452.968	43.422	-0.063	0.075
-451.953	-32.802	0.403	0.294
-450.938	250.352	-0.107	-0.239
-449.924	291.647	-0.050	-0.120
-448.909	550.629	-0.068	0.214
-447.895	342.455	0.211	-0.545
-446.880	18.024	0.210	-0.220
-445.865	-200.000	-0.037	-0.233
-444.851	52.868	0.113	0.142
-443.836	800.000	-0.094	0.350
-442.822	-200.000	-0.337	0.001
-441.807	-80.549	0.262	0.114
-440.792	-200.000	0.023	-0.165
-439.778	-97.573	-0.318	-0.108
-438.763	-31.819	0.527	-0.387
-437.749	-136.922	0.280	0.042
-436.734	800.000	-0.046	-0.186
-435.719	75.445	-0.068	0.095
-434.705	-91.024	-0.571	0.214
-433.690	-19.546	-0.395	0.321
-432.676	141.720	-0.117	0.204
-431.661	436.634	0.021	-0.062
-430.646	204.723	-0.058	-0.118
-429.632	-108.755	-0.099	0.028
-428.617	4.274	0.208	-0.200
-427.603	-159.378	-0.530	0.038
-426.588	201.554	-0.034	0.069
-425.573	-155.421	0.237	0.020
-424.559	800.000	-0.079	0.319
-423.544	-200.000	-0.038	-0.337
-422.530	184.708	-0.215	0.420
-421.515	18.014	0.341	0.357
-420.500	800.000	0.034	0.183
-419.486	-106.513	0.187	0.054
-418.471	105.071	0.226	0.351
-417.457	-200.000	-0.049	0.678
-416.442	-200.000	0.017	-0.250
-415.428	545.592	-0.100	-0.314
-414.413	-76.892	-0.134	-0.061
-413.398	-109.584	0.214	-0.059
-412.384	-120.847	0.430	0.094
-411.369	110.904	-0.148	0.233
-410.355	-93.593	0.410	-0.148
-409.340	-65.008	-0.149	-0.078
-408.325	-68.295	0.113	0.057
-407.311	-200.000	-0.026	0.159
-406.296	-134.114	0.159	-0.025
-405.282	-98.524	-0.388	0.129
-404.267	117.083	0.215	0.346
-403.252	127.175	-0.184	-0.307
-402.238	352.269	0.128	-0.335
-401.223	-153.041	-0.300	0.027
-400.209	-107.508	0.269	0.077
-399.194	800.000	0.074	0.407
-398.179	-13.935	-0.258	-0.218
-397.165	-122.448	-0.583	-0.123
-396.150	-151.011	-0.073	0.007
-395.136	371.975	-0.044	0.117
-394.121	173.822	0.087	-0.164
-393.106	-200.000	-0.019	0.399
-392.092	800.000	-0.047	0.204
-391.077	136.211	0.031	-0.052
-390.063	-78.544	0.357	0.159
-389.048	-78.823	0.297	-0.132
-388.033	-115.176	-0.462	0.114
-387.019	229.070	0.055	-0.119
-386.004	800.000	-0.025	0.110
-384.990	-200.000	-0.001	0.278
-383.975	170.023	-0.257	-0.483
-382.960	-121.291	0.392	0.085
-381.946	-136.419	0.287	0.043
-380.931	-47.023	0.218	-0.139
-379.917	-119.420	0.370	0.084
-378.902	84.448	-0.129	0.185
-377.888	-96.650	0.294	-0.101
-376.873	-119.304	0.185	-0.042
-375.858	800.000	0.082	-0.381
-374.844	193.065	-0.035	-0.069
-373.829	-63.479	0.206	0.110
-372.815	-1.857	0.074	-0.069
-371.800	649.987	-0.062	0.209
-370.785	-40.658	-0.128	0.087
-369.771	63.091	-0.373	-0.489
-368.756	701.344	-0.077	0.267
-367.742	-81.279	0.455	-0.196
-366.727	-94.183	0.486	-0.173
-365.712	800.000	-0.024	-0.088
-364.698	-55.272	-0.254	0.149
-363.683	-64.204	-0.068	0.036
-362.669	-55.889	-0.281	0.164
-361.654	-78.253	0.483	0.216
-360.639	-43.050	0.573	-0.379
-359.625	-23.140	-0.239	-0.188
-358.610	-163.048	0.250	0.016
-357.596	-55.391	-0.502	0.294
-356.581	-85.714	0.368	-0.149
-355.566	39.765	0.202	0.237
-354.552	-4.756	-0.060	0.054
-353.537	255.999	0.251	0.565
-352.523	-125.873	0.384	-0.075
-351.508	800.000	0.055	-0.212
-350.493	57.581	-0.134	-0.172
-349.479	-200.000	-0.032	-0.202
-348.464	-88.315	0.095	0.037
-347.450	36.836	0.197	0.228
-346.435	35.127	-0.149	-0.171
-345.420	-48.233	-0.309	-0.194
-344.406	-177.650	0.527	0.016
-343.391	41.758	-0.021	-0.025
-342.377	-96.871	0.585	-0.200
-341.362	800.000	-0.053	-0.239
-340.348	800.000	0.035	-0.134
-339.333	-157.994	-0.207	-0.016
-338.318	-80.249	-0.531	-0.231
-337.304	-3.002	0.265	-0.242
-336.289	-160.510	0.364	-0.025
-335.275	236.117	0.047	0.103
-334.260	32.311	0.086	0.097
-333.245	84.196	-0.198	-0.284
-332.231	13.000	-0.158	-0.160
-331.216	365.067	-0.163	0.430
-330.202	-1.177	0.104	0.096
-329.187	362.426	-0.065	0.171
-328.172	-69.188	-0.268	0.134
-327.158	-104.863	-0.453	0.135
-326.143	-200.000	-0.038	0.312
-325.129	-89.831	0.339	0.129
-324.114	800.000	0.077	-0.282
-323.099	-154.603	0.281	-0.024
-322.085	-200.000	-0.016	0.300
-321.070	129.752	-0.221	-0.371
-320.056	-140.145	0.250	-0.034
-319.041	-69.971	-0.235	-0.117
-318.026	-119.075	-0.371	-0.084
-317.012	-5.376	0.122	0.110
-315.997	-64.601	0.324	0.171
-314.983	800.000	-0.069	-0.373
-313.968	-38.283	-0.289	0.200
-312.953	-157.096	-0.051	0.004
-311.939	43.599	-0.277	-0.331
-310.924	-79.661	-0.355	-0.156
-309.910	68.491	0.160	-0.215
-308.895	-62.804	-0.221	-0.119
-307.880	30.322	-0.224	-0.250
-306.866	21.639	-0.258	-0.275
-305.851	4.424	0.222	-0.213
-304.837	251.275	0.166	-0.370
-303.822	599.015	-0.092	0.299
-302.807	-6.493	0.297	0.264
-301.793	243.044	-0.106	-0.232
-300.778	-32.382	0.510	-0.371
-299.764	38.886	0.220	0.257
-298.749	-20.260	0.220	0.177
-297.735	80.580	0.180	-0.253
-296.720	800.000	0.018	-0.067
-295.705	-62.129	0.362	-0.197
-294.691	800.000	-0.034	0.183
-293.676	800.000	-0.046	0.169
-292.662	-102.623	-0.052	0.016
-291.647	-197.019	-0.667	-0.005
-290.632	-105.985	0.227	-0.066
-289.618	-125.473	-0.307	-0.061
-288.603	-55.495	0.107	-0.062
-287.589	44.360	-0.136	-0.163
-286.574	-144.375	-0.194	-0.023
-285.559	-200.000	0.051	-0.564
-284.545	54.025	0.298	-0.375
-283.530	299.787	0.110	0.267
-282.516	800.000	0.046	0.201
-281.501	13.503	-0.307	-0.311
-280.486	427.891	-0.159	-0.449
-279.472	-135.366	0.344	-0.053
-278.457	144.118	0.282	0.492
-277.443	-32.882	0.273	0.197
-276.428	-121.369	-0.482	0.104
-275.413	22.540	0.365	-0.390
-274.399	800.000	-0.036	-0.182
-273.384	-59.559	-0.124	0.069
-272.370	-200.000	-0.018	0.418
-271.355	-200.000	-0.056	0.454
-270.340	31.029	-0.235	0.262
-269.326	402.667	-0.096	-0.265
-268.311	135.516	0.127	-0.216
-267.297	-200.000	0.009	-0.189
-266.282	-80.792	0.317	-0.136
-265.267	-25.426	-0.243	-0.187
-264.253	320.882	-0.082	0.205
-263.238	-138.123	-0.094	0.013
-262.224	-200.000	-0.024	-0.175
-261.209	-200.000	0.013	-0.151
-260.195	-26.343	-0.115	0.088
-259.180	-99.521	0.126	-0.041
-258.165	-200.000	-0.025	-0.444
-257.151	19.558	-0.347	-0.364
-256.136	-154.028	-0.406	-0.036
-255.122	144.248	-0.175	0.306
-254.107	-27.341	0.353	-0.267
-253.092	-64.102	0.297	0.157
-252.078	13.572	-0.271	-0.274
-251.063	-31.304	0.116	-0.085
-250.049	-127.765	-0.595	0.111
-249.034	-200.000	0.012	-0.155
-248.019	-43.204	0.136	0.090
-247.005	-200.000	0.012	0.415
-245.990	-2.367	0.252	-0.230
-244.976	-129.386	-0.314	0.056
-243.961	800.000	-0.152	-0.568
-242.946	-66.121	0.192	0.100
-241.932	-200.000	-0.010	0.204
-240.917	-155.129	0.722	0.061
-239.903	800.000	-0.086	0.354
-238.888	75.807	0.377	-0.519
-237.873	53.056	0.301	0.376
-236.859	-148.443	0.199	-0.021
-235.844	800.000	-0.148	0.549
-234.830	800.000	-0.102	0.380
-233.815	-99.634	0.366	-0.119
-232.800	48.849	-0.161	-0.197
-231.786	253.676	0.127	-0.284
-230.771	7.330	0.272	-0.265
-229.757	-143.435	0.269	-0.033
-228.742	-200.000	0.006	-0.154
-227.727	-161.012	0.305	-0.021
-226.713	-20.055	-0.241	-0.194
-225.698	-33.304	-0.397	-0.285
-224.684	-159.545	-0.156	0.011
-223.669	-124.099	0.188	0.038
-222.655	-179.943	0.578	0.016
-221.640	-65.064	0.353	0.185
-220.625	457.825	0.029	0.084
-219.611	609.641	0.093	0.303
-218.596	32.522	-0.187	0.210
-217.582	382.963	0.076	0.204
-216.567	343.361	-0.121	0.309
-215.552	91.556	-0.260	-0.381
-214.538	-64.990	0.253	0.132
-213.523	-134.618	0.139	-0.022
-212.509	14.435	-0.141	0.143
-211.494	101.735	-0.189	0.287
-210.479	76.817	0.091	-0.126
-209.465	-121.246	-0.568	0.122
-208.450	-47.748	0.415	0.261
-207.436	-22.712	-0.110	0.087
-206.421	86.753	-0.254	-0.366
-205.406	-200.000	-0.000	-0.100
-204.392	-134.471	-0.206	0.032
-203.377	408.303	-0.029	0.080
-202.363	-56.234	-0.248	-0.143
-201.348	-155.127	-0.178	-0.015
-200.333	-15.640	0.166	0.137
-199.319	-150.545	0.220	0.022
-198.304	-107.363	0.573	-0.162
-197.290	-99.546	-0.537	0.174
-196.275	91.685	-0.159	-0.233
-195.260	78.551	0.176	-0.245
-194.246	228.097	-0.205	0.436
-193.231	-152.326	-0.540	-0.050
-192.217	74.845	0.125	0.171
-191.202	364.703	0.059	0.154
-190.187	214.352	-0.023	-0.047
-189.173	-87.042	0.045	0.018
-188.158	414.590	-0.113	0.314
-187.144	-47.977	-0.245	-0.154
-186.129	175.496	0.087	0.164
-185.114	161.580	0.124	0.227
-184.100	-48.394	-0.169	-0.106
-183.085	-87.483	0.131	0.051
-182.071	119.967	-0.057	-0.092
-181.056	353.880	0.065	-0.169
-180.042	800.000	0.084	0.345
-179.027	800.000	-0.077	0.318
-178.012	142.881	0.114	0.198
-176.998	452.832	0.055	0.160
-175.983	343.235	0.155	0.396
-174.969	43.091	-0.352	0.417
-173.954	-66.309	-0.162	0.084
-172.939	-130.505	-0.524	0.091
-171.925	-90.919	-0.528	0.196
-170.910	800.000	-0.089	0.502
-169.896	84.974	0.181	-0.258
-168.881	79.212	-0.163	-0.227
-167.866	-113.688	0.246	-0.062
-166.852	-8.161	-0.187	-0.164
-165.837	503.180	0.096	-0.291
-164.823	45.266	-0.109	0.131
-163.808	79.319	0.374	0.522
-162.793	239.705	-0.103	-0.224
-161.779	61.824	-0.191	-0.247
-160.764	-62.889	0.377	-0.202
-159.750	167.850	-0.198	-0.367
-158.735	-57.278	0.165	-0.094
-157.720	-97.466	0.259	-0.087
-156.706	221.365	0.124	0.260
-155.691	-200.000	-0.022	0.369
-154.677	-137.713	-0.325	-0.047
-153.662	-186.699	-0.236	0.004
-152.647	-95.502	-0.240	0.083
-151.633	800.000	0.124	0.657
-150.618	-128.168	-0.186	-0.034
-149.604	-79.769	0.145	0.063
-148.589	429.316	-0.208	0.587
-147.574	226.948	0.152	0.322
-146.560	-95.170	0.244	0.085
-145.545	800.000	-0.036	-0.136
-144.531	-200.000	0.020	0.415
-143.516	-114.131	-0.242	-0.060
-142.502	-106.098	0.311	-0.090
-141.487	-110.068	-0.307	0.083
-140.472	-131.120	-0.451	0.077
-139.458	800.000	-0.116	0.493
-138.443	-88.023	0.402	-0.156
-137.429	77.636	-0.203	-0.281
-136.414	-36.326	-0.371	-0.259
-135.399	-119.667	0.404	-0.090
-134.385	-173.559	-0.359	0.014
-133.370	206.852	0.185	-0.375
-132.356	-121.208	0.454	0.098
-131.341	-200.000	0.000	0.054
-130.326	-133.264	-0.357	-0.058
-129.312	-116.332	-0.298	0.071
-128.297	-118.947	-0.256	0.058
-127.283	484.201	0.162	-0.480
-126.268	-61.247	0.372	-0.202
-125.253	-200.000	0.012	0.494
-124.239	-12.013	0.377	-0.320
-123.224	-160.389	-0.336	-0.023
-122.210	-30.885	-0.299	0.218
