DTS Sentinel unit serial number:	SN409020Multiplexer serial number:	ORYXHardware model number:	OX4-SRSoftware version number:	ORYX F/W v3.00 Oryx Data Collector v3.7.2.0data status	okinstallation	HaddamTimeLapsedifferential loss correction	single-endedforward channel	channel 3reverse channel	N/Adate	2011/06/21time	19:36:17forward acquisition time	30.00reverse acquisition time	0.00gamma	498.7831k internal	0.1796k external	0.1796temperature offset calibration	1.0074default loss term (dB/km)	0.3790temperature slope calibration	1.3530multiplexer offset coefficient	1.0000multiplexer slope coefficient	1.0000fibre end	0.00T internal ref (°C)	33.66T ext. ref 1 (°C)	25.68T ext. ref 2 (°C)	0.25length (m)	temperature (°C)	Stokes	anti-Stokes-747.200	52.970	0.248	-0.307
-746.185	42.880	-0.151	0.178
-745.171	-57.891	-0.117	-0.066
-744.156	-200.000	-0.060	0.451
-743.142	-8.144	-0.609	0.531
-742.127	208.074	-0.073	0.149
-741.112	-89.595	0.312	-0.118
-740.098	-105.586	-0.268	-0.078
-739.083	-193.044	-0.714	-0.008
-738.069	-200.000	-0.024	0.223
-737.054	511.625	0.124	-0.377
-736.039	800.000	-0.047	0.210
-735.025	169.160	-0.321	-0.596
-734.010	208.709	0.028	-0.056
-732.996	800.000	-0.046	-0.249
-731.981	-68.683	-0.424	0.212
-730.966	-200.000	-0.391	-0.002
-729.952	-200.000	0.024	-0.558
-728.937	42.838	-0.308	-0.364
-727.923	-57.050	-0.199	0.113
-726.908	-114.303	0.286	0.071
-725.894	478.343	-0.051	-0.149
-724.879	179.688	0.209	-0.397
-723.864	-200.000	0.054	-0.316
-722.850	-94.920	-0.144	0.050
-721.835	-200.000	0.013	0.142
-720.821	-200.000	0.009	-0.315
-719.806	-11.147	-0.060	-0.051
-718.791	800.000	0.044	-0.218
-717.777	-145.431	0.215	-0.025
-716.762	-72.773	0.160	0.076
-715.748	-100.528	-0.304	-0.097
-714.733	-200.000	-0.053	-0.312
-713.718	115.868	0.015	-0.023
-712.704	800.000	0.068	0.261
-711.689	-61.753	-0.219	0.119
-710.675	149.070	0.282	-0.495
-709.660	-20.087	0.184	-0.146
-708.645	325.688	-0.112	0.277
-707.631	169.182	0.172	-0.318
-706.616	60.782	-0.127	-0.163
-705.602	-16.077	-0.061	-0.050
-704.587	1.633	0.319	-0.297
-703.572	306.472	-0.213	-0.515
-702.558	123.172	-0.144	0.233
-701.543	75.844	0.125	0.171
-700.529	68.030	0.064	0.084
-699.514	800.000	-0.212	-0.820
-698.499	-200.000	-0.025	-0.408
-697.485	-200.000	0.048	-0.386
-696.470	-150.472	0.388	-0.038
-695.456	293.421	0.055	-0.130
-694.441	43.709	0.227	-0.269
-693.426	800.000	0.047	0.251
-692.412	-124.840	0.070	0.014
-691.397	24.870	-0.282	-0.302
-690.383	800.000	-0.052	0.208
-689.368	16.866	-0.154	-0.157
-688.354	-152.986	-0.428	0.039
-687.339	448.870	-0.283	-0.809
-686.324	573.138	0.101	-0.321
-685.310	800.000	0.099	-0.540
-684.295	-51.808	0.484	-0.291
-683.281	-200.000	0.007	-0.441
-682.266	-90.194	-0.175	0.066
-681.251	173.288	-0.235	0.438
-680.237	-53.877	-0.294	-0.173
-679.222	136.812	-0.144	0.244
-678.208	-51.362	0.164	0.099
-677.193	-5.392	-0.165	0.146
-676.178	6.379	0.173	0.166
-675.164	-39.109	-0.175	0.119
-674.149	87.561	-0.313	0.449
-673.135	62.214	0.215	0.277
-672.120	-129.477	-0.168	0.030
-671.105	800.000	0.096	-0.354
-670.091	-51.189	0.330	-0.199
-669.076	-62.762	-0.210	-0.112
-668.062	-20.939	0.138	0.109
-667.047	-99.580	0.231	0.075
-666.032	800.000	0.124	0.473
-665.018	-89.931	0.388	-0.146
-664.003	458.710	0.215	-0.619
-662.989	36.672	0.076	-0.087
-661.974	-179.402	-0.360	-0.010
-660.959	-102.016	-0.474	0.147
-659.945	-18.014	0.275	0.222
-658.930	-111.880	-0.214	-0.055
-657.916	105.892	0.191	-0.293
-656.901	-200.000	0.008	-0.195
-655.886	-121.906	-0.192	0.041
-654.872	800.000	-0.031	0.112
-653.857	-2.944	-0.044	-0.040
-652.843	377.492	-0.212	0.562
-651.828	800.000	0.079	-0.322
-650.814	15.935	-0.389	-0.395
-649.799	37.114	-0.148	0.169
-648.784	-48.062	-0.269	-0.167
-647.770	-99.054	0.424	-0.138
-646.755	-117.879	-0.224	-0.051
-645.741	-84.742	-0.158	-0.064
-644.726	23.267	0.078	0.083
-643.711	188.061	-0.104	0.202
-642.697	334.697	-0.087	0.218
-641.682	130.061	-0.091	-0.151
-640.668	-4.180	0.295	0.263
-639.653	-174.453	0.416	-0.015
-638.638	97.361	-0.137	0.203
-637.624	-189.856	-0.161	-0.002
-636.609	-115.203	-0.457	-0.111
-635.595	21.925	0.401	0.422
-634.580	-200.000	-0.056	0.318
-633.565	253.103	0.023	0.050
-632.551	319.126	-0.108	-0.266
-631.536	-83.360	0.321	-0.132
-630.522	-200.000	-0.013	-0.404
-629.507	-200.000	0.065	-0.431
-628.492	-200.000	0.017	-0.253
-627.478	-106.196	-0.243	-0.070
-626.463	-52.862	0.089	-0.052
-625.449	193.174	-0.085	-0.166
-624.434	487.006	-0.052	-0.153
-623.419	-155.043	0.335	-0.028
-622.405	4.185	0.324	0.305
-621.390	119.314	-0.140	0.224
-620.376	173.246	0.307	-0.571
-619.361	41.086	0.254	-0.296
-618.346	33.945	-0.141	0.159
-617.332	91.294	-0.241	-0.349
-616.317	-200.000	0.001	-0.158
-615.303	-200.000	0.017	-0.457
-614.288	-200.000	-0.035	0.346
-613.273	-41.124	-0.163	-0.108
-612.259	35.137	0.139	0.157
-611.244	369.837	-0.168	0.440
-610.230	103.734	-0.254	-0.384
-609.215	51.511	0.126	0.154
-608.201	298.080	-0.051	-0.120
-607.186	-97.800	-0.140	-0.046
-606.171	78.940	-0.144	-0.199
-605.157	302.582	0.038	-0.092
-604.142	239.043	-0.017	0.037
-603.128	93.915	-0.223	-0.327
-602.113	-92.866	0.304	0.109
-601.098	-79.890	-0.442	0.191
-600.084	-63.036	-0.186	0.099
-599.069	-200.000	0.018	-0.345
-598.055	-200.000	0.020	-0.651
-597.040	-21.951	-0.176	-0.138
-596.025	384.482	-0.032	-0.085
-595.011	-174.299	0.256	0.009
-593.996	40.302	-0.147	-0.170
-592.982	-104.321	0.190	0.056
-591.967	-84.923	0.442	-0.178
-590.952	-107.884	0.056	-0.016
-589.938	-143.679	-0.167	-0.020
-588.923	-119.723	-0.161	-0.035
-587.909	-50.725	-0.265	0.160
-586.894	-152.119	-0.569	-0.053
-585.879	-200.000	-0.062	-0.509
-584.865	-62.861	-0.108	-0.057
-583.850	156.977	0.169	0.301
-582.836	-155.432	0.160	-0.013
-581.821	76.373	0.040	-0.054
-580.806	-153.519	0.169	-0.015
-579.792	800.000	0.086	0.353
-578.777	-72.855	-0.247	-0.116
-577.763	-200.000	0.049	-0.394
-576.748	800.000	-0.068	-0.271
-575.733	71.710	0.265	-0.355
-574.719	-73.725	0.453	-0.211
-573.704	800.000	0.121	0.517
-572.690	209.723	0.082	0.166
-571.675	-13.767	-0.434	-0.360
-570.661	-67.747	-0.431	0.216
-569.646	-65.421	0.077	0.040
-568.631	-11.030	0.627	0.531
-567.617	800.000	-0.106	0.471
-566.602	800.000	0.069	0.333
-565.588	-200.000	-0.001	-0.082
-564.573	-60.507	-0.156	-0.085
-563.558	104.716	-0.061	0.093
-562.544	-186.888	-0.263	-0.005
-561.529	35.051	-0.266	-0.300
-560.515	19.776	-0.123	-0.127
-559.500	-200.000	-0.071	0.422
-558.485	8.296	0.191	0.184
-557.471	-7.023	-0.065	-0.057
-556.456	-76.248	0.118	0.053
-555.442	-78.610	-0.187	0.082
-554.427	-200.000	-0.493	-0.003
-553.412	-200.000	-0.079	0.474
-552.398	-75.850	0.082	0.037
-551.383	50.568	0.071	0.086
-550.369	-148.816	0.679	-0.070
-549.354	530.248	-0.236	0.721
-548.339	800.000	-0.090	0.357
-547.325	-123.365	0.253	0.052
-546.310	4.307	0.452	0.426
-545.296	-13.977	-0.091	0.076
-544.281	-175.015	-0.234	-0.008
-543.266	-10.639	-0.245	-0.208
-542.252	21.570	0.284	0.297
-541.237	-70.773	0.076	0.037
-540.223	-154.381	-0.157	0.013
-539.208	-200.000	-0.064	0.498
-538.193	-200.000	-0.023	0.315
-537.179	-134.749	-0.237	-0.037
-536.164	45.762	0.263	0.312
-535.150	-105.035	0.123	0.036
-534.135	-54.451	0.140	-0.081
-533.121	-200.000	0.000	-0.104
-532.106	-95.961	-0.158	-0.054
-531.091	-75.861	0.526	0.238
-530.077	-200.000	0.029	0.264
-529.062	-130.894	-0.068	0.012
-528.048	-19.500	0.311	0.247
-527.033	204.322	-0.249	0.498
-526.018	-41.936	0.321	0.211
-525.004	253.726	0.190	-0.418
-523.989	-200.000	-0.026	-0.490
-522.975	-150.450	-0.315	-0.031
-521.960	-200.000	0.083	-0.607
-520.945	-87.132	-0.136	-0.053
-519.931	-123.308	-0.162	-0.033
-518.916	-187.387	-0.154	0.003
-517.902	-74.130	0.119	0.055
-516.887	-94.523	-0.145	-0.050
-515.872	38.687	-0.476	0.546
-514.858	215.003	-0.146	0.299
-513.843	-82.141	0.157	-0.065
-512.829	-129.719	0.314	-0.055
-511.814	-145.660	0.375	0.042
-510.799	133.352	0.263	-0.438
-509.785	-56.787	0.102	-0.058
-508.770	-122.123	0.120	-0.025
-507.756	37.109	0.162	0.184
-506.741	137.361	-0.289	0.487
-505.726	-200.000	0.008	-0.482
-504.712	-27.384	0.327	0.244
-503.697	-11.227	0.143	0.120
-502.683	293.798	-0.142	-0.334
-501.668	-26.854	-0.294	-0.220
-500.653	-200.000	-0.067	0.432
-499.639	105.741	0.207	-0.314
-498.624	-35.934	0.144	0.100
-497.610	-200.000	0.072	0.511
-496.595	24.495	-0.354	-0.376
-495.581	-167.579	-0.347	0.017
-494.566	-200.000	-0.018	-0.125
-493.551	271.852	0.141	-0.320
-492.537	1.589	-0.171	-0.158
-491.522	-115.876	-0.301	0.072
-490.508	52.286	-0.351	0.430
-489.493	237.802	-0.165	-0.353
-488.478	800.000	0.162	-0.729
-487.464	269.072	0.045	-0.101
-486.449	0.003	0.177	0.161
-485.435	-189.410	-0.550	-0.008
-484.420	-122.516	0.121	-0.025
-483.405	-162.615	0.005	-0.000
-482.391	45.581	0.306	0.362
-481.376	-9.361	-0.496	0.424
-480.362	-200.000	0.050	-0.445
-479.347	-78.571	-0.147	-0.064
-478.332	-93.394	-0.280	0.099
-477.318	-179.958	-0.577	0.015
-476.303	-41.077	-0.146	-0.096
-475.289	295.592	-0.153	0.361
-474.274	800.000	0.054	0.249
-473.259	-200.000	0.008	-0.554
-472.245	-39.090	0.426	-0.287
-471.230	-200.000	0.001	0.570
-470.216	-200.000	0.022	0.237
-469.201	-10.369	0.248	-0.210
-468.186	365.245	0.094	0.244
-467.172	-200.000	-0.050	-0.722
-466.157	25.218	-0.245	-0.261
-465.143	234.974	-0.076	0.161
-464.128	9.510	0.183	0.177
-463.113	13.620	-0.345	0.344
-462.099	-200.000	0.028	0.270
-461.084	130.221	-0.130	-0.214
-460.070	109.893	-0.342	-0.527
-459.055	-200.000	0.060	0.472
-458.040	-111.920	-0.242	-0.062
-457.026	-68.301	-0.678	-0.336
-456.011	37.876	-0.285	-0.324
-454.997	-131.703	0.099	0.016
-453.982	800.000	-0.062	0.325
-452.968	-91.286	-0.330	-0.120
-451.953	251.703	0.214	0.468
-450.938	455.516	0.105	-0.298
-449.924	-116.670	-0.197	0.046
-448.909	-169.230	0.350	-0.016
-447.895	524.104	-0.045	-0.135
-446.880	-19.684	-0.385	0.304
-445.865	326.078	-0.081	-0.199
-444.851	-54.841	0.176	-0.101
-443.836	582.438	-0.096	-0.303
-442.822	-200.000	-0.047	-0.320
-441.807	-111.735	-0.623	-0.160
-440.792	76.673	0.044	-0.060
-439.778	-200.000	-0.004	-0.268
-438.763	17.016	-0.241	0.244
-437.749	-57.395	0.193	-0.108
-436.734	-173.976	0.619	-0.023
-435.719	-200.000	-0.027	0.186
-434.705	-143.550	-0.417	0.050
-433.690	-200.000	0.052	-0.400
-432.676	125.053	0.100	-0.162
-431.661	800.000	-0.125	0.547
-430.646	20.113	-0.462	0.477
-429.632	632.822	0.024	0.080
-428.617	-140.273	0.216	-0.029
-427.603	224.819	0.153	0.317
-426.588	-200.000	0.042	0.326
-425.573	44.817	-0.222	0.262
-424.559	-20.191	-0.379	0.298
-423.544	800.000	0.061	0.328
-422.530	-200.000	-0.004	0.318
-421.515	-200.000	-0.049	0.422
-420.500	114.781	0.216	0.338
-419.486	800.000	-0.122	0.439
-418.471	13.328	-0.412	-0.408
-417.457	143.874	-0.131	0.224
-416.442	-104.388	0.483	0.142
-415.428	-166.653	0.233	0.012
-414.413	-99.810	0.360	-0.115
-413.398	-200.000	-0.031	0.262
-412.384	-157.373	0.609	0.046
-411.369	215.818	-0.224	-0.456
-410.355	-200.000	0.043	-0.332
-409.340	-200.000	-0.003	-0.146
-408.325	-60.080	-0.449	0.244
-407.311	89.553	-0.044	0.063
-406.296	800.000	-0.014	0.066
-405.282	-15.196	-0.181	0.148
-404.267	-145.291	-0.319	0.036
-403.252	-185.290	-0.504	-0.010
-402.238	194.379	-0.012	0.023
-401.223	301.370	0.037	-0.087
-400.209	-132.765	-0.114	-0.018
-399.194	-102.190	0.414	-0.126
-398.179	-114.823	-0.365	-0.088
-397.165	22.583	-0.280	-0.293
-396.150	35.378	0.184	0.206
-395.136	-200.000	-0.072	0.477
-394.121	-145.013	0.250	0.029
-393.106	-128.131	-0.192	0.035
-392.092	-60.629	-0.280	-0.151
-391.077	-95.925	0.594	-0.201
-390.063	-5.458	0.260	0.228
-389.048	-200.000	0.232	0.001
-388.033	-200.000	0.026	-0.187
-387.019	480.224	0.167	0.486
-386.004	-93.267	-0.448	0.158
-384.990	-200.000	-0.043	-0.304
-383.975	66.867	0.186	-0.243
-382.960	-34.342	0.192	0.135
-381.946	-173.860	-0.328	0.012
-380.931	-6.794	-0.436	0.379
-379.917	-200.000	0.233	-0.000
-378.902	-131.514	0.439	-0.073
-377.888	98.033	0.134	0.198
-376.873	-103.092	0.315	0.095
-375.858	79.537	-0.194	0.266
-374.844	-192.132	-0.306	-0.004
-373.829	-113.888	0.290	0.071
-372.815	-9.466	0.272	-0.232
-371.800	-200.000	0.016	0.475
-370.785	-188.950	-0.522	0.008
-369.771	169.144	0.070	-0.128
-368.756	-32.109	-0.290	-0.207
-367.742	-200.000	-0.007	0.435
-366.727	-200.000	-0.049	-0.312
-365.712	-200.000	0.038	0.352
-364.698	-147.280	0.156	0.017
-363.683	-74.495	0.224	-0.103
-362.669	-138.950	-0.367	-0.050
-361.654	11.294	0.376	0.367
-360.639	-173.353	0.155	0.006
-359.625	-3.715	-0.326	0.289
-358.610	2.836	0.199	-0.184
-357.596	-200.000	0.055	0.409
-356.581	90.882	0.217	0.311
-355.566	150.157	0.271	-0.470
-354.552	-52.007	-0.307	-0.182
-353.537	148.020	-0.248	-0.428
-352.523	-200.000	0.038	-0.825
-351.508	-178.940	0.297	0.008
-350.493	-41.650	0.347	0.227
-349.479	-200.000	0.058	0.430
-348.464	-80.180	-0.164	0.070
-347.450	-137.371	-0.420	0.060
-346.435	-200.000	0.058	-0.378
-345.420	216.922	-0.049	-0.100
-344.406	-77.808	0.500	0.219
-343.391	-8.633	-0.138	-0.118
-342.377	461.560	0.223	0.639
-341.362	-81.495	-0.358	-0.149
-340.348	800.000	0.021	-0.101
-339.333	-200.000	-0.342	-0.002
-338.318	-16.719	-0.097	-0.078
-337.304	-117.871	-0.722	-0.164
-336.289	108.956	-0.309	-0.473
-335.275	-118.816	0.409	-0.091
-334.260	96.496	0.392	-0.573
-333.245	324.347	0.208	-0.508
-332.231	566.388	0.103	0.320
-331.216	-115.373	0.394	-0.094
-330.202	185.432	0.173	-0.327
-329.187	188.844	-0.069	0.131
-328.172	362.991	0.064	0.165
-327.158	-32.417	-0.395	-0.280
-326.143	800.000	0.175	0.653
-325.129	-200.000	0.072	0.472
-324.114	176.942	0.149	-0.278
-323.099	-11.241	-0.209	-0.175
-322.085	22.422	0.243	0.253
-321.070	726.219	0.107	-0.367
-320.056	104.761	-0.298	0.448
-319.041	-7.088	0.118	0.102
-318.026	-105.521	0.117	-0.033
-317.012	585.182	0.098	-0.309
-315.997	16.226	0.479	-0.481
-314.983	-200.000	0.010	-0.283
-313.968	-52.306	-0.494	-0.291
-312.953	247.993	0.078	0.170
-311.939	61.304	0.211	0.267
-310.924	-64.586	0.493	-0.254
-309.910	-200.000	-0.008	-0.073
-308.895	-57.293	-0.221	-0.124
-307.880	-147.270	-0.383	0.041
-306.866	58.211	0.065	-0.081
-305.851	-200.000	0.043	0.243
-304.837	-91.034	0.190	0.069
-303.822	-41.814	0.062	-0.040
-302.807	16.106	-0.181	0.181
-301.793	-71.249	-0.515	0.245
-300.778	-109.383	-0.090	0.024
-299.764	-200.000	0.044	-0.733
-298.749	97.760	0.052	-0.076
-297.735	-27.894	0.368	-0.271
-296.720	-200.000	0.485	-0.000
-295.705	30.282	-0.372	-0.404
-294.691	-200.000	-0.107	-0.743
-293.676	634.757	-0.035	-0.113
-292.662	12.626	-0.123	-0.121
-291.647	800.000	-0.121	-0.611
-290.632	67.033	0.118	-0.153
-289.618	4.577	-0.264	0.247
-288.603	-45.830	0.571	0.358
-287.589	234.440	0.167	-0.352
-286.574	-200.000	0.022	-0.320
-285.559	-200.000	-0.013	0.318
-284.545	-123.980	0.163	-0.032
-283.530	31.484	-0.172	-0.188
-282.516	-200.000	-0.018	-0.398
-281.501	-200.000	-0.036	0.339
-280.486	-138.224	0.230	-0.032
-279.472	-33.839	0.413	-0.289
-278.457	-87.867	-0.215	-0.082
-277.443	-126.385	-0.439	0.082
-276.428	-92.832	-0.356	0.126
-275.413	-181.611	0.101	0.002
-274.399	-139.179	-0.354	-0.048
-273.384	12.003	-0.274	-0.267
-272.370	-145.928	-0.421	-0.047
-271.355	-162.994	0.233	0.014
-270.340	21.259	0.154	-0.159
-269.326	-200.000	-0.045	0.344
-268.311	58.645	-0.189	-0.236
-267.297	62.217	0.017	0.022
-266.282	373.773	0.138	0.358
-265.267	-54.203	0.363	0.209
-264.253	180.650	-0.041	-0.077
-263.238	41.903	0.043	0.050
-262.224	176.697	-0.146	0.271
-261.209	-84.804	0.174	0.069
-260.195	21.022	-0.163	-0.168
-259.180	-200.000	0.032	-0.187
-258.165	42.996	0.049	0.057
-257.151	-5.473	-0.293	0.255
-256.136	641.666	-0.086	0.280
-255.122	182.748	0.124	0.233
-254.107	-93.314	-0.284	-0.099
-253.092	-19.281	-0.276	0.218
-252.078	800.000	0.093	-0.371
-251.063	259.954	0.240	-0.528
-250.049	-61.647	0.091	-0.049
-249.034	-122.497	0.430	-0.088
-248.019	-101.423	0.239	-0.074
-247.005	-200.000	0.042	-0.421
-245.990	-200.000	-0.085	-0.595
-244.976	103.826	-0.108	-0.161
-243.961	243.895	0.168	-0.359
-242.946	-42.329	0.514	-0.333
-241.932	350.548	0.134	0.339
-240.917	150.555	-0.242	-0.418
-239.903	-141.955	-0.164	-0.021
-238.888	-200.000	-0.014	0.198
-237.873	-45.978	0.140	0.087
-236.859	800.000	-0.076	0.414
-235.844	76.383	-0.340	0.458
-234.830	559.015	0.104	0.321
-233.815	-62.612	0.258	-0.136
-232.800	-138.042	0.441	0.062
-231.786	-91.149	0.228	0.083
-230.771	-45.259	0.129	-0.081
-229.757	91.443	0.238	-0.340
-228.742	22.615	-0.039	0.040
-227.727	-166.123	0.285	0.015
-226.713	-2.996	-0.205	-0.181
-225.698	-200.000	-0.006	0.112
-224.684	-113.598	-0.177	0.044
-223.669	104.002	-0.118	0.176
-222.655	-200.000	0.049	-0.285
-221.640	-32.842	0.170	0.120
-220.625	78.314	0.147	0.199
-219.611	-105.714	-0.468	-0.133
-218.596	137.742	-0.170	-0.283
-217.582	-150.019	-0.455	0.044
-216.567	-82.796	-0.630	0.257
-215.552	96.994	0.242	-0.352
-214.538	800.000	0.048	0.184
-213.523	-5.409	0.139	0.121
-212.509	-15.550	0.386	0.312
-211.494	171.752	0.248	-0.453
-210.479	46.486	0.034	-0.040
-209.465	66.947	-0.121	-0.156
-208.450	-63.021	-0.357	0.187
-207.436	-128.762	-0.155	0.028
-206.421	-95.723	0.678	-0.228
-205.406	516.664	-0.108	0.321
-204.392	8.509	-0.260	0.248
-203.377	-50.619	0.171	0.102
-202.363	-181.468	0.591	-0.014
-201.348	-109.966	0.312	-0.082
-200.333	-200.000	-0.022	-0.125
-199.319	66.448	0.239	-0.308
-198.304	611.884	-0.097	0.310
-197.290	800.000	0.173	0.712
-196.275	111.977	-0.130	0.200
-195.260	800.000	0.118	-0.443
-194.246	-90.951	-0.174	-0.063
-193.231	0.118	-0.091	-0.082
-192.217	379.015	-0.228	-0.594
-191.202	267.954	0.153	-0.340
-190.187	60.319	0.302	-0.379
-189.173	111.564	-0.174	0.266
-188.158	38.120	0.393	-0.443
-187.144	377.297	-0.160	0.416
-186.129	-200.000	0.015	0.202
-185.114	192.180	0.166	0.318
-184.100	2.793	-0.063	0.057
-183.085	490.399	0.062	-0.182
-182.071	-180.908	-0.159	-0.004
-181.056	-92.429	-0.287	0.102
-180.042	-200.000	0.447	0.001
-179.027	-24.444	-0.287	0.216
-178.012	-152.448	-0.221	0.020
-176.998	-121.860	-0.158	0.033
-175.983	-78.943	-0.264	-0.114
-174.969	-54.590	-0.355	-0.203
-173.954	431.238	0.167	0.462
-172.939	800.000	0.024	0.119
-171.925	150.911	0.260	0.449
-170.910	12.871	0.112	-0.110
-169.896	-139.591	0.067	-0.009
-168.881	-84.793	0.635	-0.252
-167.866	-104.706	0.351	-0.102
-166.852	83.787	-0.102	-0.142
-165.837	387.034	-0.122	-0.321
-164.823	-31.564	-0.119	0.084
-163.808	-200.000	-0.002	0.457
-162.793	-141.910	0.741	0.093
-161.779	111.397	0.197	0.301
-160.764	-200.000	-0.049	0.292
-159.750	42.508	0.177	-0.204
-158.735	-75.562	0.190	-0.085
-157.720	422.136	0.120	0.328
-156.706	-67.429	0.371	0.184
-155.691	-187.511	0.267	0.004
-154.677	-39.286	-0.252	0.167
-153.662	99.795	0.266	-0.391
-152.647	25.380	0.365	0.384
-151.633	-94.325	-0.318	0.109
-150.618	800.000	0.071	-0.320
-149.604	39.329	-0.080	-0.090
-148.589	73.560	-0.173	0.229
-147.574	327.050	-0.033	-0.081
-146.560	87.770	0.290	-0.407
-145.545	-103.475	0.473	-0.140
-144.531	-66.411	0.136	-0.068
-143.516	-200.000	0.022	0.282
-142.502	800.000	-0.020	0.107
-141.487	-110.413	-0.495	0.129
-140.472	-105.922	-0.587	-0.166
-139.458	340.212	-0.134	-0.331
-138.443	175.483	-0.100	0.185
-137.429	-200.000	-0.078	0.591
-136.414	-13.977	-0.141	0.115
-135.399	332.752	-0.145	0.355
-134.385	800.000	-0.070	-0.316
-133.370	-175.925	0.537	0.018
-132.356	290.688	0.076	0.175
-131.341	308.707	0.140	0.332
-130.326	6.367	0.338	-0.317
-129.312	-199.788	0.666	-0.004
-128.297	-82.258	-0.418	0.171
-127.283	264.372	-0.133	0.295
-126.268	-200.000	0.048	-0.402
-125.253	70.525	0.401	-0.525
-124.239	34.172	0.123	0.136
-123.224	800.000	-0.125	0.495
-122.210	367.185	-0.231	0.593
