DTS Sentinel unit serial number:	SN409020Multiplexer serial number:	ORYXHardware model number:	OX4-SRSoftware version number:	ORYX F/W v3.00 Oryx Data Collector v3.7.2.0data status	okinstallation	HaddamTimeLapsedifferential loss correction	single-endedforward channel	channel 3reverse channel	N/Adate	2011/06/22time	11:21:02forward acquisition time	30.00reverse acquisition time	0.00gamma	498.7831k internal	0.1761k external	0.1761temperature offset calibration	1.0074default loss term (dB/km)	0.3790temperature slope calibration	1.3530multiplexer offset coefficient	1.0000multiplexer slope coefficient	1.0000fibre end	0.00T internal ref (°C)	28.94T ext. ref 1 (°C)	23.95T ext. ref 2 (°C)	-0.10length (m)	temperature (°C)	Stokes	anti-Stokes-747.200	15.657	0.195	-0.202
-746.185	800.000	0.133	0.640
-745.171	-200.000	0.010	0.722
-744.156	262.057	0.305	0.701
-743.142	-42.098	-0.462	-0.311
-742.127	-28.080	-0.615	0.469
-741.112	-183.941	-0.124	0.003
-740.098	-200.000	-0.003	0.108
-739.083	-36.680	-0.295	0.209
-738.069	136.871	0.124	0.214
-737.054	69.516	-0.379	0.516
-736.039	286.224	-0.075	0.179
-735.025	25.831	0.331	0.364
-734.010	-11.000	0.392	0.341
-732.996	-46.048	-0.240	-0.156
-731.981	-164.203	0.152	-0.009
-730.966	-18.594	-0.322	0.265
-729.952	110.221	0.027	0.043
-728.937	124.004	-0.109	-0.181
-727.923	-155.976	0.582	-0.048
-726.908	-134.752	0.438	0.070
-725.894	-118.441	0.235	0.055
-724.879	13.839	0.191	-0.196
-723.864	-145.603	-0.187	-0.022
-722.850	-200.000	0.025	-0.271
-721.835	288.024	0.087	-0.208
-720.821	37.384	-0.276	0.323
-719.806	-96.282	-0.296	0.103
-718.791	53.240	0.410	-0.519
-717.777	-52.186	-0.508	-0.310
-716.762	43.329	-0.202	0.244
-715.748	-162.027	-0.499	-0.033
-714.733	405.203	-0.108	-0.302
-713.718	-140.399	-0.503	0.068
-712.704	16.609	-0.457	0.476
-711.689	213.749	-0.259	-0.542
-710.675	800.000	-0.047	-0.199
-709.660	-130.318	0.368	-0.065
-708.645	347.389	0.129	0.338
-707.631	-173.360	-0.211	-0.008
-706.616	25.140	-0.328	0.359
-705.602	-77.944	-0.513	0.232
-704.587	-200.000	0.003	-0.169
-703.572	-165.053	-0.219	0.013
-702.558	-50.047	-0.279	0.174
-701.543	381.380	-0.089	0.243
-700.529	46.396	0.223	0.273
-699.514	800.000	0.037	0.177
-698.499	-130.083	0.133	-0.024
-697.485	212.647	-0.188	-0.393
-696.470	-33.309	0.130	-0.095
-695.456	-86.522	0.354	-0.142
-694.441	-72.095	0.393	-0.191
-693.426	577.668	0.090	-0.292
-692.412	800.000	-0.081	-0.317
-691.397	2.435	-0.250	-0.238
-690.383	-200.000	0.028	-0.189
-689.368	-67.256	0.188	-0.097
-688.354	-178.407	-0.326	-0.010
-687.339	-82.499	-0.263	-0.112
-686.324	31.238	-0.236	0.267
-685.310	-200.000	-0.005	0.274
-684.295	800.000	-0.091	0.421
-683.281	68.851	-0.136	0.184
-682.266	-83.468	-0.455	-0.191
-681.251	-52.896	-0.564	-0.341
-680.237	-200.000	0.011	0.291
-679.222	168.906	0.226	-0.425
-678.208	-200.000	0.009	-0.364
-677.193	-64.673	-0.060	0.032
-676.178	299.888	-0.177	0.432
-675.164	77.121	0.286	-0.400
-674.149	-26.124	-0.095	0.074
-673.135	641.073	-0.042	-0.142
-672.120	-84.556	-0.573	-0.237
-671.105	96.180	-0.189	-0.285
-670.091	-53.248	-0.578	0.348
-669.076	-126.094	-0.292	0.057
-668.062	-142.073	-0.678	0.088
-667.047	231.742	0.212	-0.460
-666.032	-32.471	0.175	-0.129
-665.018	540.641	-0.127	-0.400
-664.003	-89.494	-0.498	0.192
-662.989	457.057	-0.132	0.388
-661.974	-90.784	-0.287	-0.108
-660.959	-118.193	-0.360	-0.084
-659.945	219.264	0.045	0.095
-658.930	-48.496	0.222	-0.140
-657.916	-6.706	0.276	-0.247
-656.901	260.547	0.110	0.252
-655.886	138.238	-0.102	-0.176
-654.872	800.000	-0.036	-0.133
-653.857	120.547	-0.191	-0.313
-652.843	16.646	0.281	0.293
-651.828	-169.137	0.451	-0.022
-650.814	300.726	-0.065	0.159
-649.799	-106.279	-0.197	0.058
-648.784	-165.900	-0.250	-0.014
-647.770	-108.231	-0.590	-0.167
-646.755	-100.695	-0.116	0.037
-645.741	-34.491	-0.119	0.086
-644.726	-86.560	-0.171	0.069
-643.711	88.244	-0.171	-0.251
-642.697	475.086	0.110	0.328
-641.682	166.816	0.092	-0.173
-640.668	-129.386	0.150	-0.027
-639.653	800.000	0.058	0.230
-638.638	24.062	0.048	-0.052
-637.624	-87.232	-0.251	-0.100
-636.609	-22.949	-0.224	0.177
-635.595	-108.343	0.510	-0.144
-634.580	-123.682	0.114	0.023
-633.565	-200.000	-0.056	-0.460
-632.551	-200.000	-0.007	0.297
-631.536	-200.000	-0.015	-0.098
-630.522	-200.000	0.008	-0.230
-629.507	133.288	-0.155	0.263
-628.492	-200.000	-0.002	-0.220
-627.478	-169.494	-0.123	0.006
-626.463	-92.565	-0.230	-0.084
-625.449	-135.750	0.689	-0.106
-624.434	42.554	0.243	-0.291
-623.419	17.536	0.170	0.177
-622.405	-82.661	-0.391	-0.166
-621.390	-122.813	0.169	0.035
-620.376	177.662	0.144	-0.276
-619.361	350.350	-0.046	0.120
-618.346	-59.387	0.299	0.168
-617.332	-78.354	0.482	-0.216
-616.317	192.576	0.251	0.499
-615.303	12.997	-0.445	0.453
-614.288	-200.000	-0.090	0.632
-613.273	-94.757	0.192	-0.068
-612.259	-92.348	0.377	-0.139
-611.244	88.272	-0.116	0.169
-610.230	-67.803	-0.407	0.208
-609.215	122.164	0.019	0.032
-608.201	-176.821	-0.431	0.014
-607.186	309.032	0.069	-0.171
-606.171	-200.000	0.001	0.222
-605.157	-159.199	-0.904	0.066
-604.142	-50.812	0.203	0.125
-603.128	-200.000	0.054	-0.475
-602.113	-58.392	-0.232	-0.132
-601.098	-200.000	0.002	-0.410
-600.084	186.231	-0.227	0.445
-599.069	161.181	-0.169	-0.311
-598.055	234.986	0.079	-0.171
-597.040	800.000	0.047	0.217
-596.025	24.179	0.335	-0.363
-595.011	659.332	-0.040	0.136
-593.996	19.607	0.129	-0.136
-592.982	800.000	-0.064	-0.322
-591.967	-29.294	0.353	-0.265
-590.952	20.065	0.262	0.278
-589.938	-157.825	-0.246	0.019
-588.923	-26.710	-0.405	0.311
-587.909	-163.645	0.126	0.008
-586.894	564.466	0.097	0.312
-585.879	76.657	-0.311	-0.433
-584.865	22.941	0.154	-0.165
-583.850	-61.756	0.191	-0.104
-582.836	-78.150	0.189	-0.085
-581.821	555.968	-0.037	0.119
-580.806	69.153	-0.085	-0.115
-579.792	-125.978	-0.061	-0.012
-578.777	184.372	0.191	0.373
-577.763	-36.038	-0.273	0.193
-576.748	-163.012	-0.635	-0.040
-575.733	-145.027	-0.225	-0.027
-574.719	-200.000	-0.061	0.592
-573.704	135.097	0.214	0.366
-572.690	-139.696	0.383	-0.053
-571.675	-117.427	-0.107	-0.025
-570.661	0.879	0.538	-0.505
-569.646	-5.513	0.039	-0.035
-568.631	-133.443	0.277	0.045
-567.617	-200.000	0.041	-0.504
-566.602	-82.090	-0.225	-0.096
-565.588	-97.387	-0.207	0.070
-564.573	62.630	0.409	-0.538
-563.558	58.050	-0.161	-0.206
-562.544	-65.600	0.057	-0.030
-561.529	-200.000	-0.029	-0.375
-560.515	-95.508	-0.300	-0.105
-559.500	-77.204	-0.219	0.099
-558.485	126.239	-0.179	-0.297
-557.471	27.267	-0.289	-0.319
-556.456	110.724	0.157	-0.248
-555.442	21.432	0.305	0.325
-554.427	-150.400	-0.371	0.037
-553.412	47.762	0.344	-0.421
-552.398	59.445	-0.242	-0.313
-551.383	-111.195	-0.487	0.130
-550.369	-200.000	-0.035	0.547
-549.354	-95.889	-0.307	-0.107
-548.339	40.683	-0.257	0.304
-547.325	81.076	-0.209	0.296
-546.310	3.848	0.122	0.117
-545.296	-200.000	-0.014	-0.392
-544.281	-69.586	0.458	-0.229
-543.266	43.024	0.168	0.201
-542.252	-157.237	-0.287	-0.022
-541.237	164.451	0.188	0.349
-540.223	-92.022	0.139	0.051
-539.208	186.149	-0.128	0.250
-538.193	-129.541	-0.320	-0.058
-537.179	-120.260	0.435	0.096
-536.164	-154.973	0.162	-0.014
-535.150	124.723	-0.157	0.260
-534.135	-138.860	-0.563	-0.079
-533.121	37.982	-0.162	0.189
-532.106	-200.000	-0.025	0.326
-531.091	85.869	0.288	-0.415
-530.077	-62.002	-0.158	0.086
-529.062	800.000	0.014	-0.074
-528.048	-200.000	0.021	0.138
-527.033	-15.494	-0.190	0.159
-526.018	399.291	0.132	0.363
-525.004	-53.337	-0.123	-0.074
-523.989	-175.453	0.335	0.012
-522.975	459.662	-0.237	-0.694
-521.960	-109.028	0.017	0.005
-520.945	85.695	-0.304	-0.439
-519.931	415.893	0.047	0.132
-518.916	18.317	0.342	0.358
-517.902	800.000	-0.061	-0.258
-516.887	-99.391	-0.444	-0.146
-515.872	189.945	0.249	-0.491
-514.858	29.526	0.058	-0.065
-513.843	15.550	-0.215	-0.221
-512.829	101.837	-0.171	-0.262
-511.814	165.682	-0.236	-0.438
-510.799	-56.363	0.245	0.142
-509.785	-200.000	-0.046	-0.300
-508.770	-93.471	-0.072	0.026
-507.756	-102.957	0.035	0.011
-506.741	-62.088	-0.270	0.147
-505.726	20.448	-0.070	-0.075
-504.712	114.107	-0.125	0.200
-503.697	383.144	0.263	-0.712
-502.683	247.664	0.172	0.381
-501.668	285.076	-0.080	0.190
-500.653	255.981	0.151	0.340
-499.639	-78.543	-0.387	0.172
-498.624	-114.239	-0.319	-0.080
-497.610	800.000	-0.039	-0.181
-496.595	284.820	-0.029	0.070
-495.581	-200.000	0.017	0.292
-494.566	-200.000	-0.050	-0.679
-493.551	-53.088	0.406	0.243
-492.537	-200.000	-0.012	0.096
-491.522	-129.035	0.420	-0.076
-490.508	168.381	-0.070	-0.131
-489.493	-200.000	-0.041	-0.336
-488.478	-102.000	0.270	0.085
-487.464	-39.854	0.530	0.361
-486.449	-77.505	-0.538	0.243
-485.435	382.990	0.166	-0.449
-484.420	512.934	-0.114	0.350
-483.405	94.167	-0.143	0.212
-482.391	800.000	-0.044	-0.195
-481.376	-21.997	-0.192	0.152
-480.362	-110.284	-0.237	0.064
-479.347	-29.140	-0.523	0.391
-478.332	-194.781	0.486	-0.005
-477.318	279.038	-0.067	0.156
-476.303	336.573	0.164	-0.418
-475.289	-51.395	0.750	0.457
-474.274	447.472	0.129	-0.372
-473.259	-23.102	-0.463	-0.364
-472.245	-108.091	0.186	-0.052
-471.230	82.767	0.141	0.201
-470.216	-171.658	-0.609	0.026
-469.201	-76.748	-0.376	0.171
-468.186	-155.755	-0.105	-0.009
-467.172	-200.000	0.047	-0.302
-466.157	92.786	0.114	0.169
-465.143	-175.403	-0.050	-0.002
-464.128	-200.000	-0.026	-0.268
-463.113	618.213	0.181	-0.597
-462.099	8.708	0.432	-0.425
-461.084	257.663	0.123	-0.277
-460.070	-52.776	-0.135	0.081
-459.055	3.214	0.373	-0.355
-458.040	481.830	-0.208	0.619
-457.026	682.102	-0.175	-0.600
-456.011	-200.000	-0.012	-0.305
-454.997	-94.611	0.116	0.041
-453.982	-149.879	-0.394	-0.040
-452.968	-200.000	-0.040	-0.397
-451.953	-117.016	-0.191	0.045
-450.938	96.900	0.289	-0.433
-449.924	151.741	0.064	-0.114
-448.909	-97.141	0.308	-0.105
-447.895	-145.039	-0.102	0.012
-446.880	-40.545	-0.594	0.401
-445.865	-34.643	0.272	-0.194
-444.851	29.377	-0.280	-0.311
-443.836	97.775	-0.110	0.166
-442.822	295.883	0.059	-0.141
-441.807	437.877	0.061	0.174
-440.792	131.823	-0.054	-0.091
-439.778	1.668	0.090	-0.084
-438.763	-62.449	0.437	0.236
-437.749	483.139	0.180	0.538
-436.734	-200.000	-0.037	0.599
-435.719	-20.229	-0.216	0.174
-434.705	-96.774	0.233	0.080
-433.690	-115.017	0.244	-0.060
-432.676	-200.000	0.010	0.170
-431.661	359.620	0.034	0.090
-430.646	70.952	-0.074	0.100
-429.632	217.788	-0.045	0.095
-428.617	-143.414	-0.552	0.068
-427.603	154.846	-0.069	0.124
-426.588	135.036	0.126	-0.214
-425.573	-108.552	0.184	0.051
-424.559	-93.137	-0.218	-0.079
-423.544	-200.000	0.018	0.150
-422.530	800.000	0.053	0.235
-421.515	-117.320	0.377	-0.089
-420.500	800.000	0.080	-0.349
-419.486	39.988	0.165	-0.194
-418.471	-200.000	0.028	0.537
-417.457	8.885	0.386	-0.379
-416.442	141.416	0.232	-0.401
-415.428	-60.562	-0.526	-0.290
-414.413	140.033	0.114	0.196
-413.398	-200.000	0.009	-0.535
-412.384	180.656	0.266	-0.511
-411.369	-19.104	0.352	0.285
-410.355	-119.240	0.716	0.161
-409.340	17.431	-0.124	-0.128
-408.325	-11.245	-0.238	0.204
-407.311	29.824	0.127	0.141
-406.296	800.000	-0.144	0.599
-405.282	571.426	-0.089	-0.283
-404.267	-200.000	-0.001	-0.140
-403.252	254.191	0.139	-0.312
-402.238	-200.000	0.010	0.068
-401.223	191.164	0.209	0.411
-400.209	-200.000	-0.069	0.471
-399.194	-200.000	-0.029	-0.176
-398.179	-200.000	-0.011	-0.240
-397.165	-109.115	-0.299	0.082
-396.150	800.000	0.073	-0.276
-395.136	327.080	0.098	0.246
-394.121	-200.000	0.001	-0.139
-393.106	-121.116	0.286	0.062
-392.092	-79.502	0.186	0.081
-391.077	-131.135	0.229	-0.039
-390.063	51.933	0.138	0.171
-389.048	0.409	0.301	-0.280
-388.033	-27.541	-0.413	0.312
-387.019	800.000	-0.060	0.288
-386.004	-33.148	-0.395	0.285
-384.990	98.530	-0.102	-0.154
-383.975	-102.036	0.249	-0.078
-382.960	144.880	0.154	0.268
-381.946	-48.573	-0.331	0.206
-380.931	-98.612	0.117	-0.039
-379.917	-170.901	0.340	0.015
-378.902	-78.400	-0.156	0.069
-377.888	-29.186	-0.175	-0.131
-376.873	-165.413	-0.149	0.008
-375.858	102.274	0.290	-0.442
-374.844	-122.999	0.064	0.013
-373.829	-128.830	-0.361	0.065
-372.815	-200.000	-0.004	-0.050
-371.800	-48.880	-0.246	0.153
-370.785	-200.000	0.072	0.412
-369.771	133.609	0.202	0.342
-368.756	-200.000	-0.024	-0.427
-367.742	99.199	-0.167	0.252
-366.727	-82.957	0.263	-0.110
-365.712	179.763	0.013	0.025
-364.698	129.765	-0.204	-0.340
-363.683	218.473	0.123	0.257
-362.669	581.892	0.120	0.385
-361.654	-100.519	0.441	0.141
-360.639	143.393	0.281	0.488
-359.625	71.884	0.104	0.142
-358.610	-14.081	0.484	0.406
-357.596	-132.895	0.185	-0.030
-356.581	487.148	0.131	-0.391
-355.566	119.201	-0.219	0.354
-354.552	-200.000	-0.067	0.569
-353.537	257.428	0.153	-0.344
-352.523	93.361	-0.227	-0.335
-351.508	227.098	-0.130	0.276
-350.493	-196.282	-0.351	0.003
-349.479	70.701	-0.160	0.216
-348.464	-54.711	-0.106	0.062
-347.450	177.206	0.196	-0.372
-346.435	130.631	0.340	-0.568
-345.420	-70.400	-0.211	0.104
-344.406	-200.000	-0.058	0.419
-343.391	102.204	-0.119	-0.181
-342.377	93.096	0.210	-0.309
-341.362	-178.907	-0.465	-0.013
-340.348	-148.225	-0.262	-0.028
-339.333	-59.337	0.223	0.124
-338.318	-120.647	-0.369	0.080
-337.304	-10.248	-0.254	0.219
-336.289	-43.921	0.295	-0.192
-335.275	-200.000	-0.086	0.636
-334.260	190.157	0.064	-0.125
-333.245	800.000	-0.044	0.193
-332.231	-49.554	-0.103	0.064
-331.216	33.711	0.019	-0.022
-330.202	1.630	0.122	-0.114
-329.187	543.071	-0.094	0.292
-328.172	32.982	0.175	-0.197
-327.158	-128.397	-0.437	0.080
-326.143	80.581	0.188	0.263
-325.129	-104.865	0.725	-0.215
-324.114	-200.000	-0.023	-0.148
-323.099	-91.452	-0.248	-0.092
-322.085	420.405	-0.087	-0.243
-321.070	103.065	-0.067	0.102
-320.056	800.000	0.043	0.228
-319.041	388.144	-0.092	-0.248
-318.026	-135.798	0.410	0.062
-317.012	-136.847	-0.148	0.022
-315.997	634.654	-0.087	-0.289
-314.983	-200.000	0.009	0.130
-313.968	-127.707	-0.490	0.091
-312.953	-14.342	0.234	0.196
-311.939	-125.069	-0.477	0.094
-310.924	-131.222	0.621	0.106
-309.910	800.000	0.079	-0.439
-308.895	-177.524	-0.282	0.009
-307.880	-116.404	0.386	0.092
-306.866	410.269	-0.116	0.320
-305.851	255.400	0.057	-0.127
-304.837	-106.063	-0.227	0.066
-303.822	-61.157	-0.221	-0.121
-302.807	-8.208	0.400	-0.350
-301.793	-200.000	0.002	0.336
-300.778	283.793	0.131	-0.308
-299.764	-67.305	0.213	-0.108
-298.749	800.000	-0.086	-0.463
-297.735	422.113	-0.086	-0.242
-296.720	-200.000	0.014	-0.095
-295.705	60.274	0.539	-0.693
-294.691	-200.000	-0.012	0.136
-293.676	190.867	-0.133	0.260
-292.662	-149.091	-0.089	-0.009
-291.647	-101.321	0.282	0.089
-290.632	-88.391	0.226	-0.087
-289.618	-200.000	-0.029	0.212
-288.603	30.987	-0.236	0.263
-287.589	-171.446	0.336	0.014
-286.574	-108.896	-0.094	-0.026
-285.559	800.000	0.146	0.578
-284.545	-200.000	0.021	-0.593
-283.530	-200.000	-0.382	0.001
-282.516	-85.985	0.400	-0.160
-281.501	-162.187	0.421	0.027
-280.486	44.458	-0.288	-0.344
-279.472	-200.000	-0.055	0.388
-278.457	90.382	0.151	-0.220
-277.443	306.478	0.185	-0.448
-276.428	60.347	-0.048	0.062
-275.413	-200.000	-0.025	-0.401
-274.399	87.521	-0.171	-0.246
-273.384	9.768	-0.092	-0.090
-272.370	-148.066	-0.504	-0.054
-271.355	34.404	-0.274	0.310
-270.340	-128.124	0.513	-0.094
-269.326	-64.029	-0.155	-0.082
-268.311	800.000	0.038	0.176
-267.297	-98.059	0.171	0.057
-266.282	-18.746	0.349	0.282
-265.267	130.634	-0.036	-0.059
-264.253	-117.130	-0.413	-0.097
-263.238	178.499	-0.230	0.436
-262.224	121.653	-0.128	0.208
-261.209	69.974	0.180	-0.241
-260.195	-128.344	0.164	-0.030
-259.180	-142.644	-0.185	0.023
-258.165	343.261	0.057	0.144
-257.151	83.904	0.265	-0.376
-256.136	102.188	0.195	-0.295
-255.122	407.912	-0.053	0.146
-254.107	800.000	-0.067	0.284
-253.092	-185.257	-0.263	-0.005
-252.078	-36.428	-0.134	0.093
-251.063	69.460	0.452	-0.604
-250.049	36.153	-0.176	0.201
-249.034	104.116	0.119	0.181
-248.019	74.646	0.209	-0.286
-247.005	-200.000	-0.074	-0.432
-245.990	-29.690	-0.138	-0.102
-244.976	800.000	0.078	-0.354
-243.961	43.331	0.202	0.240
-242.946	70.323	-0.205	0.275
-241.932	-96.769	-0.121	0.041
-240.917	532.258	-0.090	0.276
-239.903	-37.404	0.123	-0.085
-238.888	19.341	0.022	0.023
-237.873	205.952	-0.101	0.204
-236.859	-70.601	0.281	-0.137
-235.844	138.009	0.213	0.362
-234.830	-200.000	0.031	-0.245
-233.815	-153.519	0.137	-0.012
-232.800	-65.167	0.247	-0.129
-231.786	-125.868	-0.449	0.087
-230.771	-120.478	-0.198	-0.043
-229.757	-145.341	0.247	-0.029
-228.742	800.000	-0.019	-0.097
-227.727	-16.743	0.055	-0.045
-226.713	1.860	0.269	0.251
-225.698	-169.930	-0.211	0.010
-224.684	-82.154	-0.182	0.076
-223.669	120.878	-0.138	0.223
-222.655	-34.372	-0.151	0.107
-221.640	329.435	-0.190	-0.475
-220.625	-2.361	-0.151	-0.137
-219.611	-154.880	0.241	0.020
-218.596	-152.332	-0.175	0.016
-217.582	37.643	-0.204	-0.234
-216.567	-104.989	-0.354	-0.104
-215.552	-200.000	-0.001	-0.192
-214.538	67.889	0.188	-0.249
-213.523	29.429	-0.339	-0.373
-212.509	-98.849	-0.298	-0.098
-211.494	58.655	-0.519	0.660
-210.479	360.212	-0.152	0.396
-209.465	800.000	-0.086	0.445
-208.450	-78.862	0.098	-0.043
-207.436	319.808	-0.111	-0.274
-206.421	134.009	0.049	-0.083
-205.406	-159.759	-0.200	0.014
-204.392	106.426	0.245	-0.376
-203.377	-58.628	-0.392	-0.219
-202.363	299.814	0.031	-0.074
-201.348	50.419	-0.143	-0.175
-200.333	-20.378	-0.628	0.499
-199.319	-200.000	-0.021	0.138
-198.304	-98.119	-0.350	0.116
-197.290	-103.202	0.071	-0.022
-196.275	-200.000	-0.063	0.722
-195.260	-117.079	-0.214	-0.050
-194.246	28.494	-0.043	-0.047
-193.231	674.952	0.182	-0.614
-192.217	-89.809	0.597	0.225
-191.202	26.524	0.182	0.197
-190.187	100.790	-0.166	-0.250
-189.173	9.659	-0.089	-0.088
-188.158	-147.804	0.434	0.046
-187.144	22.930	-0.258	0.273
-186.129	-165.223	0.101	-0.006
-185.114	113.205	-0.025	-0.040
-184.100	-109.105	-0.237	-0.065
-183.085	-141.890	0.505	0.064
-182.071	800.000	0.084	0.427
-181.056	192.327	-0.169	-0.330
-180.042	-170.080	0.319	0.014
-179.027	-55.590	0.389	0.224
-178.012	-138.692	-0.267	0.037
-176.998	428.887	-0.092	0.257
-175.983	13.373	-0.107	0.107
-174.969	174.672	0.064	-0.120
-173.954	-200.000	0.044	0.403
-172.939	611.511	-0.054	0.176
-171.925	14.929	0.311	0.314
-170.910	55.102	-0.181	0.226
-169.896	-67.520	-0.250	0.126
-168.881	-39.687	0.081	0.054
-167.866	-61.082	-0.475	-0.258
-166.852	-200.000	0.025	-0.402
-165.837	-49.285	-0.130	0.080
-164.823	192.584	0.225	0.439
-163.808	800.000	0.115	0.499
-162.793	-39.111	0.351	0.238
-161.779	-200.000	0.005	-0.170
-160.764	-102.114	0.625	-0.193
-159.750	-55.151	0.371	0.215
-158.735	183.569	0.179	0.343
-157.720	298.874	0.098	0.233
-156.706	442.905	0.098	-0.278
-155.691	-160.428	-0.231	0.016
-154.677	800.000	0.089	0.425
-153.662	58.397	0.203	-0.257
-152.647	-23.519	0.309	0.239
-151.633	-147.951	0.307	0.033
-150.618	-2.982	0.621	-0.559
-149.604	-127.932	-0.267	0.049
-148.589	-89.556	-0.147	-0.055
-147.574	-153.538	-0.111	0.010
-146.560	120.045	-0.140	-0.224
-145.545	-46.787	-0.389	-0.245
-144.531	13.868	0.315	0.316
-143.516	-17.368	0.367	0.298
-142.502	104.178	-0.075	-0.114
-141.487	3.531	0.326	0.307
-140.472	800.000	0.051	0.215
-139.458	-200.000	-0.029	0.307
-138.443	14.616	0.135	0.136
-137.429	482.284	-0.048	-0.142
-136.414	-162.201	-0.131	-0.008
-135.399	42.639	-0.239	0.281
-134.385	800.000	-0.062	-0.354
-133.370	-106.288	0.507	0.145
-132.356	630.216	0.139	0.456
-131.341	-82.064	-0.410	-0.172
-130.326	-11.629	-0.228	-0.193
-129.312	68.455	0.164	-0.218
-128.297	-79.108	-0.539	-0.235
-127.283	-127.029	-0.015	0.003
-126.268	-159.647	0.607	0.043
-125.253	-96.227	0.510	0.173
-124.239	-73.074	-0.373	0.176
-123.224	-36.736	-0.646	0.446
-122.210	800.000	0.051	-0.266
