DTS Sentinel unit serial number:	SN409020Multiplexer serial number:	ORYXHardware model number:	OX4-SRSoftware version number:	ORYX F/W v3.00 Oryx Data Collector v3.7.2.0data status	okinstallation	HaddamTimeLapsedifferential loss correction	single-endedforward channel	channel 3reverse channel	N/Adate	2011/06/22time	09:31:17forward acquisition time	30.00reverse acquisition time	0.00gamma	498.7831k internal	0.1792k external	0.1792temperature offset calibration	1.0074default loss term (dB/km)	0.3790temperature slope calibration	1.3530multiplexer offset coefficient	1.0000multiplexer slope coefficient	1.0000fibre end	0.00T internal ref (°C)	27.84T ext. ref 1 (°C)	22.88T ext. ref 2 (°C)	0.19length (m)	temperature (°C)	Stokes	anti-Stokes-747.200	-138.958	0.429	0.060
-746.185	800.000	0.107	0.428
-745.171	-90.044	0.174	-0.066
-744.156	12.045	0.081	0.081
-743.142	53.683	0.239	0.298
-742.127	428.289	-0.142	0.401
-741.112	-16.336	0.154	0.127
-740.098	-76.876	-0.048	-0.022
-739.083	-152.029	-0.206	-0.019
-738.069	800.000	0.063	0.271
-737.054	24.608	-0.459	0.493
-736.039	78.236	0.232	0.321
-735.025	-200.000	-0.028	0.270
-734.010	-5.710	0.284	-0.252
-732.996	800.000	0.067	-0.376
-731.981	46.837	0.300	-0.362
-730.966	-113.799	-0.056	-0.014
-729.952	-157.704	-0.246	-0.019
-728.937	-53.583	-0.129	-0.077
-727.923	-68.223	-0.456	-0.229
-726.908	-37.479	-0.088	0.061
-725.894	214.286	-0.167	-0.343
-724.879	71.542	-0.128	-0.173
-723.864	800.000	0.124	-0.618
-722.850	-105.764	0.543	-0.158
-721.835	85.340	0.228	0.325
-720.821	-114.958	-0.249	-0.061
-719.806	729.801	0.130	-0.452
-718.791	176.709	-0.275	-0.520
-717.777	-45.562	-0.329	-0.211
-716.762	316.184	-0.163	-0.401
-715.748	-55.691	0.466	0.269
-714.733	-200.000	0.028	-0.249
-713.718	-138.871	0.282	-0.039
-712.704	-67.134	0.149	-0.076
-711.689	-175.478	-0.228	-0.008
-710.675	-200.000	0.025	-0.266
-709.660	-92.215	-0.072	0.026
-708.645	2.273	-0.149	0.140
-707.631	-200.000	-0.032	0.652
-706.616	297.213	-0.044	-0.104
-705.602	96.363	-0.266	-0.395
-704.587	-13.277	-0.023	0.019
-703.572	-149.958	-0.036	0.004
-702.558	-30.049	0.091	-0.067
-701.543	-45.563	0.107	-0.068
-700.529	136.517	-0.111	-0.188
-699.514	39.359	0.194	-0.225
-698.499	646.458	0.087	0.291
-697.485	-19.166	-0.142	-0.114
-696.470	-39.909	-0.460	-0.311
-695.456	50.032	-0.155	0.189
-694.441	-56.194	0.178	-0.102
-693.426	-89.079	0.226	-0.086
-692.412	-200.000	-0.014	0.322
-691.397	237.129	0.076	0.164
-690.383	-52.440	0.343	0.205
-689.368	-187.931	-0.581	-0.010
-688.354	-20.103	-0.347	0.277
-687.339	342.610	0.135	0.345
-686.324	-73.435	0.141	0.066
-685.310	-96.353	-0.237	0.081
-684.295	-200.000	0.026	-0.539
-683.281	-82.775	0.115	0.048
-682.266	-200.000	-0.072	-0.463
-681.251	800.000	-0.051	0.267
-680.237	-200.000	-0.022	-0.344
-679.222	-35.233	-0.102	0.072
-678.208	-80.616	0.159	0.068
-677.193	-200.000	0.062	0.434
-676.178	125.927	0.206	0.337
-675.164	121.210	-0.017	0.028
-674.149	695.340	0.042	-0.144
-673.135	-2.750	-0.133	-0.120
-672.120	-16.047	0.294	-0.242
-671.105	136.458	-0.222	-0.376
-670.091	-79.428	-0.210	0.092
-669.076	9.478	-0.152	0.149
-668.062	51.990	0.060	-0.074
-667.047	6.073	0.396	-0.379
-666.032	800.000	-0.091	-0.406
-665.018	-105.166	0.518	-0.152
-664.003	-104.379	-0.145	0.043
-662.989	-155.091	-0.494	-0.041
-661.974	-200.000	0.023	-0.605
-660.959	-74.489	0.159	-0.074
-659.945	81.900	0.125	-0.176
-658.930	349.139	0.126	0.324
-657.916	-78.262	-0.322	-0.142
-656.901	-200.000	-0.012	-0.223
-655.886	53.009	-0.260	0.323
-654.872	-52.679	-0.352	0.210
-653.857	-86.209	0.337	0.134
-652.843	-200.000	0.033	-0.407
-651.828	754.614	-0.126	0.445
-650.814	-168.030	0.239	-0.012
-649.799	-167.952	-0.560	-0.028
-648.784	-134.710	-0.233	-0.036
-647.770	-115.238	-0.355	-0.086
-646.755	109.446	-0.025	0.039
-645.741	-49.380	0.336	-0.206
-644.726	270.441	-0.115	0.263
-643.711	647.651	0.065	0.217
-642.697	13.289	-0.207	0.207
-641.682	44.275	0.055	0.065
-640.668	135.567	-0.130	-0.219
-639.653	-76.362	-0.209	0.095
-638.638	-130.851	-0.365	0.063
-637.624	-79.356	0.195	-0.085
-636.609	-1.610	-0.302	-0.275
-635.595	414.846	-0.080	0.221
-634.580	-200.000	-0.016	0.104
-633.565	-138.197	0.428	-0.061
-632.551	-39.236	0.136	0.092
-631.536	-12.607	0.234	-0.197
-630.522	-140.548	0.387	-0.051
-629.507	-200.000	-0.012	-0.380
-628.492	10.188	0.184	0.181
-627.478	85.799	0.102	0.146
-626.463	17.120	-0.334	-0.342
-625.449	181.203	-0.170	0.324
-624.434	-69.572	0.439	0.216
-623.419	-87.531	0.448	-0.174
-622.405	-200.000	0.062	-0.385
-621.390	-200.000	0.013	-0.223
-620.376	-6.443	-0.092	-0.081
-619.361	-200.000	0.005	-0.503
-618.346	13.784	-0.318	-0.319
-617.332	-56.411	-0.280	-0.160
-616.317	-191.217	-0.127	0.002
-615.303	-105.328	-0.054	-0.016
-614.288	-96.381	-0.218	-0.074
-613.273	-200.000	0.043	-0.365
-612.259	-95.278	0.165	0.057
-611.244	204.693	-0.123	-0.247
-610.230	75.987	-0.251	-0.343
-609.215	-103.265	-0.245	0.074
-608.201	-91.554	-0.138	0.050
-607.186	106.178	-0.075	0.115
-606.171	-55.677	-0.333	-0.192
-605.157	31.858	0.178	0.198
-604.142	-73.129	-0.364	0.172
-603.128	-95.767	0.306	-0.105
-602.113	-69.794	-0.608	-0.299
-601.098	78.004	-0.251	-0.346
-600.084	425.469	0.039	-0.109
-599.069	-200.000	-0.056	-0.862
-598.055	800.000	-0.064	0.245
-597.040	684.655	-0.021	0.070
-596.025	800.000	0.021	0.117
-595.011	5.344	0.400	-0.381
-593.996	-102.182	-0.473	0.146
-592.982	-52.599	0.233	-0.138
-591.967	-62.944	0.159	-0.085
-590.952	584.170	0.297	0.945
-589.938	-120.767	-0.358	0.077
-588.923	-135.846	-0.453	0.068
-587.909	-27.335	-0.326	-0.244
-586.894	-84.400	0.177	0.072
-585.879	10.853	-0.160	-0.157
-584.865	-64.433	-0.240	-0.125
-583.850	-152.915	-0.287	0.026
-582.836	443.630	0.057	0.161
-581.821	-113.728	0.341	-0.085
-580.806	95.785	-0.166	0.245
-579.792	-112.505	-0.731	-0.187
-578.777	-90.597	-0.130	-0.048
-577.763	-159.918	0.331	-0.023
-576.748	-200.000	0.027	-0.319
-575.733	-55.691	0.239	-0.138
-574.719	264.751	-0.165	-0.372
-573.704	-11.348	-0.285	-0.241
-572.690	-122.790	-0.078	-0.016
-571.675	-142.558	0.184	-0.023
-570.661	40.206	-0.036	0.041
-569.646	-50.321	-0.277	-0.168
-568.631	-131.725	-0.039	0.006
-567.617	-107.528	0.098	0.027
-566.602	166.505	0.274	-0.502
-565.588	121.579	0.105	0.169
-564.573	-49.007	0.338	0.208
-563.558	-200.000	-0.035	0.235
-562.544	800.000	-0.024	0.115
-561.529	-90.906	-0.023	-0.009
-560.515	-62.997	0.226	-0.120
-559.500	800.000	-0.088	-0.496
-558.485	117.643	-0.040	-0.064
-557.471	228.361	0.116	-0.245
-556.456	5.753	0.060	-0.058
-555.442	-149.471	-0.415	-0.042
-554.427	-114.312	-0.025	-0.006
-553.412	58.632	-0.296	0.375
-552.398	-63.414	0.139	-0.073
-551.383	62.893	-0.123	-0.159
-550.369	-80.064	-0.102	-0.044
-549.354	32.209	0.599	-0.666
-548.339	199.418	0.018	0.035
-547.325	-27.425	0.093	0.069
-546.310	800.000	0.053	0.212
-545.296	247.775	0.242	-0.529
-544.281	-183.585	0.518	0.011
-543.266	64.739	0.297	0.386
-542.252	33.349	0.345	0.385
-541.237	71.907	0.273	-0.366
-540.223	475.057	0.067	-0.196
-539.208	-64.306	0.166	0.087
-538.193	-178.748	-0.352	-0.010
-537.179	-60.441	0.446	0.243
-536.164	72.076	0.344	0.461
-535.150	-110.868	-0.331	-0.087
-534.135	193.947	-0.176	0.345
-533.121	800.000	0.038	-0.148
-532.106	371.691	0.069	0.181
-531.091	800.000	0.105	-0.495
-530.077	275.382	0.088	0.202
-529.062	159.931	0.210	0.377
-528.048	-74.605	-0.192	-0.089
-527.033	-138.940	0.233	-0.032
-526.018	-54.832	0.419	-0.243
-525.004	-200.000	0.011	0.302
-523.989	32.259	-0.250	0.278
-522.975	73.781	-0.185	-0.250
-521.960	53.897	-0.297	-0.367
-520.945	34.572	-0.008	0.009
-519.931	-92.256	0.494	-0.178
-518.916	-29.499	0.576	0.423
-517.902	-73.176	0.059	-0.028
-516.887	-182.258	0.315	0.007
-515.872	-200.000	0.053	0.504
-514.858	231.292	0.119	0.251
-513.843	60.927	0.198	-0.253
-512.829	-53.401	-0.351	-0.206
-511.814	260.468	0.089	0.199
-510.799	-79.917	-0.219	-0.094
-509.785	136.244	-0.250	-0.420
-508.770	-104.211	-0.622	-0.184
-507.756	400.480	-0.108	-0.293
-506.741	137.142	0.083	-0.140
-505.726	103.870	0.401	-0.607
-504.712	-50.200	0.358	0.217
-503.697	462.522	-0.033	0.095
-502.683	301.919	-0.247	-0.590
-501.668	181.338	-0.015	0.028
-500.653	-70.613	0.088	-0.043
-499.639	-6.571	0.302	-0.264
-498.624	800.000	0.038	0.155
-497.610	23.356	0.280	0.296
-496.595	-200.000	-0.060	-0.425
-495.581	-73.900	0.587	-0.273
-494.566	-22.915	0.317	0.245
-493.551	-22.821	-0.232	-0.179
-492.537	-143.585	0.191	-0.023
-491.522	-156.709	-0.275	-0.022
-490.508	-49.347	-0.046	-0.028
-489.493	-126.631	0.245	0.046
-488.478	-165.591	0.416	0.023
-487.464	-55.321	-0.161	0.092
-486.449	49.612	0.192	0.233
-485.435	-116.029	-0.283	-0.067
-484.420	-112.786	-0.234	-0.059
-483.405	-132.148	-0.420	0.069
-482.391	22.984	0.218	0.229
-481.376	-191.222	-0.183	0.002
-480.362	49.614	0.200	0.242
-479.347	94.196	0.176	0.258
-478.332	16.024	0.395	0.400
-477.318	-197.855	-0.299	-0.002
-476.303	-98.393	-0.330	0.108
-475.289	-96.873	0.207	0.069
-474.274	-200.000	-0.028	0.247
-473.259	800.000	0.074	0.359
-472.245	-175.521	-0.139	0.005
-471.230	-84.864	0.273	0.109
-470.216	-151.092	0.273	0.026
-469.201	-200.000	0.012	-0.149
-468.186	272.769	-0.217	-0.494
-467.172	-200.000	-0.029	-0.303
-466.157	-200.000	0.032	-0.425
-465.143	800.000	-0.062	-0.315
-464.128	-175.961	-0.275	0.009
-463.113	30.420	-0.160	0.176
-462.099	-129.074	-0.350	-0.062
-461.084	54.210	-0.099	0.122
-460.070	-96.380	0.271	-0.092
-459.055	-200.000	-0.036	-0.270
-458.040	-101.265	-0.204	-0.064
-457.026	308.641	-0.249	-0.599
-456.011	-34.677	-0.433	0.304
-454.997	184.172	-0.103	-0.196
-453.982	-97.159	0.310	0.103
-452.968	0.430	0.366	-0.335
-451.953	117.280	-0.106	-0.168
-450.938	46.572	0.459	0.547
-449.924	4.887	-0.194	-0.183
-448.909	4.008	0.082	0.076
-447.895	-38.838	-0.157	-0.106
-446.880	-12.483	0.090	0.075
-445.865	-106.422	0.855	-0.243
-444.851	-70.947	0.419	-0.201
-443.836	-96.155	0.178	-0.060
-442.822	37.840	-0.106	-0.120
-441.807	-200.000	0.002	-0.122
-440.792	-8.634	-0.026	0.023
-439.778	134.112	-0.116	0.193
-438.763	-39.164	0.581	0.391
-437.749	-19.848	0.291	0.230
-436.734	57.147	0.266	-0.333
-435.719	-6.958	-0.182	-0.158
-434.705	638.181	0.146	0.480
-433.690	39.073	-0.253	-0.290
-432.676	-175.301	-0.173	0.006
-431.661	-75.687	-0.118	0.054
-430.646	22.416	0.145	-0.152
-429.632	800.000	-0.084	0.315
-428.617	-149.280	-0.140	-0.014
-427.603	237.530	0.035	-0.074
-426.588	-200.000	-0.004	0.472
-425.573	800.000	-0.148	0.777
-424.559	-137.647	0.340	-0.049
-423.544	35.208	-0.035	-0.039
-422.530	470.563	-0.168	0.486
-421.515	-71.667	-0.490	-0.234
-420.500	-63.182	-0.408	0.215
-419.486	-96.665	0.299	0.100
-418.471	-95.269	0.242	0.083
-417.457	-117.253	0.242	-0.056
-416.442	800.000	-0.031	-0.113
-415.428	-98.891	-0.523	-0.169
-414.413	-119.558	0.469	0.103
-413.398	-123.351	-0.539	-0.109
-412.384	122.236	0.054	0.087
-411.369	-29.847	0.369	-0.269
-410.355	-33.091	-0.326	0.231
-409.340	-100.692	-0.241	0.076
-408.325	-46.201	0.312	-0.196
-407.311	20.609	0.032	0.033
-406.296	303.978	0.063	-0.150
-405.282	800.000	0.100	-0.518
-404.267	-115.909	-0.211	-0.050
-403.252	-125.874	0.404	-0.077
-402.238	37.410	0.034	0.039
-401.223	358.165	0.092	0.237
-400.209	-200.000	0.005	0.477
-399.194	148.771	-0.039	-0.068
-398.179	-63.997	0.358	0.187
-397.165	-150.357	-0.357	-0.035
-396.150	225.605	-0.290	-0.604
-395.136	800.000	-0.044	0.193
-394.121	45.595	-0.037	-0.043
-393.106	179.637	-0.198	-0.373
-392.092	-138.709	-0.195	-0.027
-391.077	-200.000	-0.056	0.419
-390.063	-125.092	0.218	0.043
-389.048	61.720	-0.191	0.243
-388.033	99.286	0.140	0.208
-387.019	-147.078	0.374	-0.041
-386.004	-109.052	-0.298	-0.081
-384.990	-98.205	0.109	-0.036
-383.975	-25.917	-0.420	0.316
-382.960	-91.541	0.227	-0.082
-381.946	-179.723	-0.101	-0.003
-380.931	800.000	0.054	-0.262
-379.917	318.528	-0.136	0.330
-378.902	60.688	-0.092	-0.116
-377.888	227.492	-0.181	0.378
-376.873	-68.636	-0.100	-0.049
-375.858	-200.000	-0.029	0.288
-374.844	-81.997	-0.536	-0.223
-373.829	800.000	-0.074	-0.416
-372.815	-134.118	0.073	0.011
-371.800	-71.044	-0.247	-0.119
-370.785	-133.066	0.219	-0.035
-369.771	-192.623	-0.547	0.006
-368.756	-105.920	0.387	0.111
-367.742	234.375	0.120	0.253
-366.727	-111.658	-0.364	0.094
-365.712	173.900	-0.133	0.246
-364.698	-75.752	0.268	0.121
-363.683	47.863	-0.230	-0.275
-362.669	87.811	0.053	0.075
-361.654	-140.332	0.244	-0.032
-360.639	-200.000	0.133	0.001
-359.625	168.514	-0.226	-0.413
-358.610	130.533	0.238	0.391
-357.596	-77.361	0.200	0.089
-356.581	-200.000	0.020	0.609
-355.566	-6.194	0.292	-0.255
-354.552	-115.356	0.422	0.101
-353.537	800.000	0.019	-0.077
-352.523	-200.000	-0.029	-0.269
-351.508	800.000	0.138	0.570
-350.493	-43.055	-0.117	0.076
-349.479	317.611	0.117	-0.285
-348.464	-83.623	0.139	-0.056
-347.450	65.214	0.394	0.509
-346.435	15.946	0.192	0.193
-345.420	-90.809	0.342	0.125
-344.406	-109.338	-0.431	-0.116
-343.391	-200.000	0.053	0.316
-342.377	23.743	-0.289	-0.304
-341.362	-109.735	-0.254	-0.068
-340.348	-96.345	0.441	-0.148
-339.333	-200.000	0.033	-0.191
-338.318	-24.861	0.224	-0.170
-337.304	-177.186	-0.246	-0.008
-336.289	-132.838	0.277	0.045
-335.275	-127.250	0.536	0.099
-334.260	-200.000	0.012	0.227
-333.245	-99.462	-0.258	-0.082
-332.231	24.296	-0.155	-0.163
-331.216	-117.688	-0.359	-0.082
-330.202	-6.640	-0.242	0.210
-329.187	-89.135	-0.424	-0.159
-328.172	23.071	-0.162	-0.169
-327.158	-128.723	-0.128	0.023
-326.143	-60.744	0.299	-0.161
-325.129	-81.485	0.545	0.228
-324.114	-87.913	0.214	-0.082
-323.099	87.942	-0.103	-0.146
-322.085	-122.224	-0.274	-0.057
-321.070	16.189	0.217	-0.218
-320.056	-92.363	0.559	0.200
-319.041	-22.077	-0.069	0.053
-318.026	-85.628	0.508	0.201
-317.012	369.355	-0.199	-0.517
-315.997	-47.066	-0.146	-0.091
-314.983	-66.869	0.172	0.086
-313.968	-65.882	-0.059	-0.030
-312.953	220.429	0.043	0.089
-311.939	-155.668	-0.249	-0.020
-310.924	127.764	-0.031	-0.050
-309.910	-100.039	0.141	-0.044
-308.895	-175.783	0.291	0.010
-307.880	469.843	0.198	0.571
-306.866	-200.000	0.084	-0.529
-305.851	-44.328	0.508	-0.324
-304.837	-55.643	-0.186	-0.106
-303.822	25.951	0.144	0.153
-302.807	-55.752	-0.544	-0.309
-301.793	-200.000	0.086	-0.500
-300.778	-9.455	0.194	-0.165
-299.764	800.000	-0.005	-0.023
-298.749	-110.442	-0.530	-0.139
-297.735	-71.332	-0.324	0.154
-296.720	-149.617	-0.160	0.016
-295.705	-170.148	0.208	-0.009
-294.691	-200.000	0.024	-0.237
-293.676	-26.793	-0.401	0.298
-292.662	684.822	0.048	0.159
-291.647	-70.107	0.436	0.210
-290.632	228.764	-0.278	0.581
-289.618	-3.954	-0.161	-0.142
-288.603	-167.122	-0.538	-0.027
-287.589	10.470	-0.141	0.137
-286.574	-19.756	0.355	-0.279
-285.559	-21.489	0.097	0.075
-284.545	-200.000	0.003	-0.377
-283.530	-121.367	-0.367	-0.077
-282.516	58.620	0.226	0.283
-281.501	-96.943	-0.497	-0.165
-280.486	31.542	-0.535	-0.586
-279.472	-200.000	-0.037	-0.291
-278.457	-121.533	-0.394	-0.083
-277.443	438.643	-0.020	-0.056
-276.428	-102.740	-0.244	0.074
-275.413	-200.000	0.004	0.231
-274.399	-165.494	0.234	-0.013
-273.384	-136.144	0.292	0.043
-272.370	-47.409	-0.144	0.089
-271.355	800.000	0.066	-0.299
-270.340	-39.536	-0.552	0.368
-269.326	516.530	0.084	0.252
-268.311	800.000	-0.092	0.447
-267.297	282.781	-0.052	-0.120
-266.282	23.729	0.299	-0.314
-265.267	-12.788	-0.299	-0.248
-264.253	-151.477	-0.622	0.058
-263.238	-18.156	-0.204	0.163
-262.224	-200.000	-0.013	0.235
-261.209	-172.673	0.465	-0.018
-260.195	-64.336	0.297	0.154
-259.180	-93.081	0.507	0.179
-258.165	-80.763	-0.238	0.100
-257.151	4.979	0.122	0.114
-256.136	-8.218	-0.223	-0.191
-255.122	-67.118	0.178	0.089
-254.107	-200.000	0.042	0.400
-253.092	708.788	0.135	0.458
-252.078	225.047	-0.039	-0.081
-251.063	-157.084	-0.194	-0.015
-250.049	-4.648	0.056	-0.049
-249.034	-148.491	-0.325	0.033
-248.019	-200.000	0.069	-0.596
-247.005	-88.287	-0.233	-0.088
-245.990	-110.097	0.417	0.110
-244.976	42.057	-0.052	0.060
-243.961	-81.355	-0.183	-0.077
-242.946	37.047	-0.183	-0.207
-241.932	-34.361	0.139	0.097
-240.917	-41.935	0.430	-0.280
-239.903	-200.000	-0.014	0.174
-238.888	-115.289	0.255	0.061
-237.873	-84.325	0.419	0.168
-236.859	-200.000	0.001	-0.180
-235.844	35.864	0.283	0.317
-234.830	34.841	0.180	0.200
-233.815	-136.928	-0.377	-0.054
-232.800	490.713	-0.117	0.342
-231.786	173.098	-0.157	-0.289
-230.771	-6.446	0.340	0.295
-229.757	18.221	0.177	0.180
-228.742	-200.000	0.048	0.291
-227.727	-109.479	0.409	0.109
-226.713	-1.564	0.233	0.208
-225.698	-134.470	-0.078	0.012
-224.684	-123.650	0.400	-0.080
-223.669	-20.519	-0.158	-0.124
-222.655	-110.565	-0.505	0.132
-221.640	308.054	-0.132	0.313
-220.625	97.425	-0.158	0.231
-219.611	-171.281	0.299	0.013
-218.596	-93.160	-0.400	-0.141
-217.582	100.580	0.021	-0.031
-216.567	800.000	-0.116	-0.440
-215.552	70.642	0.147	-0.193
-214.538	-95.894	-0.152	-0.051
-213.523	127.324	0.147	0.238
-212.509	-56.182	0.615	-0.347
-211.494	388.302	-0.220	-0.582
-210.479	94.765	0.041	-0.060
-209.465	-47.646	0.057	0.035
-208.450	-200.000	0.032	0.282
-207.436	-54.052	-0.083	0.048
-206.421	-24.628	-0.117	0.088
-205.406	-113.190	-0.312	0.077
-204.392	-141.856	0.287	0.036
-203.377	-200.000	-0.049	0.322
-202.363	-161.507	-0.527	-0.034
-201.348	-165.512	0.188	0.010
-200.333	800.000	-0.051	0.246
-199.319	-40.325	-0.217	0.143
-198.304	800.000	0.050	-0.223
-197.290	800.000	-0.220	0.847
-196.275	-200.000	-0.114	0.785
-195.260	-34.520	0.099	0.068
-194.246	523.167	-0.143	0.431
-193.231	53.331	0.201	0.245
-192.217	800.000	-0.020	-0.088
-191.202	-57.289	0.550	0.306
-190.187	-200.000	0.003	0.301
-189.173	0.965	-0.067	0.061
-188.158	-85.383	0.266	0.105
-187.144	-113.337	0.436	-0.108
-186.129	1.234	0.173	-0.157
-185.114	800.000	-0.076	0.325
-184.100	-68.265	0.305	0.150
-183.085	-21.807	0.144	0.111
-182.071	7.326	0.588	0.558
-181.056	-149.799	0.163	0.016
-180.042	-103.061	-0.121	0.036
-179.027	40.460	-0.193	-0.221
-178.012	-41.832	-0.419	-0.272
-176.998	800.000	-0.100	-0.370
-175.983	-101.239	-0.125	0.039
-174.969	800.000	0.049	0.260
-173.954	-200.000	0.040	-0.358
-172.939	-109.115	-0.072	-0.019
-171.925	-164.710	0.254	0.014
-170.910	-148.755	-0.394	-0.040
-169.896	113.051	-0.097	0.149
-168.881	454.918	-0.142	-0.401
-167.866	-66.125	-0.845	-0.426
-166.852	-127.568	-0.478	-0.087
-165.837	120.721	-0.195	0.308
-164.823	-21.085	-0.594	0.460
-163.808	-103.427	0.326	0.097
-162.793	-200.000	0.057	0.419
-161.779	-138.127	0.304	-0.042
-160.764	800.000	-0.141	-0.687
-159.750	-48.858	0.307	0.186
-158.735	-29.969	-0.272	-0.196
-157.720	78.822	0.100	-0.137
-156.706	18.460	-0.205	-0.208
-155.691	-14.060	-0.328	0.268
-154.677	-148.572	0.537	-0.055
-153.662	-200.000	0.019	-0.127
-152.647	-200.000	-0.092	0.708
-151.633	-200.000	0.035	0.470
-150.618	-200.000	0.034	0.543
-149.604	347.221	-0.160	-0.401
-148.589	-46.656	0.565	-0.350
-147.574	-50.891	-0.191	-0.113
-146.560	-80.662	0.380	0.159
-145.545	-67.377	-0.628	-0.312
-144.531	-103.601	-0.230	0.068
-143.516	148.999	0.131	0.225
-142.502	437.437	0.037	0.103
-141.487	-104.399	-0.422	-0.123
-140.472	527.518	0.070	-0.211
-139.458	-200.000	-0.006	-0.337
-138.443	-31.867	0.382	0.271
-137.429	163.406	-0.118	0.210
-136.414	-200.000	-0.118	-0.000
-135.399	-134.602	-0.099	0.015
-134.385	-200.000	0.054	0.470
-133.370	-200.000	0.026	0.168
-132.356	-200.000	-0.028	-0.159
-131.341	87.212	-0.247	-0.346
-130.326	-129.383	0.309	0.054
-129.312	165.732	0.234	-0.421
-128.297	-16.156	0.273	-0.219
-127.283	-200.000	0.020	0.176
-126.268	181.199	-0.161	0.301
-125.253	-200.000	-0.011	0.394
-124.239	-83.255	0.093	-0.038
-123.224	76.409	0.108	0.145
-122.210	241.138	0.182	-0.386
