DTS Sentinel unit serial number:	SN409020Multiplexer serial number:	ORYXHardware model number:	OX4-SRSoftware version number:	ORYX F/W v3.00 Oryx Data Collector v3.7.2.0data status	okinstallation	HaddamTimeLapsedifferential loss correction	single-endedforward channel	channel 3reverse channel	N/Adate	2011/06/21time	22:16:17forward acquisition time	30.00reverse acquisition time	0.00gamma	498.7831k internal	0.1758k external	0.1758temperature offset calibration	1.0074default loss term (dB/km)	0.3790temperature slope calibration	1.3530multiplexer offset coefficient	1.0000multiplexer slope coefficient	1.0000fibre end	0.00T internal ref (°C)	24.50T ext. ref 1 (°C)	18.88T ext. ref 2 (°C)	0.03length (m)	temperature (°C)	Stokes	anti-Stokes-747.200	24.177	0.107	0.117
-746.185	-200.000	-0.005	0.656
-745.171	-142.858	-0.288	0.037
-744.156	120.300	0.175	0.288
-743.142	190.132	0.238	-0.474
-742.127	412.745	-0.240	0.679
-741.112	800.000	-0.054	0.247
-740.098	-7.420	0.143	0.128
-739.083	45.034	0.169	0.206
-738.069	-51.135	0.426	0.264
-737.054	-14.156	0.291	-0.248
-736.039	494.679	-0.066	-0.202
-735.025	-200.000	-0.012	-0.333
-734.010	-117.888	0.147	-0.035
-732.996	-156.274	-0.194	-0.016
-731.981	-17.699	0.106	-0.088
-730.966	-200.000	0.055	-0.430
-729.952	55.069	0.087	0.111
-728.937	-130.728	-0.638	0.112
-727.923	800.000	0.042	-0.190
-726.908	-24.545	-0.486	-0.382
-725.894	800.000	0.149	-0.559
-724.879	-113.610	0.126	0.032
-723.864	800.000	0.053	-0.249
-722.850	-200.000	0.029	-0.281
-721.835	-117.400	0.338	-0.080
-720.821	-61.032	0.135	-0.075
-719.806	-15.720	0.279	0.235
-718.791	189.974	0.041	-0.081
-717.777	-86.607	0.598	0.241
-716.762	-121.764	0.125	0.027
-715.748	-38.381	0.358	0.250
-714.733	800.000	-0.074	-0.338
-713.718	23.326	0.251	-0.272
-712.704	-200.000	0.032	-0.208
-711.689	-60.247	-0.096	0.054
-710.675	-69.832	-0.164	-0.082
-709.660	-146.230	-0.290	-0.033
-708.645	19.911	-0.449	-0.478
-707.631	197.557	0.109	-0.221
-706.616	-113.619	0.206	-0.053
-705.602	-107.409	0.540	-0.156
-704.587	-200.000	-0.030	0.347
-703.572	-32.216	0.232	0.171
-702.558	60.200	0.155	-0.202
-701.543	76.196	-0.231	-0.324
-700.529	9.652	0.228	-0.228
-699.514	162.350	-0.174	-0.322
-698.499	722.854	-0.050	-0.176
-697.485	65.663	0.084	-0.113
-696.470	-27.653	-0.096	-0.073
-695.456	-126.766	0.157	-0.030
-694.441	752.614	0.032	0.114
-693.426	-96.044	0.449	-0.157
-692.412	13.175	0.159	0.163
-691.397	-200.000	-0.040	-0.335
-690.383	133.654	-0.136	-0.232
-689.368	112.029	-0.048	-0.077
-688.354	-141.327	-0.494	-0.065
-687.339	57.408	-0.177	-0.228
-686.324	153.573	0.186	-0.337
-685.310	-200.000	-0.005	-0.172
-684.295	-68.591	-0.155	-0.079
-683.281	-200.000	-0.013	0.145
-682.266	-200.000	-0.012	0.146
-681.251	800.000	-0.114	-0.433
-680.237	47.804	-0.126	-0.155
-679.222	-46.932	0.351	-0.226
-678.208	800.000	-0.109	-0.499
-677.193	-73.961	0.220	0.105
-676.178	367.773	-0.117	0.313
-675.164	-129.091	-0.274	0.050
-674.149	-200.000	-0.026	0.243
-673.135	-158.448	-0.419	-0.032
-672.120	-200.000	-0.006	-0.058
-671.105	-34.102	0.196	-0.142
-670.091	-86.942	-0.169	0.068
-669.076	-200.000	-0.004	-0.445
-668.062	-89.840	0.493	0.189
-667.047	800.000	0.092	0.524
-666.032	-37.219	0.197	-0.138
-665.018	171.400	-0.107	0.203
-664.003	-124.378	0.829	0.169
-662.989	-23.384	-0.135	0.107
-661.974	-132.224	0.029	-0.005
-660.959	800.000	0.115	-0.522
-659.945	-111.055	0.276	0.074
-658.930	-19.093	0.246	-0.201
-657.916	-21.327	-0.411	-0.330
-656.901	196.747	0.121	-0.244
-655.886	-200.000	-0.007	-0.247
-654.872	64.152	0.205	-0.272
-653.857	800.000	0.021	0.091
-652.843	351.154	-0.121	0.316
-651.828	90.042	-0.234	-0.345
-650.814	48.428	-0.146	-0.180
-649.799	-200.000	0.008	-0.114
-648.784	116.657	0.048	0.077
-647.770	-83.617	0.089	-0.037
-646.755	186.597	0.097	0.191
-645.741	-75.066	0.131	0.061
-644.726	71.832	-0.188	0.258
-643.711	99.966	-0.388	-0.593
-642.697	-155.549	0.103	-0.009
-641.682	-25.762	-0.253	-0.196
-640.668	54.460	-0.514	-0.652
-639.653	293.865	-0.104	-0.251
-638.638	233.156	0.142	-0.310
-637.624	800.000	0.042	-0.233
-636.609	-49.881	0.321	0.200
-635.595	-200.000	-0.061	-0.395
-634.580	-77.790	-0.171	-0.078
-633.565	-33.826	-0.200	0.145
-632.551	-100.809	-0.192	-0.062
-631.536	19.693	0.130	0.138
-630.522	616.906	0.071	-0.238
-629.507	-21.042	-0.249	0.201
-628.492	-99.662	0.440	-0.145
-627.478	127.843	-0.154	-0.258
-626.463	-139.533	0.636	0.089
-625.449	800.000	0.095	-0.531
-624.434	96.153	-0.159	-0.239
-623.419	24.794	0.223	0.244
-622.405	-200.000	0.023	0.365
-621.390	800.000	-0.089	-0.327
-620.376	-26.691	-0.463	-0.356
-619.361	-49.334	-0.218	-0.137
-618.346	-113.202	0.375	-0.096
-617.332	116.679	-0.168	0.272
-616.317	800.000	-0.085	-0.427
-615.303	-8.277	0.193	0.171
-614.288	800.000	-0.065	0.285
-613.273	601.414	-0.082	0.270
-612.259	-96.521	0.210	-0.072
-611.244	-112.567	0.286	0.075
-610.230	12.242	0.208	0.210
-609.215	71.033	-0.140	-0.191
-608.201	800.000	0.057	-0.209
-607.186	-85.616	-0.266	-0.108
-606.171	-158.351	-0.427	0.032
-605.157	3.645	0.087	-0.083
-604.142	-200.000	-0.012	0.326
-603.128	-5.449	-0.064	-0.058
-602.113	372.359	0.153	-0.412
-601.098	-26.059	-0.094	-0.073
-600.084	800.000	-0.056	0.287
-599.069	189.572	-0.191	0.379
-598.055	-109.743	0.180	0.049
-597.040	339.706	-0.075	0.194
-596.025	92.657	-0.227	0.337
-595.011	-147.857	0.326	-0.035
-593.996	800.000	-0.049	0.234
-592.982	98.846	-0.340	-0.517
-591.967	-14.663	-0.164	0.138
-590.952	800.000	0.099	-0.378
-589.938	-164.346	0.287	0.017
-588.923	-58.151	0.199	0.114
-587.909	-200.000	-0.230	0.001
-586.894	576.450	0.248	0.802
-585.879	-200.000	0.006	-0.114
-584.865	-99.370	0.221	0.073
-583.850	14.089	-0.203	-0.208
-582.836	54.124	-0.275	0.348
-581.821	-129.311	0.364	-0.066
-580.806	-105.205	-0.151	0.045
-579.792	-45.382	-0.236	-0.153
-578.777	-74.207	0.351	0.166
-577.763	78.422	0.191	0.268
-576.748	-19.702	-0.322	0.261
-575.733	-23.341	0.363	-0.286
-574.719	31.636	-0.132	-0.149
-573.704	-79.135	0.104	0.046
-572.690	34.445	-0.368	-0.423
-571.675	-154.373	0.128	-0.011
-570.661	800.000	-0.097	-0.553
-569.646	-200.000	-0.048	0.458
-568.631	-184.750	-0.333	-0.007
-567.617	417.263	0.027	-0.076
-566.602	800.000	-0.081	-0.319
-565.588	136.349	0.203	-0.349
-564.573	528.125	0.109	-0.340
-563.558	-155.794	0.318	-0.026
-562.544	141.706	0.330	0.576
-561.529	-169.762	0.274	-0.013
-560.515	52.001	-0.072	-0.091
-559.500	-200.000	-0.049	0.338
-558.485	165.840	-0.283	0.528
-557.471	604.898	-0.075	-0.246
-556.456	-161.507	0.096	-0.006
-555.442	52.782	-0.274	0.344
-554.427	-129.409	0.363	-0.065
-553.412	-39.061	0.164	0.113
-552.398	800.000	0.122	-0.490
-551.383	-15.786	-0.134	-0.112
-550.369	-124.070	-0.178	0.036
-549.354	-17.713	0.160	-0.132
-548.339	-200.000	-0.014	-0.146
-547.325	-41.074	-0.744	0.503
-546.310	49.326	-0.221	0.273
-545.296	62.022	-0.333	-0.436
-544.281	-96.954	-0.228	-0.078
-543.266	-200.000	0.009	0.355
-542.252	-17.069	0.227	-0.188
-541.237	66.307	-0.117	-0.156
-540.223	-200.000	0.012	-0.197
-539.208	17.160	0.241	0.251
-538.193	-200.000	-0.034	0.291
-537.179	-53.420	0.193	-0.116
-536.164	-200.000	-0.025	0.211
-535.150	-139.594	-0.368	-0.051
-534.135	180.229	-0.167	-0.322
-533.121	-121.488	0.413	-0.089
-532.106	-91.880	0.505	-0.187
-531.091	137.549	-0.071	-0.122
-530.077	47.771	0.100	0.123
-529.062	-102.987	0.510	-0.158
-528.048	-93.138	-0.228	-0.083
-527.033	-109.450	0.458	0.126
-526.018	216.096	0.086	-0.179
-525.004	-48.793	-0.434	0.273
-523.989	-20.213	-0.336	0.271
-522.975	-68.909	-0.319	0.161
-521.960	519.200	-0.196	0.604
-520.945	-200.000	0.063	0.497
-519.931	-200.000	0.011	0.266
-518.916	-78.149	-0.105	0.047
-517.902	-200.000	0.038	-0.392
-516.887	800.000	-0.047	-0.242
-515.872	800.000	-0.083	0.472
-514.858	-113.870	0.133	-0.034
-513.843	-3.638	0.565	0.515
-512.829	-140.833	0.139	0.019
-511.814	127.787	0.221	-0.369
-510.799	-116.057	-0.195	0.047
-509.785	-166.911	0.318	0.017
-508.770	-139.283	0.140	-0.020
-507.756	200.762	-0.275	0.556
-506.741	-200.000	0.004	0.720
-505.726	-65.762	0.194	0.101
-504.712	-123.337	-0.125	-0.026
-503.697	-55.351	0.319	0.187
-502.683	-181.284	0.165	0.004
-501.668	-200.000	0.014	0.102
-500.653	594.637	-0.080	0.260
-499.639	-157.278	0.441	0.034
-498.624	-122.020	-0.608	0.130
-497.610	-116.004	-0.246	0.060
-496.595	-69.863	0.279	0.139
-495.581	800.000	-0.028	0.104
-494.566	-160.539	0.085	-0.006
-493.551	252.159	-0.166	0.371
-492.537	-48.128	0.395	-0.249
-491.522	783.245	0.148	0.534
-490.508	65.976	-0.153	-0.204
-489.493	800.000	0.066	-0.376
-488.478	-97.092	-0.588	-0.200
-487.464	-200.000	-0.001	0.288
-486.449	-200.000	0.010	0.442
-485.435	-200.000	-0.007	0.078
-484.420	55.145	0.134	0.170
-483.405	72.543	-0.290	0.396
-482.391	134.523	0.269	-0.458
-481.376	-122.255	0.113	-0.024
-480.362	-36.843	-0.219	-0.154
-479.347	300.322	0.176	-0.427
-478.332	-200.000	0.061	-0.520
-477.318	-74.460	-0.176	0.083
-476.303	-200.000	-0.009	-0.166
-475.289	-141.572	0.205	0.027
-474.274	-200.000	0.013	-0.513
-473.259	55.824	-0.219	0.278
-472.245	767.270	-0.083	0.299
-471.230	-132.200	-0.341	-0.057
-470.216	469.930	-0.150	-0.443
-469.201	-145.182	0.425	-0.050
-468.186	-82.841	-0.182	-0.077
-467.172	38.232	0.229	-0.267
-466.157	-157.769	0.214	-0.016
-465.143	61.193	-0.304	-0.395
-464.128	-15.131	0.321	-0.269
-463.113	-130.133	0.796	-0.141
-462.099	-48.920	-0.154	0.097
-461.084	-85.020	-0.124	0.051
-460.070	619.276	-0.068	0.225
-459.055	183.733	-0.189	0.367
-458.040	-88.628	0.153	-0.059
-457.026	-13.127	-0.509	-0.432
-456.011	-156.189	0.190	-0.015
-454.997	-136.007	0.104	0.016
-453.982	151.914	0.227	0.406
-452.968	27.393	0.344	-0.378
-451.953	-94.471	-0.091	-0.032
-450.938	-22.746	-0.171	0.135
-449.924	-200.000	0.012	-0.089
-448.909	-75.835	0.294	-0.135
-447.895	-56.856	0.339	0.195
-446.880	186.245	-0.369	0.719
-445.865	64.242	0.151	-0.199
-444.851	800.000	-0.096	0.418
-443.836	12.700	0.257	0.259
-442.822	94.607	-0.056	0.083
-441.807	-200.000	-0.074	0.465
-440.792	188.995	-0.266	0.523
-439.778	-112.284	-0.264	0.069
-438.763	-200.000	0.497	0.002
-437.749	-69.885	-0.302	-0.150
-436.734	382.557	0.045	-0.121
-435.719	-130.791	-0.210	0.036
-434.705	147.707	-0.091	-0.160
-433.690	-183.148	0.308	0.007
-432.676	-200.000	0.155	-0.001
-431.661	-188.772	0.280	-0.004
-430.646	292.790	0.090	-0.214
-429.632	800.000	-0.121	0.547
-428.617	800.000	0.055	0.275
-427.603	800.000	-0.101	0.375
-426.588	-50.125	-0.229	0.141
-425.573	71.388	-0.378	-0.513
-424.559	-173.213	-0.292	-0.011
-423.544	-177.306	-0.683	-0.022
-422.530	-191.713	-0.399	-0.005
-421.515	162.604	0.095	0.175
-420.500	-39.621	-0.560	0.382
-419.486	306.784	0.154	-0.375
-418.471	572.409	0.161	-0.514
-417.457	-22.172	0.045	-0.036
-416.442	-139.593	-0.484	0.067
-415.428	800.000	-0.065	0.245
-414.413	-97.101	0.437	0.148
-413.398	-200.000	-0.020	-0.401
-412.384	-39.813	-0.308	-0.210
-411.369	-32.065	0.369	0.269
-410.355	3.228	0.333	-0.316
-409.340	238.318	-0.171	-0.372
-408.325	-200.000	-0.038	-0.440
-407.311	-101.114	-0.634	0.201
-406.296	185.751	-0.119	-0.231
-405.282	800.000	0.034	-0.173
-404.267	161.367	-0.166	0.305
-403.252	74.095	0.373	0.512
-402.238	-36.971	-0.149	-0.104
-401.223	242.389	0.097	0.213
-400.209	-77.250	0.623	0.282
-399.194	-121.170	-0.409	-0.089
-398.179	607.479	-0.079	0.260
-397.165	800.000	-0.043	0.195
-396.150	263.981	-0.216	0.491
-395.136	-126.963	-0.070	0.013
-394.121	-103.591	-0.464	-0.141
-393.106	-108.411	-0.336	-0.094
-392.092	101.204	-0.199	-0.303
-391.077	-200.000	-0.018	-0.183
-390.063	-86.794	0.201	-0.080
-389.048	-68.511	-0.640	0.322
-388.033	-162.685	-0.145	0.009
-387.019	-51.103	0.223	-0.136
-386.004	-70.508	-0.233	0.115
-384.990	10.650	-0.208	-0.206
-383.975	-34.180	0.061	-0.044
-382.960	-18.344	0.410	0.333
-381.946	17.683	0.032	0.033
-380.931	-87.354	-0.202	-0.079
-379.917	-174.856	-0.308	0.011
-378.902	559.986	-0.115	-0.365
-377.888	-70.961	0.466	0.228
-376.873	-28.350	0.146	-0.110
-375.858	93.163	0.138	-0.203
-374.844	-69.059	-0.405	-0.203
-373.829	35.826	0.051	0.058
-372.815	-77.866	0.474	0.213
-371.800	-200.000	-0.045	0.540
-370.785	-167.430	0.389	-0.020
-369.771	10.393	0.430	0.427
-368.756	-8.222	0.557	0.488
-367.742	-139.121	0.705	0.098
-366.727	-41.228	-0.213	-0.143
-365.712	-54.482	-0.239	0.141
-364.698	-200.000	0.029	-0.205
-363.683	-26.935	-0.222	0.168
-362.669	786.823	0.142	0.510
-361.654	-4.199	0.332	0.299
-360.639	-34.086	0.268	-0.192
-359.625	51.030	0.142	-0.175
-358.610	800.000	-0.073	-0.392
-357.596	-200.000	-0.026	0.152
-356.581	-200.000	0.016	-0.268
-355.566	-93.099	0.110	0.040
-354.552	-79.421	0.232	-0.102
-353.537	-37.963	0.359	0.248
-352.523	-129.155	0.144	0.026
-351.508	-200.000	-0.016	-0.272
-350.493	-38.623	0.443	-0.304
-349.479	435.310	-0.124	-0.353
-348.464	-200.000	-0.018	0.347
-347.450	-100.171	-0.415	0.134
-346.435	-13.488	-0.260	-0.219
-345.420	800.000	-0.099	-0.480
-344.406	39.449	0.309	-0.361
-343.391	6.690	0.236	-0.228
-342.377	-114.712	-0.442	-0.109
-341.362	-200.000	0.048	-0.337
-340.348	-3.108	0.251	0.227
-339.333	-166.101	0.443	-0.024
-338.318	70.915	0.145	-0.196
-337.304	161.470	0.064	-0.117
-336.289	800.000	-0.143	-0.620
-335.275	-91.215	0.593	-0.220
-334.260	-200.000	0.016	-0.269
-333.245	800.000	-0.004	-0.020
-332.231	6.409	0.377	0.365
-331.216	62.449	0.188	0.244
-330.202	454.237	0.078	-0.227
-329.187	165.740	-0.142	-0.263
-328.172	214.336	0.248	-0.512
-327.158	-200.000	0.036	-0.303
-326.143	92.154	-0.250	-0.367
-325.129	-19.247	-0.187	-0.150
-324.114	96.403	-0.037	0.056
-323.099	80.787	0.111	0.156
-322.085	-200.000	-0.115	0.809
-321.070	46.362	0.155	0.187
-320.056	-156.762	0.124	0.010
-319.041	143.054	0.166	0.288
-318.026	-174.692	0.366	-0.013
-317.012	-200.000	-0.010	-0.231
-315.997	-65.235	0.286	0.149
-314.983	664.537	-0.089	-0.301
-313.968	-35.265	0.038	-0.027
-312.953	-33.121	-0.254	-0.183
-311.939	542.028	-0.074	-0.232
-310.924	-153.375	-0.160	-0.014
-309.910	-88.165	0.183	0.071
-308.895	-200.000	0.074	-0.453
-307.880	63.358	-0.338	0.442
-306.866	-200.000	-0.024	0.237
-305.851	-4.553	-0.304	-0.272
-304.837	366.515	-0.020	0.054
-303.822	176.185	-0.225	-0.426
-302.807	-30.660	-0.308	-0.226
-301.793	96.884	-0.406	-0.607
-300.778	-200.000	-0.058	-0.000
-299.764	127.248	0.116	-0.192
-298.749	112.724	0.206	-0.326
-297.735	-132.959	-0.762	0.125
-296.720	36.381	0.120	-0.137
-295.705	32.398	0.222	-0.249
-294.691	-7.633	0.126	-0.111
-293.676	800.000	0.064	-0.331
-292.662	-154.730	-0.407	0.035
-291.647	67.597	0.115	-0.153
-290.632	521.668	0.095	-0.291
-289.618	604.768	0.013	-0.041
-288.603	86.307	-0.152	0.217
-287.589	-51.800	0.128	0.077
-286.574	-200.000	-0.012	0.255
-285.559	-12.717	-0.178	-0.150
-284.545	-99.367	0.437	-0.142
-283.530	-77.082	-0.301	0.136
-282.516	-29.764	-0.297	-0.220
-281.501	14.379	0.259	-0.263
-280.486	-200.000	0.066	-0.725
-279.472	219.465	-0.102	-0.212
-278.457	54.028	-0.298	-0.372
-277.443	-109.398	0.519	0.142
-276.428	-88.024	0.193	0.075
-275.413	44.279	-0.282	0.336
-274.399	-80.486	0.227	0.098
-273.384	448.043	-0.134	0.385
-272.370	-58.379	0.435	-0.245
-271.355	-72.933	-0.172	-0.082
-270.340	261.307	0.121	0.274
-269.326	577.878	-0.133	0.426
-268.311	39.191	-0.267	-0.310
-267.297	-66.899	0.209	-0.107
-266.282	-150.257	0.301	0.030
-265.267	154.064	0.093	0.167
-264.253	255.033	-0.121	0.269
-263.238	42.814	0.181	-0.214
-262.224	208.318	0.175	0.355
-261.209	356.732	-0.199	0.517
-260.195	800.000	-0.056	-0.291
-259.180	224.007	-0.095	-0.201
-258.165	221.710	0.023	0.048
-257.151	122.391	-0.212	0.344
-256.136	-88.243	0.105	0.041
-255.122	58.100	-0.237	-0.302
-254.107	737.065	0.075	-0.264
-253.092	58.251	-0.228	-0.290
-252.078	760.760	0.076	0.269
-251.063	264.833	0.038	0.086
-250.049	544.146	-0.195	0.607
-249.034	-96.562	0.462	0.157
-248.019	-128.901	0.165	-0.030
-247.005	-78.908	-0.650	0.286
-245.990	-66.173	-0.202	0.104
-244.976	-129.890	0.199	0.035
-243.961	118.333	0.144	0.230
-242.946	338.548	-0.072	-0.182
-241.932	800.000	-0.038	0.158
-240.917	27.362	0.065	-0.071
-239.903	-125.376	-0.411	0.081
-238.888	64.252	0.153	0.199
-237.873	10.380	-0.542	-0.535
-236.859	-33.541	0.083	-0.059
-235.844	215.532	-0.024	0.050
-234.830	163.651	-0.357	-0.653
-233.815	8.378	-0.285	-0.278
-232.800	800.000	-0.171	-0.628
-231.786	800.000	0.104	0.389
-230.771	-142.586	-0.204	-0.026
-229.757	603.805	0.109	0.354
-228.742	-200.000	-0.003	-0.044
-227.727	-52.053	0.299	0.180
-226.713	211.758	0.120	0.247
-225.698	11.499	0.207	-0.206
-224.684	-50.807	-0.275	-0.167
-223.669	-163.112	-0.502	-0.031
-222.655	-137.536	-0.104	-0.015
-221.640	305.116	-0.063	0.151
-220.625	480.075	0.191	-0.565
-219.611	-200.000	-0.027	0.223
-218.596	-45.239	0.437	0.281
-217.582	-200.000	-0.003	-0.136
-216.567	9.526	-0.236	0.232
-215.552	-42.990	0.162	-0.107
-214.538	800.000	0.043	-0.194
-213.523	-81.048	-0.386	0.165
-212.509	-27.509	-0.306	-0.230
-211.494	-140.495	-0.593	-0.079
-210.479	50.763	-0.198	-0.243
-209.465	-200.000	0.067	0.541
-208.450	126.293	0.272	0.446
-207.436	66.469	0.288	0.380
-206.421	-168.316	0.159	0.008
-205.406	113.262	0.102	-0.160
-204.392	-66.600	-0.389	0.199
-203.377	-69.893	-0.330	0.162
-202.363	800.000	0.115	0.429
-201.348	-200.000	-0.028	0.391
-200.333	448.269	0.067	0.191
-199.319	-36.139	-0.337	-0.235
-198.304	-154.830	-0.352	0.030
-197.290	-200.000	0.012	-0.109
-196.275	608.216	0.044	-0.142
-195.260	-145.873	0.363	-0.041
-194.246	-72.645	0.105	0.050
-193.231	-123.459	0.295	-0.060
-192.217	800.000	0.024	0.105
-191.202	-143.387	-0.632	0.077
-190.187	-93.719	0.056	0.020
-189.173	-41.808	0.322	-0.213
-188.158	606.764	0.126	0.410
-187.144	4.778	0.292	-0.277
-186.129	-200.000	-0.026	0.247
-185.114	-87.706	-0.496	0.193
-184.100	-40.408	-0.267	0.179
-183.085	10.386	0.333	0.328
-182.071	247.997	0.181	0.397
-181.056	21.653	0.270	0.285
-180.042	217.364	0.178	0.369
-179.027	800.000	0.041	-0.168
-178.012	800.000	0.160	-0.662
-176.998	-200.000	0.027	-0.239
-175.983	-21.068	-0.245	0.194
-174.969	18.302	0.179	-0.185
-173.954	-93.677	-0.290	0.103
-172.939	-15.719	0.241	-0.199
-171.925	-65.840	-0.153	0.079
-170.910	-112.283	0.142	-0.037
-169.896	-68.305	0.394	0.197
-168.881	425.916	0.101	-0.284
-167.866	800.000	0.087	0.352
-166.852	-200.000	0.000	-0.097
-165.837	-111.901	-0.324	-0.084
-164.823	-158.034	0.365	0.027
-163.808	800.000	0.058	0.245
-162.793	-168.188	-0.355	0.018
-161.779	-200.000	0.001	-0.351
-160.764	262.065	0.056	0.126
-159.750	-37.875	-0.149	-0.102
-158.735	-200.000	0.063	-0.583
-157.720	-70.713	0.319	0.155
-156.706	-105.028	-0.299	0.088
-155.691	-200.000	-0.098	0.741
-154.677	-74.892	0.378	0.174
-153.662	-147.177	0.276	-0.030
-152.647	800.000	-0.069	-0.361
-151.633	-18.381	0.324	-0.261
-150.618	-86.739	0.197	-0.078
-149.604	-20.197	0.097	0.077
-148.589	-1.827	-0.579	0.526
-147.574	-119.559	-0.123	0.027
-146.560	-164.554	0.161	0.009
-145.545	241.879	0.097	-0.211
-144.531	-71.165	-0.613	0.296
-143.516	-34.603	-0.248	-0.175
-142.502	800.000	0.007	0.040
-141.487	-128.222	-0.170	-0.031
-140.472	-129.786	-0.238	0.042
-139.458	-200.000	-0.033	-0.265
-138.443	541.272	0.150	-0.465
-137.429	209.975	-0.054	-0.109
-136.414	79.053	-0.038	-0.052
-135.399	-32.802	0.405	0.290
-134.385	160.863	-0.172	0.311
-133.370	-140.509	0.105	0.014
-132.356	295.749	0.148	-0.352
-131.341	-61.713	0.470	-0.254
-130.326	-115.995	-0.130	-0.031
-129.312	-200.000	-0.018	-0.205
-128.297	800.000	-0.111	-0.438
-127.283	800.000	0.068	-0.330
-126.268	-135.188	0.188	0.029
-125.253	692.878	0.149	-0.506
-124.239	23.937	0.345	0.367
-123.224	51.695	0.293	0.360
-122.210	-84.911	-0.271	-0.109
