DTS Sentinel unit serial number:	SN409020Multiplexer serial number:	ORYXHardware model number:	OX4-SRSoftware version number:	ORYX F/W v3.00 Oryx Data Collector v3.7.2.0data status	okinstallation	HaddamTimeLapsedifferential loss correction	single-endedforward channel	channel 3reverse channel	N/Adate	2011/06/22time	02:46:17forward acquisition time	30.00reverse acquisition time	0.00gamma	498.7831k internal	0.1750k external	0.1750temperature offset calibration	1.0074default loss term (dB/km)	0.3790temperature slope calibration	1.3530multiplexer offset coefficient	1.0000multiplexer slope coefficient	1.0000fibre end	0.00T internal ref (°C)	22.31T ext. ref 1 (°C)	17.53T ext. ref 2 (°C)	0.03length (m)	temperature (°C)	Stokes	anti-Stokes-747.200	39.010	0.206	0.245
-746.185	-151.559	0.289	-0.028
-745.171	800.000	0.060	0.267
-744.156	179.903	0.272	0.532
-743.142	50.028	-0.092	0.116
-742.127	409.115	0.113	0.319
-741.112	27.861	0.257	-0.288
-740.098	229.244	0.115	0.249
-739.083	229.902	0.097	0.212
-738.069	-98.812	0.188	0.063
-737.054	177.803	-0.134	0.261
-736.039	-14.106	-0.355	0.304
-735.025	-12.895	0.124	0.107
-734.010	-123.816	0.055	0.012
-732.996	-139.364	-0.206	0.029
-731.981	122.205	-0.077	0.128
-730.966	462.253	0.131	0.391
-729.952	32.118	-0.208	-0.239
-728.937	-56.242	-0.202	-0.119
-727.923	-143.397	-0.620	0.078
-726.908	-195.238	0.247	0.002
-725.894	-32.609	-0.446	-0.329
-724.879	-74.556	0.474	-0.226
-723.864	-103.781	0.097	-0.030
-722.850	-200.000	0.014	-0.304
-721.835	-195.424	0.243	-0.002
-720.821	508.459	0.148	0.457
-719.806	581.982	-0.116	0.379
-718.791	147.565	-0.199	0.356
-717.777	-35.189	0.537	-0.388
-716.762	-200.000	0.028	-0.347
-715.748	641.315	0.022	0.073
-714.733	81.253	-0.194	-0.279
-713.718	543.736	-0.158	-0.504
-712.704	-50.043	0.185	-0.116
-711.689	-200.000	0.016	-0.356
-710.675	-65.279	0.474	0.252
-709.660	-40.664	0.202	0.138
-708.645	-200.000	0.007	-0.087
-707.631	-117.762	0.177	0.042
-706.616	-175.064	0.111	-0.004
-705.602	413.399	-0.177	-0.501
-704.587	176.811	-0.062	-0.119
-703.572	13.101	0.254	0.261
-702.558	-198.979	-0.131	0.001
-701.543	-200.000	-0.051	-0.337
-700.529	33.797	-0.161	0.186
-699.514	-95.021	-0.013	-0.004
-698.499	182.127	-0.083	-0.163
-697.485	-200.000	-0.027	0.229
-696.470	552.508	-0.163	-0.523
-695.456	-134.384	0.298	-0.048
-694.441	242.074	-0.030	-0.068
-693.426	-64.396	-0.269	-0.145
-692.412	-124.823	-0.320	0.065
-691.397	-115.941	-0.343	0.084
-690.383	-87.752	-0.388	-0.154
-689.368	-193.778	0.314	0.003
-688.354	-134.384	0.270	-0.044
-687.339	4.347	0.358	0.348
-686.324	-85.004	-0.050	-0.020
-685.310	705.606	0.100	0.352
-684.295	41.706	0.169	-0.203
-683.281	157.651	-0.101	0.185
-682.266	-108.545	-0.327	-0.092
-681.251	-171.796	0.242	0.010
-680.237	-74.501	0.316	-0.150
-679.222	-84.952	-0.580	-0.240
-678.208	45.422	-0.064	-0.078
-677.193	477.065	0.113	-0.340
-676.178	97.670	0.135	-0.206
-675.164	-54.353	0.207	-0.124
-674.149	232.808	-0.107	-0.233
-673.135	-81.792	0.595	0.257
-672.120	184.336	-0.218	0.429
-671.105	133.961	0.182	-0.313
-670.091	199.370	-0.087	-0.176
-669.076	-71.781	-0.145	0.071
-668.062	-170.851	0.294	0.013
-667.047	784.547	-0.067	-0.246
-666.032	-115.332	0.133	-0.033
-665.018	-13.475	0.157	-0.135
-664.003	32.249	0.378	0.432
-662.989	-46.311	-0.066	-0.043
-661.974	197.061	0.044	-0.089
-660.959	509.938	-0.123	-0.381
-659.945	334.698	-0.153	-0.394
-658.930	629.939	0.137	0.462
-657.916	4.034	-0.105	-0.102
-656.901	-103.942	-0.179	-0.055
-655.886	-39.794	-0.147	0.101
-654.872	468.311	0.077	-0.231
-653.857	-65.800	0.426	-0.225
-652.843	-124.527	0.226	-0.046
-651.828	-200.000	-0.008	-0.072
-650.814	800.000	0.138	0.706
-649.799	-34.713	0.330	0.238
-648.784	-104.961	-0.215	0.065
-647.770	-200.000	-0.012	0.328
-646.755	409.438	0.082	-0.232
-645.741	533.132	0.047	-0.147
-644.726	169.062	0.205	-0.388
-643.711	-138.950	-0.277	0.039
-642.697	373.744	-0.121	0.328
-641.682	613.619	-0.157	-0.523
-640.668	-24.296	0.155	0.123
-639.653	-200.000	0.018	-0.389
-638.638	32.339	-0.312	0.357
-637.624	-200.000	0.001	0.135
-636.609	-34.511	0.163	0.118
-635.595	-119.703	0.197	-0.045
-634.580	8.766	0.136	-0.135
-633.565	800.000	-0.108	0.403
-632.551	-36.674	-0.441	-0.313
-631.536	-36.254	-0.268	0.191
-630.522	629.723	-0.063	0.212
-629.507	-113.686	-0.341	0.087
-628.492	768.047	-0.137	-0.494
-627.478	51.530	-0.278	0.349
-626.463	-76.406	-0.294	0.136
-625.449	-128.101	-0.210	0.039
-624.434	30.008	-0.064	-0.073
-623.419	-200.000	0.014	0.276
-622.405	-138.635	-0.283	-0.041
-621.390	-200.000	-0.021	0.145
-620.376	-200.000	-0.002	0.137
-619.361	-159.437	0.508	-0.037
-618.346	-121.694	0.133	0.029
-617.332	-124.423	0.478	-0.098
-616.317	20.559	-0.164	-0.175
-615.303	-22.417	0.210	-0.168
-614.288	-62.426	-0.302	0.166
-613.273	119.710	-0.217	0.357
-612.259	-200.000	0.007	0.172
-611.244	-106.429	0.459	-0.135
-610.230	328.846	0.144	-0.367
-609.215	46.990	-0.058	-0.072
-608.201	277.080	-0.102	-0.240
-607.186	-104.273	-0.283	0.086
-606.171	-200.000	0.048	0.552
-605.157	370.105	0.127	0.343
-604.142	-147.332	-0.243	0.027
-603.128	27.566	0.150	-0.167
-602.113	61.654	-0.218	-0.287
-601.098	-200.000	-0.023	0.309
-600.084	-82.360	-0.287	0.123
-599.069	147.151	-0.247	-0.440
-598.055	-45.922	0.270	0.175
-597.040	50.127	-0.632	0.789
-596.025	800.000	-0.109	0.568
-595.011	422.597	0.034	0.097
-593.996	-128.186	0.457	0.085
-592.982	-200.000	0.036	-0.222
-591.967	-200.000	-0.003	0.163
-590.952	-200.000	0.027	0.247
-589.938	130.546	-0.283	0.480
-588.923	66.363	0.189	0.254
-587.909	18.528	-0.227	0.240
-586.894	-18.793	-0.562	0.462
-585.879	245.403	0.158	0.353
-584.865	724.302	-0.078	-0.274
-583.850	-200.000	-0.034	-0.440
-582.836	83.573	0.088	0.127
-581.821	800.000	0.066	-0.356
-580.806	128.056	-0.267	-0.450
-579.792	409.102	-0.191	-0.535
-578.777	-146.496	0.337	0.038
-577.763	-175.359	-0.441	-0.016
-576.748	120.133	0.115	0.188
-575.733	-153.561	-0.173	0.016
-574.719	-27.823	-0.416	0.318
-573.704	198.933	0.138	-0.280
-572.690	-200.000	-0.011	0.250
-571.675	-200.000	0.013	-0.160
-570.661	6.339	0.305	-0.299
-569.646	-103.315	-0.328	0.101
-568.631	19.748	-0.235	0.249
-567.617	-132.801	-0.532	0.089
-566.602	6.926	0.112	-0.110
-565.588	1.176	0.110	-0.104
-564.573	-123.946	0.764	-0.157
-563.558	-1.673	-0.274	-0.255
-562.544	-65.845	-0.327	0.172
-561.529	-44.115	-0.197	-0.130
-560.515	-154.536	0.152	-0.013
-559.500	-41.268	0.345	0.234
-558.485	251.961	-0.085	0.191
-557.471	234.746	0.142	-0.311
-556.456	-113.983	-0.650	0.165
-555.442	-39.589	-0.577	0.397
-554.427	800.000	0.014	-0.081
-553.412	-117.501	-0.197	-0.047
-552.398	-66.439	-0.465	-0.243
-551.383	800.000	0.073	-0.360
-550.369	112.002	0.206	-0.328
-549.354	-193.570	0.683	0.008
-548.339	-105.760	0.521	-0.154
-547.325	115.816	0.173	0.280
-546.310	11.572	-0.254	-0.257
-545.296	-200.000	0.017	-0.329
-544.281	-55.248	0.177	0.105
-543.266	-200.000	-0.007	0.437
-542.252	-82.993	0.430	-0.182
-541.237	404.855	0.112	-0.312
-540.223	-110.494	-0.358	-0.097
-539.208	35.219	-0.224	-0.259
-538.193	-200.000	0.022	-0.300
-537.179	-98.703	-0.152	0.051
-536.164	-7.539	-0.153	-0.136
-535.150	-2.841	-0.101	-0.093
-534.135	-54.736	0.504	0.299
-533.121	374.042	-0.108	0.292
-532.106	-200.000	-0.015	-0.206
-531.091	-117.920	0.655	-0.154
-530.077	-61.588	0.422	0.232
-529.062	98.644	0.199	0.303
-528.048	-60.868	0.403	0.224
-527.033	-200.000	0.048	0.404
-526.018	-200.000	-0.002	0.052
-525.004	239.916	-0.179	0.394
-523.989	-142.370	-0.443	0.057
-522.975	-21.401	-0.103	0.083
-521.960	191.455	0.112	-0.223
-520.945	-38.327	0.110	-0.077
-519.931	4.592	-0.202	-0.195
-518.916	245.601	0.129	-0.287
-517.902	800.000	-0.090	-0.413
-516.887	-200.000	0.004	-0.182
-515.872	-51.034	0.458	0.282
-514.858	-36.572	0.048	0.034
-513.843	-154.488	0.253	0.022
-512.829	-114.659	-0.553	-0.138
-511.814	207.956	-0.150	0.310
-510.799	-137.861	0.106	0.015
-509.785	-82.046	-0.057	-0.024
-508.770	-200.000	0.012	-0.125
-507.756	-146.779	0.615	0.069
-506.741	-98.683	0.140	-0.047
-505.726	207.506	0.057	-0.117
-504.712	-56.599	-0.122	0.071
-503.697	-123.722	0.395	0.082
-502.683	470.436	0.024	0.070
-501.668	-145.110	-0.449	-0.053
-500.653	350.057	0.033	-0.086
-499.639	393.626	0.065	-0.178
-498.624	-98.760	0.419	0.140
-497.610	689.796	0.077	0.268
-496.595	-78.415	0.411	-0.184
-495.581	-133.558	-0.129	0.021
-494.566	211.692	0.187	-0.389
-493.551	-43.657	-0.269	-0.178
-492.537	22.826	-0.367	-0.396
-491.522	-200.000	0.067	-0.527
-490.508	-11.502	-0.158	-0.136
-489.493	-99.457	0.408	0.134
-488.478	68.349	0.201	-0.272
-487.464	-132.054	0.339	-0.058
-486.449	-106.992	-0.375	-0.108
-485.435	55.327	0.181	-0.230
-484.420	43.235	0.558	-0.671
-483.405	-200.000	-0.025	0.766
-482.391	-72.169	-0.084	0.041
-481.376	-80.150	0.241	0.106
-480.362	29.378	-0.294	-0.329
-479.347	-200.000	0.011	0.309
-478.332	-53.438	0.188	0.113
-477.318	-145.255	-0.313	0.037
-476.303	800.000	-0.046	-0.185
-475.289	-128.139	-0.426	0.079
-474.274	800.000	-0.031	-0.119
-473.259	-30.119	-0.328	-0.245
-472.245	76.704	0.172	0.241
-471.230	-155.710	0.116	0.010
-470.216	-123.529	-0.158	-0.033
-469.201	-115.333	0.424	-0.104
-468.186	-176.159	-0.339	0.012
-467.172	13.065	-0.252	0.256
-466.157	800.000	-0.191	0.808
-465.143	150.857	-0.100	-0.180
-464.128	-83.982	0.419	0.174
-463.113	276.937	0.124	0.290
-462.099	-32.620	-0.542	0.396
-461.084	-142.504	-0.261	-0.033
-460.070	-130.475	0.549	0.097
-459.055	-65.201	-0.197	-0.104
-458.040	-45.637	-0.447	0.290
-457.026	159.082	-0.141	0.258
-456.011	178.683	0.217	-0.418
-454.997	-1.470	0.062	-0.057
-453.982	681.551	-0.117	0.402
-452.968	526.461	-0.052	0.162
-451.953	-34.229	0.136	0.098
-450.938	220.854	0.142	-0.300
-449.924	-200.000	0.085	-0.984
-448.909	446.666	-0.095	0.275
-447.895	24.818	-0.337	0.366
-446.880	-51.113	-0.449	0.276
-445.865	800.000	0.046	-0.242
-444.851	-200.000	-0.021	0.218
-443.836	95.244	0.138	-0.206
-442.822	-84.622	0.071	-0.029
-441.807	124.974	-0.128	-0.212
-440.792	-29.286	-0.464	-0.348
-439.778	23.963	0.361	-0.390
-438.763	22.372	-0.177	-0.190
-437.749	800.000	0.127	0.618
-436.734	53.729	0.016	0.020
-435.719	-103.983	0.307	0.093
-434.705	-200.000	0.009	-0.100
-433.690	-14.237	-0.171	-0.145
-432.676	-91.305	0.188	0.070
-431.661	76.515	0.059	-0.082
-430.646	800.000	-0.068	0.322
-429.632	-22.110	0.269	-0.214
-428.617	-97.009	-0.400	0.137
-427.603	13.557	-0.150	0.153
-426.588	1.742	0.014	0.013
-425.573	-125.439	-0.668	-0.132
-424.559	-72.540	-0.022	0.010
-423.544	-155.883	-0.406	-0.033
-422.530	-90.677	-0.377	-0.142
-421.515	607.946	-0.086	0.285
-420.500	-0.987	-0.183	0.169
-419.486	-50.271	-0.482	0.298
-418.471	69.511	-0.109	-0.148
-417.457	800.000	-0.058	0.258
-416.442	-200.000	-0.062	-0.506
-415.428	122.407	-0.252	0.413
-414.413	-200.000	0.000	0.558
-413.398	47.445	-0.127	0.155
-412.384	101.150	0.254	0.388
-411.369	-58.346	0.369	-0.210
-410.355	-98.943	0.210	0.070
-409.340	288.527	0.031	-0.075
-408.325	-29.775	-0.223	-0.167
-407.311	800.000	0.087	0.405
-406.296	215.333	0.272	0.567
-405.282	-0.199	-0.238	-0.221
-404.267	-10.364	0.263	-0.228
-403.252	-49.015	-0.114	-0.072
-402.238	-73.241	-0.099	0.048
-401.223	405.108	-0.079	-0.218
-400.209	-151.913	0.050	0.005
-399.194	26.582	0.231	-0.254
-398.179	-14.108	0.252	-0.213
-397.165	20.727	0.159	0.168
-396.150	68.194	0.165	0.222
-395.136	-200.000	-0.023	0.215
-394.121	31.991	0.234	-0.264
-393.106	-47.519	-0.317	-0.201
-392.092	-125.919	0.292	-0.057
-391.077	800.000	0.054	0.309
-390.063	174.708	0.328	0.623
-389.048	67.932	0.293	-0.393
-388.033	375.812	0.148	-0.396
-387.019	329.160	0.199	-0.503
-386.004	-56.157	-0.114	0.066
-384.990	-33.931	-0.109	-0.078
-383.975	-122.577	-0.221	0.047
-382.960	-66.876	0.758	0.391
-381.946	-200.000	-0.013	0.410
-380.931	-32.232	0.207	-0.151
-379.917	-141.427	-0.205	-0.027
-378.902	-94.826	-0.585	-0.207
-377.888	-55.300	0.247	-0.145
-376.873	256.574	-0.289	0.652
-375.858	27.950	0.227	-0.251
-374.844	297.345	-0.106	-0.257
-373.829	115.103	-0.086	-0.138
-372.815	720.358	-0.109	-0.381
-371.800	491.483	0.102	-0.306
-370.785	42.154	-0.366	-0.436
-369.771	-70.909	-0.645	-0.317
-368.756	-40.994	0.175	0.118
-367.742	-119.920	0.830	-0.185
-366.727	-163.007	0.599	-0.037
-365.712	181.593	-0.049	-0.095
-364.698	-200.000	-0.010	0.100
-363.683	-162.340	0.484	0.031
-362.669	800.000	0.019	0.081
-361.654	-6.718	-0.335	-0.298
-360.639	283.134	-0.069	-0.163
-359.625	10.591	-0.197	0.197
-358.610	132.541	-0.362	0.613
-357.596	-193.281	0.329	-0.004
-356.581	-111.525	0.656	-0.173
-355.566	647.179	0.017	-0.056
-354.552	800.000	-0.097	-0.356
-353.537	-156.097	0.233	0.019
-352.523	-26.397	0.627	-0.480
-351.508	-7.597	0.309	-0.273
-350.493	76.174	-0.280	-0.389
-349.479	385.914	0.072	0.194
-348.464	-93.837	-0.373	0.134
-347.450	-69.873	-0.215	0.107
-346.435	-146.424	0.372	-0.042
-345.420	739.250	-0.127	-0.450
-344.406	281.001	0.106	0.249
-343.391	-200.000	-0.022	-0.188
-342.377	-200.000	-0.004	0.303
-341.362	-24.243	-0.391	0.305
-340.348	405.593	-0.033	-0.093
-339.333	10.168	0.103	-0.102
-338.318	338.626	0.074	0.188
-337.304	-9.161	0.171	-0.149
-336.289	5.773	0.409	0.396
-335.275	304.808	-0.161	0.392
-334.260	42.769	-0.330	-0.393
-333.245	-155.056	0.097	0.008
-332.231	74.964	-0.064	0.088
-331.216	-148.612	0.008	-0.001
-330.202	-200.000	-0.017	-0.149
-329.187	-200.000	-0.037	-0.379
-328.172	-51.505	-0.177	0.108
-327.158	-8.510	0.518	0.454
-326.143	264.552	0.142	-0.324
-325.129	-13.996	-0.123	-0.104
-324.114	148.427	-0.257	0.454
-323.099	-200.000	0.221	-0.000
-322.085	188.913	0.214	-0.420
-321.070	-200.000	-0.014	0.487
-320.056	-41.482	0.254	0.170
-319.041	-200.000	-0.071	-0.451
-318.026	-182.000	0.223	0.005
-317.012	-200.000	-0.041	0.322
-315.997	-138.829	0.390	0.055
-314.983	57.173	0.080	-0.102
-313.968	-200.000	-0.055	-0.410
-312.953	-120.626	-0.969	-0.213
-311.939	800.000	0.048	0.200
-310.924	-93.631	0.312	0.112
-309.910	132.878	0.204	-0.345
-308.895	-7.911	-0.272	-0.240
-307.880	-200.000	-0.068	0.678
-306.866	-35.189	-0.181	-0.128
-305.851	800.000	0.079	-0.452
-304.837	61.532	-0.221	0.288
-303.822	800.000	-0.138	0.598
-302.807	97.420	0.275	0.413
-301.793	-19.268	0.193	0.156
-300.778	197.508	-0.135	0.270
-299.764	94.640	0.244	0.363
-298.749	-200.000	0.012	-0.440
-297.735	-145.326	-0.542	0.063
-296.720	-200.000	-0.031	0.298
-295.705	-62.742	0.294	-0.158
-294.691	749.445	0.169	0.600
-293.676	-15.681	0.263	-0.218
-292.662	-89.374	0.265	0.101
-291.647	-120.219	0.169	0.037
-290.632	-7.758	0.303	0.267
-289.618	0.726	0.459	0.428
-288.603	247.529	0.146	-0.323
-287.589	-124.705	0.321	0.064
-286.574	-93.572	0.285	-0.102
-285.559	-167.609	0.261	0.013
-284.545	-34.730	-0.323	-0.230
-283.530	-200.000	0.006	0.201
-282.516	398.426	0.097	0.265
-281.501	51.390	0.418	-0.518
-280.486	-32.698	-0.126	-0.091
-279.472	-200.000	-0.003	0.063
-278.457	506.424	-0.112	-0.341
-277.443	-1.912	-0.115	0.106
-276.428	-200.000	-0.027	-0.325
-275.413	119.520	-0.148	-0.240
-274.399	-119.229	-0.397	0.090
-273.384	-17.614	0.148	0.121
-272.370	-57.934	0.337	0.191
-271.355	-167.320	-0.442	0.023
-270.340	757.934	0.174	-0.619
-269.326	-200.000	0.028	-0.163
-268.311	-49.680	-0.182	-0.113
-267.297	-92.277	-0.111	-0.041
-266.282	194.882	0.136	-0.270
-265.267	11.624	0.270	0.270
-264.253	-2.302	0.231	-0.211
-263.238	-95.654	0.322	0.112
-262.224	-103.042	-0.062	-0.019
-261.209	-177.728	0.122	0.004
-260.195	531.856	-0.049	-0.152
-259.180	-25.017	0.144	0.111
-258.165	269.960	0.152	0.349
-257.151	800.000	0.022	0.119
-256.136	17.776	0.244	0.253
-255.122	114.543	0.108	0.172
-254.107	-38.482	-0.523	0.359
-253.092	630.418	0.063	0.209
-252.078	464.730	0.099	-0.291
-251.063	735.144	0.065	0.230
-250.049	-159.378	-0.407	-0.029
-249.034	-200.000	0.026	-0.400
-248.019	-17.103	-0.299	-0.245
-247.005	470.908	0.105	-0.309
-245.990	-200.000	-0.005	-0.253
-244.976	800.000	-0.018	-0.069
-243.961	-81.310	0.159	-0.068
-242.946	-166.454	-0.181	-0.010
-241.932	176.099	-0.362	0.686
-240.917	33.385	0.293	0.332
-239.903	800.000	0.059	-0.309
-238.888	-200.000	-0.016	0.284
-237.873	76.409	-0.120	0.166
-236.859	-200.000	-0.000	0.163
-235.844	70.233	-0.116	0.156
-234.830	317.121	-0.033	0.082
-233.815	-92.926	0.262	0.095
-232.800	-200.000	0.011	-0.239
-231.786	-159.963	-0.336	-0.024
-230.771	-200.000	-0.024	0.175
-229.757	-200.000	0.368	-0.002
-228.742	800.000	0.025	0.115
-227.727	-31.090	-0.041	-0.030
-226.713	-5.071	0.124	-0.111
-225.698	-71.502	-0.278	0.135
-224.684	-79.849	-0.405	0.177
-223.669	-115.387	-0.205	-0.050
-222.655	64.310	0.248	-0.325
-221.640	-110.200	-0.396	-0.107
-220.625	-47.203	-0.693	0.438
-219.611	295.429	0.171	0.410
-218.596	-103.055	-0.161	-0.049
-217.582	-132.127	0.163	0.027
-216.567	239.426	0.141	0.307
-215.552	-119.887	0.512	-0.114
-214.538	18.136	0.265	0.275
-213.523	95.450	-0.106	-0.158
-212.509	287.459	0.116	0.274
-211.494	19.927	0.116	0.122
-210.479	120.757	-0.264	-0.429
-209.465	179.597	-0.095	-0.181
-208.450	-91.510	0.288	0.106
-207.436	161.276	0.088	0.160
-206.421	800.000	0.039	0.182
-205.406	-25.919	0.033	0.025
-204.392	-200.000	0.023	-0.296
-203.377	15.087	0.028	-0.029
-202.363	134.853	0.200	-0.338
-201.348	-26.725	0.190	-0.145
-200.333	-200.000	-0.030	0.222
-199.319	-19.518	0.143	-0.115
-198.304	-162.740	0.078	0.005
-197.290	21.352	0.117	0.124
-196.275	-193.178	-0.193	-0.002
-195.260	-200.000	0.029	0.461
-194.246	-182.730	-0.365	-0.008
-193.231	153.044	-0.163	-0.290
-192.217	16.036	0.143	0.147
-191.202	-200.000	0.049	-0.284
-190.187	-139.257	-0.343	0.048
-189.173	800.000	0.033	0.125
-188.158	-131.709	0.098	0.017
-187.144	476.752	0.105	0.310
-186.129	800.000	-0.106	0.395
-185.114	178.950	0.019	-0.037
-184.100	112.980	0.132	0.208
-183.085	-54.249	-0.414	-0.244
-182.071	72.635	0.061	0.083
-181.056	-56.256	0.115	-0.066
-180.042	800.000	0.117	-0.565
-179.027	-52.777	-0.281	-0.168
-178.012	345.382	0.143	-0.368
-176.998	-101.105	-0.131	-0.041
-175.983	-200.000	0.055	0.327
-174.969	67.211	0.405	-0.537
-173.954	239.316	0.042	-0.091
-172.939	-51.113	-0.105	0.064
-171.925	-177.068	-0.133	0.004
-170.910	-54.106	-0.371	-0.218
-169.896	800.000	0.019	0.101
-168.881	-41.548	0.434	-0.289
-167.866	-93.356	0.145	0.052
-166.852	-80.564	-0.227	0.098
-165.837	-133.064	-0.377	0.062
-164.823	-20.154	0.253	-0.202
-163.808	127.566	-0.100	-0.166
-162.793	152.117	-0.076	-0.135
-161.779	57.422	-0.367	-0.466
-160.764	-200.000	-0.059	-0.419
-159.750	20.004	0.204	-0.214
-158.735	202.997	-0.330	-0.665
-157.720	51.323	0.131	-0.162
-156.706	10.966	-0.243	0.241
-155.691	-56.572	0.093	0.053
-154.677	340.813	-0.045	-0.116
-153.662	-66.907	-0.068	-0.035
-152.647	141.424	0.089	-0.154
-151.633	-85.768	-0.164	0.066
-150.618	-59.822	0.475	-0.263
-149.604	-17.556	-0.240	0.195
-148.589	-163.466	0.457	0.028
-147.574	762.576	-0.079	0.281
-146.560	-70.552	-0.038	-0.019
-145.545	-121.333	0.163	0.035
-144.531	-140.596	0.362	0.048
-143.516	800.000	0.066	-0.356
-142.502	800.000	0.063	0.248
-141.487	536.660	-0.050	-0.155
-140.472	-39.564	0.246	0.167
-139.458	-123.198	-0.639	0.132
-138.443	-200.000	-0.002	-0.149
-137.429	-67.629	0.198	-0.100
-136.414	253.187	-0.089	-0.198
-135.399	61.525	-0.217	-0.281
-134.385	251.167	-0.187	0.415
-133.370	-34.587	-0.427	0.303
-132.356	-61.875	0.278	0.150
-131.341	800.000	-0.058	0.236
-130.326	540.709	-0.070	-0.217
-129.312	-200.000	0.028	-0.172
-128.297	51.521	0.234	0.288
-127.283	346.747	0.099	-0.255
-126.268	19.625	-0.291	-0.304
-125.253	-200.000	-0.026	0.219
-124.239	-58.451	0.422	0.237
-123.224	24.040	0.366	-0.391
-122.210	93.379	0.217	-0.319
-121.195	-22.210	0.223	0.175
