DTS Sentinel unit serial number:	SN409020Multiplexer serial number:	ORYXHardware model number:	OX4-SRSoftware version number:	ORYX F/W v3.00 Oryx Data Collector v3.7.2.0data status	okinstallation	HaddamTimeLapsedifferential loss correction	single-endedforward channel	channel 3reverse channel	N/Adate	2011/06/21time	21:16:17forward acquisition time	30.00reverse acquisition time	0.00gamma	498.7831k internal	0.1764k external	0.1764temperature offset calibration	1.0074default loss term (dB/km)	0.3790temperature slope calibration	1.3530multiplexer offset coefficient	1.0000multiplexer slope coefficient	1.0000fibre end	0.00T internal ref (°C)	26.94T ext. ref 1 (°C)	20.03T ext. ref 2 (°C)	0.03length (m)	temperature (°C)	Stokes	anti-Stokes-747.200	107.393	-0.127	-0.200
-746.185	102.287	0.150	0.232
-745.171	-200.000	-0.001	-0.467
-744.156	-79.846	0.306	0.135
-743.142	42.774	0.118	-0.142
-742.127	-154.205	-0.103	-0.009
-741.112	257.406	-0.146	-0.333
-740.098	-200.000	0.017	0.399
-739.083	-133.224	0.068	-0.011
-738.069	318.305	0.067	0.167
-737.054	-69.721	-0.103	0.052
-736.039	800.000	-0.032	0.165
-735.025	800.000	0.064	-0.271
-734.010	-136.926	-0.204	-0.030
-732.996	516.139	-0.198	-0.614
-731.981	-84.597	-0.170	0.070
-730.966	-10.592	-0.566	-0.494
-729.952	-88.859	0.291	0.113
-728.937	-38.166	0.380	0.265
-727.923	-200.000	-0.014	0.149
-726.908	-150.934	-0.280	0.028
-725.894	279.908	0.235	-0.556
-724.879	24.572	-0.324	-0.353
-723.864	316.395	-0.101	-0.253
-722.850	-75.017	-0.220	-0.103
-721.835	-200.000	-0.000	0.097
-720.821	-108.123	0.303	0.086
-719.806	256.255	-0.037	0.083
-718.791	138.536	-0.035	-0.061
-717.777	149.165	-0.197	0.352
-716.762	-137.270	-0.114	0.017
-715.748	-200.000	0.004	-0.210
-714.733	32.621	-0.271	-0.308
-713.718	-139.142	0.265	0.037
-712.704	-8.678	-0.330	-0.291
-711.689	-118.934	-0.238	-0.055
-710.675	-160.159	0.441	-0.031
-709.660	800.000	-0.058	0.238
-708.645	40.037	0.250	-0.296
-707.631	-198.524	-0.203	-0.001
-706.616	144.946	-0.042	0.074
-705.602	-123.792	-0.188	-0.039
-704.587	-130.935	0.453	-0.079
-703.572	-54.464	0.011	0.006
-702.558	-159.668	0.529	0.038
-701.543	487.251	0.045	0.137
-700.529	-33.702	0.353	-0.255
-699.514	223.807	-0.062	0.133
-698.499	-72.965	-0.270	0.130
-697.485	-200.000	0.054	-0.321
-696.470	153.383	0.221	-0.399
-695.456	274.235	0.131	-0.305
-694.441	-171.478	-0.293	-0.013
-693.426	-2.068	-0.172	-0.159
-692.412	38.548	-0.356	0.418
-691.397	-115.643	-0.291	-0.071
-690.383	-134.091	0.268	0.043
-689.368	800.000	-0.071	-0.278
-688.354	17.107	0.498	-0.520
-687.339	14.681	0.310	0.319
-686.324	-95.633	0.306	0.107
-685.310	-138.917	-0.308	-0.044
-684.295	-115.052	-0.373	0.092
-683.281	-76.738	-0.562	-0.258
-682.266	109.049	0.203	0.321
-681.251	595.886	0.117	-0.384
-680.237	-141.758	0.205	0.027
-679.222	11.297	-0.439	0.442
-678.208	-78.299	0.317	0.142
-677.193	-56.440	-0.196	-0.114
-676.178	-130.360	-0.287	-0.051
-675.164	800.000	-0.060	-0.349
-674.149	-157.684	-0.287	-0.022
-673.135	316.357	-0.097	0.241
-672.120	590.217	0.037	0.121
-671.105	-3.152	0.321	-0.294
-670.091	168.009	0.300	-0.562
-669.076	613.092	0.090	-0.298
-668.062	27.771	-0.146	-0.162
-667.047	205.875	-0.185	-0.380
-666.032	-1.932	0.306	0.282
-665.018	-143.394	0.336	0.042
-664.003	8.121	0.333	0.329
-662.989	-125.680	0.644	0.127
-661.974	-95.191	-0.308	-0.108
-660.959	-43.252	-0.485	-0.322
-659.945	455.558	0.126	0.368
-658.930	-51.933	-0.614	0.374
-657.916	-117.754	0.162	0.038
-656.901	124.683	0.200	0.331
-655.886	-200.000	0.010	-0.273
-654.872	84.522	0.179	-0.257
-653.857	-122.256	0.074	0.016
-652.843	-70.967	0.354	-0.175
-651.828	800.000	0.067	-0.331
-650.814	-76.442	-0.183	-0.084
-649.799	150.823	0.057	0.102
-648.784	-7.713	-0.171	0.152
-647.770	-156.298	0.630	-0.051
-646.755	800.000	-0.061	-0.275
-645.741	-198.856	-0.484	-0.003
-644.726	34.679	-0.119	0.137
-643.711	-104.759	0.189	-0.057
-642.697	52.221	0.099	-0.124
-641.682	-181.512	0.520	0.013
-640.668	-137.472	0.615	0.090
-639.653	-42.572	-0.017	-0.011
-638.638	-129.839	-0.247	0.044
-637.624	7.938	0.258	0.254
-636.609	250.770	-0.078	0.174
-635.595	-177.854	-0.249	-0.008
-634.580	-42.426	-0.235	0.157
-633.565	-63.742	-0.250	0.134
-632.551	-58.366	0.388	-0.221
-631.536	-75.025	-0.287	-0.135
-630.522	-124.303	-0.339	0.069
-629.507	-200.000	-0.007	0.668
-628.492	0.624	0.220	0.207
-627.478	159.411	0.190	-0.348
-626.463	-99.756	-0.280	0.091
-625.449	16.766	-0.103	0.107
-624.434	-145.980	-0.258	0.030
-623.419	-200.000	-0.032	-0.228
-622.405	-28.505	0.463	0.350
-621.390	800.000	-0.062	0.226
-620.376	40.928	-0.235	0.278
-619.361	-78.163	0.410	-0.184
-618.346	-152.580	-0.023	-0.002
-617.332	-101.487	0.182	-0.058
-616.317	-200.000	-0.034	-0.225
-615.303	-92.347	-0.211	-0.077
-614.288	574.283	0.092	-0.297
-613.273	321.223	0.086	-0.216
-612.259	-58.547	0.403	0.229
-611.244	-40.431	-0.160	-0.109
-610.230	-200.000	-0.054	-0.574
-609.215	-200.000	0.004	-0.441
-608.201	7.737	0.223	-0.219
-607.186	-86.749	-0.341	0.136
-606.171	-34.869	0.341	0.244
-605.157	-166.658	0.391	0.021
-604.142	-200.000	0.021	0.478
-603.128	273.766	0.096	0.223
-602.113	-200.000	0.010	0.165
-601.098	200.604	-0.104	-0.210
-600.084	180.054	-0.268	0.517
-599.069	-134.806	0.534	-0.084
-598.055	34.028	-0.224	-0.255
-597.040	800.000	0.071	-0.395
-596.025	800.000	-0.141	0.585
-595.011	-66.439	-0.427	0.222
-593.996	-154.699	-0.161	0.014
-592.982	800.000	0.050	-0.190
-591.967	58.628	0.288	-0.371
-590.952	-62.541	-0.159	-0.086
-589.938	-130.198	-0.433	-0.077
-588.923	800.000	-0.083	0.326
-587.909	800.000	0.034	0.157
-586.894	-61.139	0.065	0.036
-585.879	-45.929	-0.153	-0.099
-584.865	196.594	-0.118	-0.236
-583.850	-29.352	0.101	0.075
-582.836	-101.791	0.213	0.067
-581.821	7.810	0.216	0.212
-580.806	-200.000	-0.007	-0.402
-579.792	-145.949	0.250	0.029
-578.777	563.136	0.039	0.125
-577.763	-56.460	0.144	0.084
-576.748	-200.000	-0.049	-0.332
-575.733	-66.586	-0.613	-0.317
-574.719	-135.239	-0.437	-0.068
-573.704	-200.000	-0.011	-0.260
-572.690	66.321	-0.156	-0.208
-571.675	447.817	-0.153	0.442
-570.661	-62.142	-0.217	-0.118
-569.646	-40.940	-0.513	-0.346
-568.631	-13.966	0.250	-0.211
-567.617	-45.097	0.258	-0.168
-566.602	316.533	0.204	-0.507
-565.588	-130.110	0.195	0.034
-564.573	-86.259	0.334	0.134
-563.558	-72.930	-0.335	0.160
-562.544	-60.141	-0.297	0.165
-561.529	-118.565	-0.327	0.075
-560.515	-26.364	-0.275	-0.211
-559.500	-91.555	-0.222	0.082
-558.485	-24.072	-0.401	0.313
-557.471	290.336	0.210	0.501
-556.456	33.339	0.162	0.184
-555.442	22.243	0.259	0.277
-554.427	794.810	0.086	0.312
-553.412	-200.000	0.022	0.355
-552.398	147.384	0.021	-0.037
-551.383	-200.000	0.014	0.234
-550.369	177.758	0.169	-0.323
-549.354	-83.782	-0.222	0.092
-548.339	-127.204	-0.253	-0.048
-547.325	-23.834	0.232	0.181
-546.310	-181.174	-0.153	-0.004
-545.296	-87.366	-0.445	-0.176
-544.281	-148.527	-0.320	0.034
-543.266	-20.405	-0.298	-0.240
-542.252	95.697	-0.167	0.250
-541.237	223.612	0.022	-0.047
-540.223	189.711	-0.115	0.227
-539.208	-51.336	0.296	-0.180
-538.193	-52.690	-0.203	-0.122
-537.179	-124.126	-0.320	-0.065
-536.164	-161.148	0.291	-0.020
-535.150	800.000	0.059	0.294
-534.135	-200.000	0.019	-0.393
-533.121	-200.000	0.004	-0.183
-532.106	-200.000	-0.011	-0.214
-531.091	-125.863	-0.275	0.054
-530.077	-95.796	-0.162	0.056
-529.062	20.585	0.074	-0.079
-528.048	-160.176	0.119	-0.008
-527.033	10.002	-0.087	0.086
-526.018	20.733	-0.252	-0.267
-525.004	-89.238	-0.441	-0.169
-523.989	-143.971	-0.538	-0.065
-522.975	306.792	0.129	0.316
-521.960	466.281	-0.020	0.060
-520.945	-42.564	0.292	-0.194
-519.931	-143.266	-0.253	-0.031
-518.916	37.608	0.282	-0.327
-517.902	-108.414	0.420	-0.117
-516.887	-120.761	-0.345	-0.075
-515.872	41.439	-0.292	0.345
-514.858	552.776	-0.249	0.786
-513.843	-153.798	0.289	0.026
-512.829	-110.997	0.664	-0.177
-511.814	-200.000	-0.035	0.264
-510.799	-2.821	-0.156	0.142
-509.785	-29.501	-0.445	0.332
-508.770	-175.982	-0.338	-0.012
-507.756	59.570	0.168	-0.217
-506.741	269.928	-0.061	-0.140
-505.726	-12.997	-0.077	-0.065
-504.712	6.920	-0.036	0.035
-503.697	800.000	0.025	-0.143
-502.683	11.130	-0.317	-0.317
-501.668	-43.807	-0.419	0.275
-500.653	108.651	-0.060	0.094
-499.639	800.000	0.008	-0.037
-498.624	-122.904	0.527	-0.110
-497.610	18.196	0.193	0.201
-496.595	-87.231	-0.390	0.154
-495.581	-200.000	0.022	0.211
-494.566	800.000	-0.081	-0.402
-493.551	155.982	-0.147	-0.265
-492.537	13.328	-0.299	-0.302
-491.522	343.463	-0.008	-0.021
-490.508	44.609	0.058	-0.070
-489.493	800.000	-0.104	-0.550
-488.478	-29.385	0.300	-0.223
-487.464	800.000	-0.058	-0.255
-486.449	-87.718	0.110	-0.043
-485.435	-21.112	-0.375	-0.299
-484.420	464.883	-0.030	-0.089
-483.405	-67.050	0.405	-0.208
-482.391	69.051	0.202	-0.271
-481.376	-49.059	-0.152	0.095
-480.362	-38.907	-0.210	-0.144
-479.347	-39.112	-0.099	0.068
-478.332	-190.089	0.335	-0.005
-477.318	-115.670	-0.226	0.055
-476.303	37.625	0.235	0.272
-475.289	-200.000	0.150	0.000
-474.274	-76.113	-0.301	-0.138
-473.259	-123.130	0.435	0.090
-472.245	-36.819	-0.258	0.181
-471.230	261.712	0.193	0.438
-470.216	58.672	-0.145	0.186
-469.201	-34.413	-0.334	-0.239
-468.186	51.605	-0.330	0.410
-467.172	221.708	0.268	0.563
-466.157	346.464	0.056	0.144
-465.143	-153.274	0.635	-0.057
-464.128	-191.801	-0.448	0.006
-463.113	-166.332	0.091	-0.005
-462.099	46.320	0.074	-0.089
-461.084	-81.076	0.322	0.138
-460.070	-83.952	-0.075	0.031
-459.055	335.383	-0.227	0.576
-458.040	37.309	0.093	0.108
-457.026	-34.933	0.250	-0.178
-456.011	-125.906	0.274	-0.053
-454.997	-200.000	-0.002	0.127
-453.982	-178.847	0.238	0.007
-452.968	140.772	-0.266	0.460
-451.953	-161.306	0.129	0.009
-450.938	70.242	-0.130	-0.176
-449.924	-109.266	-0.175	0.048
-448.909	-113.411	-0.650	-0.165
-447.895	-103.993	-0.589	0.178
-446.880	210.970	-0.176	0.362
-445.865	-95.683	0.287	-0.099
-444.851	128.215	-0.052	0.086
-443.836	417.007	0.083	-0.232
-442.822	-46.502	0.378	0.241
-441.807	-1.721	0.042	-0.038
-440.792	-200.000	0.072	-0.494
-439.778	533.773	-0.096	0.297
-438.763	-200.000	-0.008	-0.094
-437.749	115.830	0.330	-0.527
-436.734	-114.716	-0.484	-0.120
-435.719	-3.759	-0.228	0.206
-434.705	-119.872	0.068	-0.015
-433.690	437.227	-0.094	0.267
-432.676	-73.899	-0.088	-0.041
-431.661	-162.947	-0.531	-0.033
-430.646	227.479	0.293	-0.623
-429.632	800.000	-0.076	-0.434
-428.617	96.341	0.312	-0.466
-427.603	-75.018	-0.187	-0.087
-426.588	73.704	0.102	-0.140
-425.573	-200.000	0.020	-0.377
-424.559	757.542	0.074	-0.262
-423.544	-110.359	0.169	-0.045
-422.530	201.593	0.044	0.089
-421.515	-200.000	0.028	-0.171
-420.500	-200.000	-0.071	-0.571
-419.486	367.486	-0.173	-0.458
-418.471	-200.000	-0.020	0.183
-417.457	-131.803	-0.197	0.033
-416.442	-21.681	0.295	0.233
-415.428	75.304	0.112	0.154
-414.413	-38.787	0.170	0.116
-413.398	152.264	-0.153	-0.272
-412.384	-49.685	0.284	-0.175
-411.369	-1.102	-0.127	0.116
-410.355	-132.712	0.326	0.054
-409.340	192.990	-0.294	-0.579
-408.325	-14.559	-0.414	0.346
-407.311	665.723	-0.029	0.098
-406.296	280.192	-0.228	-0.532
-405.282	62.525	-0.246	0.320
-404.267	54.737	0.204	0.257
-403.252	-165.654	0.160	-0.009
-402.238	718.361	0.024	0.085
-401.223	138.837	0.270	0.462
-400.209	86.449	0.242	0.348
-399.194	-200.000	0.016	0.114
-398.179	-90.420	-0.082	-0.031
-397.165	-92.609	0.209	0.076
-396.150	-99.380	-0.337	-0.110
-395.136	147.895	-0.359	0.631
-394.121	523.322	0.022	0.068
-393.106	800.000	-0.093	0.393
-392.092	-37.369	-0.439	0.304
-391.077	-73.084	-0.593	-0.281
-390.063	-200.000	-0.130	1.011
-389.048	-10.201	-0.294	0.253
-388.033	-182.207	0.444	0.011
-387.019	46.234	0.064	0.077
-386.004	-200.000	0.004	-0.208
-384.990	-61.991	-0.536	-0.290
-383.975	800.000	-0.062	-0.232
-382.960	-111.514	-0.577	-0.151
-381.946	25.897	0.084	0.091
-380.931	-200.000	-0.141	0.001
-379.917	-80.115	0.408	-0.177
-378.902	-52.834	0.320	-0.191
-377.888	293.645	-0.131	-0.312
-376.873	157.291	-0.110	0.199
-375.858	-142.447	0.580	0.073
-374.844	-95.190	0.402	0.140
-373.829	-26.751	-0.398	-0.302
-372.815	65.455	0.347	0.457
-371.800	-114.933	0.391	0.096
-370.785	279.685	0.203	-0.473
-369.771	273.768	-0.200	0.461
-368.756	-35.909	-0.054	-0.038
-367.742	-200.000	-0.005	-0.171
-366.727	21.563	-0.244	-0.257
-365.712	-61.697	-0.390	-0.211
-364.698	-103.271	0.148	-0.045
-363.683	31.799	-0.139	-0.156
-362.669	44.327	-0.274	0.327
-361.654	-83.384	-0.091	-0.038
-360.639	135.457	0.256	0.433
-359.625	75.573	0.119	-0.163
-358.610	190.066	0.261	0.511
-357.596	18.248	-0.142	-0.147
-356.581	198.170	-0.080	0.158
-355.566	35.696	-0.183	0.209
-354.552	279.786	-0.207	-0.481
-353.537	151.844	0.310	-0.550
-352.523	575.422	0.057	0.182
-351.508	-60.408	0.369	-0.203
-350.493	-28.464	0.335	-0.251
-349.479	-62.872	-0.339	0.182
-348.464	191.656	0.146	0.286
-347.450	-200.000	-0.008	0.113
-346.435	800.000	-0.067	0.271
-345.420	75.469	-0.369	0.506
-344.406	23.816	-0.090	0.096
-343.391	237.306	0.074	0.159
-342.377	-128.933	0.099	0.018
-341.362	425.410	0.153	-0.429
-340.348	163.519	0.142	-0.261
-339.333	-200.000	-0.015	0.681
-338.318	800.000	-0.048	0.212
-337.304	-22.463	0.130	0.102
-336.289	-200.000	0.069	0.413
-335.275	-92.471	0.437	-0.158
-334.260	27.991	-0.073	-0.080
-333.245	437.747	-0.056	0.158
-332.231	-33.263	0.401	-0.287
-331.216	51.550	0.165	-0.204
-330.202	-80.209	0.261	-0.113
-329.187	-54.674	0.218	0.128
-328.172	-177.415	-0.173	-0.005
-327.158	-123.072	0.147	-0.030
-326.143	58.248	-0.278	-0.354
-325.129	-145.151	-0.122	0.014
-324.114	262.327	-0.199	0.450
-323.099	-200.000	0.001	0.128
-322.085	-42.977	0.112	-0.073
-321.070	-200.000	-0.009	0.111
-320.056	-157.009	0.634	-0.050
-319.041	-92.985	-0.120	-0.043
-318.026	-200.000	-0.004	-0.296
-317.012	98.447	-0.028	-0.042
-315.997	-126.939	-0.680	-0.129
-314.983	-83.735	0.350	0.144
-313.968	-200.000	-0.049	-0.556
-312.953	179.639	-0.119	-0.226
-311.939	347.616	-0.088	-0.226
-310.924	-137.497	0.162	-0.024
-309.910	362.796	0.100	-0.261
-308.895	-146.810	0.287	-0.032
-307.880	800.000	0.127	0.505
-306.866	28.379	0.375	-0.411
-305.851	74.918	0.058	-0.079
-304.837	-22.691	0.140	0.109
-303.822	-15.081	0.130	0.108
-302.807	-30.566	-0.337	0.247
-301.793	-109.877	0.468	-0.126
-300.778	13.150	-0.332	0.333
-299.764	-200.000	-0.083	-0.514
-298.749	586.640	-0.180	-0.576
-297.735	-200.000	0.005	-0.262
-296.720	-92.868	-0.222	0.080
-295.705	-200.000	0.044	-0.470
-294.691	19.447	-0.323	-0.336
-293.676	-136.544	0.374	0.056
-292.662	-26.700	0.238	-0.180
-291.647	800.000	-0.081	-0.302
-290.632	10.285	-0.101	0.099
-289.618	33.435	-0.146	-0.165
-288.603	-131.598	0.460	-0.078
-287.589	89.820	-0.164	-0.238
-286.574	-11.080	-0.364	0.310
-285.559	-200.000	-0.003	-0.122
-284.545	294.520	-0.106	-0.251
-283.530	-69.992	0.348	0.171
-282.516	15.263	0.166	-0.169
-281.501	-200.000	-0.045	0.300
-280.486	184.624	-0.210	-0.404
-279.472	-26.345	-0.150	0.114
-278.457	-127.054	0.236	-0.044
-277.443	452.388	-0.150	-0.431
-276.428	68.590	0.188	0.249
-275.413	-200.000	0.000	0.185
-274.399	58.330	-0.167	0.213
-273.384	-105.988	0.693	0.200
-272.370	15.149	0.321	-0.325
-271.355	-154.572	0.106	-0.009
-270.340	427.099	0.032	0.088
-269.326	-130.903	-0.112	0.019
-268.311	-71.637	-0.171	0.082
-267.297	299.616	-0.173	0.414
-266.282	-87.679	0.173	-0.067
-265.267	86.329	0.345	-0.492
-264.253	-176.868	-0.647	0.021
-263.238	340.090	0.141	-0.357
-262.224	-103.434	0.569	-0.172
-261.209	191.053	-0.100	-0.196
-260.195	-52.413	-0.185	-0.111
-259.180	-30.920	-0.138	-0.100
-258.165	-20.621	0.396	-0.314
-257.151	-96.613	-0.335	0.114
-256.136	-165.911	-0.686	0.037
-255.122	-117.123	-0.368	-0.086
-254.107	-71.697	-0.471	0.226
-253.092	-147.847	0.488	0.052
-252.078	-42.961	0.173	-0.113
-251.063	-138.811	-0.743	-0.104
-250.049	-200.000	0.026	0.243
-249.034	-200.000	0.014	-0.142
-248.019	-200.000	-0.082	0.573
-247.005	-200.000	-0.010	0.172
-245.990	800.000	-0.091	0.347
-244.976	43.351	0.266	0.314
-243.961	800.000	0.042	-0.220
-242.946	-43.773	-0.225	0.146
-241.932	87.183	0.133	0.190
-240.917	0.916	-0.293	-0.271
-239.903	-152.262	0.290	0.027
-238.888	-200.000	0.009	-0.090
-237.873	-159.407	0.339	0.024
-236.859	-131.400	0.607	-0.103
-235.844	84.699	0.358	0.507
-234.830	-37.099	0.111	-0.077
-233.815	-154.658	-0.135	-0.011
-232.800	800.000	0.066	-0.280
-231.786	18.488	0.218	-0.225
-230.771	37.576	0.121	-0.139
-229.757	-84.968	0.188	-0.076
-228.742	-35.978	0.263	-0.183
-227.727	294.833	0.030	-0.071
-226.713	-40.678	-0.193	-0.129
-225.698	800.000	-0.039	0.214
-224.684	92.019	0.084	-0.122
-223.669	-11.016	0.365	-0.311
-222.655	-200.000	-0.107	-0.000
-221.640	442.724	0.049	0.139
-220.625	-53.005	0.592	0.350
-219.611	-124.482	-0.443	0.088
-218.596	160.768	0.246	0.444
-217.582	-67.625	-0.307	0.155
-216.567	-55.460	0.169	-0.098
-215.552	-3.114	-0.401	-0.361
-214.538	-200.000	0.008	0.231
-213.523	-200.000	-0.022	0.214
-212.509	11.444	0.030	-0.030
-211.494	392.836	0.137	-0.370
-210.479	-0.505	0.123	0.113
-209.465	-50.351	-0.040	-0.024
-208.450	735.539	-0.082	-0.287
-207.436	800.000	-0.105	0.380
-206.421	-127.312	0.340	-0.063
-205.406	-38.086	-0.245	-0.168
-204.392	20.074	0.052	0.055
-203.377	-200.000	0.009	-0.164
-202.363	-187.562	0.461	0.008
-201.348	322.001	-0.057	0.141
-200.333	87.006	0.106	-0.152
-199.319	-84.136	-0.240	-0.098
-198.304	-18.032	0.361	-0.291
-197.290	-87.765	0.435	0.168
-196.275	-200.000	-0.034	-0.213
-195.260	0.394	-0.027	-0.024
-194.246	-83.787	0.078	0.032
-193.231	350.958	0.213	0.546
-192.217	-200.000	-0.004	0.075
-191.202	39.792	0.090	-0.104
-190.187	800.000	-0.069	0.266
-189.173	800.000	-0.098	0.552
-188.158	16.970	0.243	-0.249
-187.144	800.000	-0.114	0.541
-186.129	-200.000	0.011	0.223
-185.114	800.000	-0.032	-0.117
-184.100	23.725	-0.040	-0.042
-183.085	126.644	0.178	-0.292
-182.071	222.058	0.228	0.475
-181.056	750.385	0.077	0.271
-180.042	-123.606	0.490	0.099
-179.027	-82.648	-0.155	0.064
-178.012	-29.991	0.250	0.183
-176.998	657.725	0.114	-0.379
-175.983	-200.000	-0.023	0.229
-174.969	8.555	0.298	0.289
-173.954	-54.390	-0.118	0.069
-172.939	-90.427	0.394	0.146
-171.925	-23.949	0.269	-0.207
-170.910	-132.802	-0.340	-0.055
-169.896	-73.723	0.135	-0.063
-168.881	-77.585	0.251	-0.112
-167.866	5.679	-0.290	-0.276
-166.852	358.490	-0.113	0.292
-165.837	-200.000	-0.063	0.650
-164.823	34.786	-0.418	0.472
-163.808	-35.032	0.260	0.182
-162.793	800.000	0.015	-0.056
-161.779	-106.408	-0.534	-0.153
-160.764	-200.000	0.033	-0.189
-159.750	-65.454	0.281	-0.145
-158.735	-119.456	-0.130	-0.029
-157.720	-200.000	-0.005	0.143
-156.706	333.188	0.051	-0.127
-155.691	800.000	0.076	-0.309
-154.677	46.018	0.060	0.072
-153.662	349.529	-0.189	-0.484
-152.647	-120.657	-0.098	0.021
-151.633	355.002	0.164	0.423
-150.618	36.302	0.291	0.330
-149.604	-21.363	0.095	0.075
-148.589	317.673	-0.177	0.433
-147.574	-144.121	0.356	0.042
-146.560	-66.879	0.361	0.183
-145.545	-200.000	0.015	-0.242
-144.531	414.500	-0.071	-0.196
-143.516	64.449	0.266	-0.345
-142.502	33.094	-0.209	0.233
-141.487	-71.307	0.262	-0.126
-140.472	-86.083	-0.246	0.097
-139.458	-161.132	-0.127	0.008
-138.443	-143.633	-0.487	-0.059
-137.429	306.755	-0.101	0.244
-136.414	13.225	-0.169	0.169
-135.399	800.000	0.078	-0.425
-134.385	5.739	0.146	0.139
-133.370	-18.884	0.143	-0.115
-132.356	800.000	-0.055	0.292
-131.341	-32.364	-0.208	-0.149
-130.326	800.000	-0.067	-0.274
-129.312	-200.000	0.040	0.525
-128.297	-127.166	0.470	0.088
-127.283	-23.167	0.247	0.191
-126.268	35.691	-0.078	-0.088
-125.253	-0.433	-0.239	-0.219
-124.239	313.635	0.060	-0.145
-123.224	-200.000	-0.055	0.336
-122.210	231.499	0.213	0.450
