DTS Sentinel unit serial number:	SN409020Multiplexer serial number:	ORYXHardware model number:	OX4-SRSoftware version number:	ORYX F/W v3.00 Oryx Data Collector v3.7.2.0data status	okinstallation	HaddamTimeLapsedifferential loss correction	single-endedforward channel	channel 3reverse channel	N/Adate	2011/06/22time	03:21:17forward acquisition time	30.00reverse acquisition time	0.00gamma	498.7831k internal	0.1751k external	0.1751temperature offset calibration	1.0074default loss term (dB/km)	0.3790temperature slope calibration	1.3530multiplexer offset coefficient	1.0000multiplexer slope coefficient	1.0000fibre end	0.00T internal ref (°C)	22.31T ext. ref 1 (°C)	17.78T ext. ref 2 (°C)	0.06length (m)	temperature (°C)	Stokes	anti-Stokes-747.200	800.000	-0.074	0.414
-746.185	110.455	-0.506	0.809
-745.171	123.798	-0.231	0.386
-744.156	42.498	-0.412	0.499
-743.142	-45.477	0.211	0.139
-742.127	107.217	-0.225	0.355
-741.112	800.000	-0.030	-0.171
-740.098	5.597	0.122	0.119
-739.083	-34.184	-0.575	-0.419
-738.069	504.788	-0.026	0.081
-737.054	86.022	-0.117	0.172
-736.039	800.000	0.116	0.652
-735.025	11.826	0.154	-0.157
-734.010	91.274	-0.189	0.283
-732.996	-19.418	0.197	0.162
-731.981	-51.497	0.374	-0.231
-730.966	-102.046	0.376	0.119
-729.952	-9.847	0.238	-0.210
-728.937	-200.000	-0.007	0.320
-727.923	-200.000	-0.109	0.661
-726.908	800.000	-0.121	0.488
-725.894	286.599	-0.039	-0.094
-724.879	288.494	-0.123	-0.298
-723.864	-200.000	0.054	0.585
-722.850	104.745	-0.078	-0.122
-721.835	-119.829	-0.461	-0.105
-720.821	-111.688	-0.409	-0.109
-719.806	-6.310	-0.195	-0.177
-718.791	-30.442	0.449	0.337
-717.777	-29.180	0.082	0.062
-716.762	-80.657	-0.521	0.229
-715.748	-78.052	-0.318	0.145
-714.733	240.873	-0.187	0.415
-713.718	800.000	0.056	0.304
-712.704	-13.095	0.032	-0.027
-711.689	-122.517	-0.471	-0.101
-710.675	137.915	-0.078	-0.136
-709.660	133.165	0.188	-0.323
-708.645	5.876	-0.224	0.219
-707.631	-99.887	-0.697	-0.230
-706.616	42.812	-0.101	0.122
-705.602	631.011	0.112	-0.378
-704.587	717.698	-0.083	0.293
-703.572	800.000	-0.146	0.640
-702.558	-94.308	-0.272	0.098
-701.543	43.503	-0.204	0.247
-700.529	500.841	-0.119	-0.366
-699.514	-167.848	-0.278	-0.014
-698.499	395.964	0.118	0.328
-697.485	-4.594	-0.064	0.059
-696.470	-200.000	-0.020	-0.301
-695.456	-200.000	0.005	-0.139
-694.441	-54.877	-0.310	-0.185
-693.426	-103.507	0.493	0.153
-692.412	-7.358	0.433	0.388
-691.397	-14.012	-0.192	-0.164
-690.383	-119.326	0.733	0.168
-689.368	-29.168	-0.252	0.191
-688.354	-42.233	0.326	-0.220
-687.339	-161.222	0.450	-0.031
-686.324	800.000	-0.031	0.149
-685.310	0.915	-0.116	-0.110
-684.295	-131.574	0.186	-0.032
-683.281	53.050	0.343	-0.435
-682.266	109.918	0.270	-0.429
-681.251	-7.940	0.349	-0.312
-680.237	283.612	0.091	0.217
-679.222	-51.465	0.239	0.148
-678.208	-9.281	-0.366	0.323
-677.193	-108.856	0.358	-0.101
-676.178	-121.714	-0.262	0.057
-675.164	506.188	0.113	0.348
-674.149	-68.359	0.158	0.081
-673.135	85.144	-0.144	-0.210
-672.120	-59.349	0.415	-0.236
-671.105	-9.416	0.205	0.181
-670.091	-173.515	-0.326	-0.013
-669.076	-24.079	-0.295	0.233
-668.062	-124.277	-0.464	-0.095
-667.047	-77.150	0.303	0.139
-666.032	-171.813	0.567	-0.024
-665.018	-42.145	-0.180	-0.121
-664.003	800.000	-0.140	-0.531
-662.989	-140.947	0.059	0.008
-661.974	130.825	-0.071	-0.121
-660.959	306.255	-0.033	0.083
-659.945	352.114	0.086	0.227
-658.930	-16.411	-0.049	0.041
-657.916	-36.921	0.296	0.210
-656.901	-95.992	-0.277	0.097
-655.886	-200.000	0.024	-0.274
-654.872	120.766	0.095	-0.157
-653.857	-200.000	0.033	0.262
-652.843	-99.076	-0.202	-0.067
-651.828	151.053	-0.104	0.188
-650.814	-105.980	-0.085	0.025
-649.799	-145.296	0.379	0.045
-648.784	-68.585	0.276	0.141
-647.770	-45.217	-0.486	0.319
-646.755	800.000	-0.040	-0.213
-645.741	-180.459	0.194	-0.005
-644.726	-58.501	0.266	0.153
-643.711	-200.000	0.445	-0.001
-642.697	-31.572	0.028	0.020
-641.682	-7.682	0.154	-0.137
-640.668	85.965	0.279	-0.406
-639.653	-95.971	0.051	-0.018
-638.638	-141.429	0.208	0.028
-637.624	-18.594	0.156	-0.129
-636.609	-39.786	-0.319	-0.220
-635.595	-114.679	0.016	-0.004
-634.580	0.237	0.472	0.445
-633.565	144.208	-0.273	-0.483
-632.551	800.000	-0.077	0.300
-631.536	86.567	-0.198	-0.289
-630.522	124.536	-0.183	-0.305
-629.507	259.192	-0.317	0.726
-628.492	23.128	0.148	0.160
-627.478	-25.554	0.283	0.220
-626.463	485.690	0.102	0.309
-625.449	56.832	-0.176	0.227
-624.434	-101.455	0.323	0.103
-623.419	800.000	-0.148	0.597
-622.405	-102.171	-0.365	0.115
-621.390	67.063	-0.380	0.513
-620.376	-61.790	-0.145	-0.080
-619.361	12.503	0.042	0.043
-618.346	363.659	0.058	0.156
-617.332	-147.086	-0.115	0.013
-616.317	-56.980	0.510	0.296
-615.303	239.285	0.169	-0.372
-614.288	223.714	0.070	-0.150
-613.273	-139.156	0.434	0.061
-612.259	-85.824	0.374	0.152
-611.244	-200.000	-0.050	-0.331
-610.230	800.000	0.031	0.127
-609.215	17.571	-0.167	-0.175
-608.201	218.868	0.101	-0.213
-607.186	159.638	-0.048	-0.089
-606.171	609.015	-0.019	-0.062
-605.157	-115.743	-0.242	-0.059
-604.142	-13.373	-0.195	-0.167
-603.128	-43.861	-0.348	-0.231
-602.113	-200.000	-0.040	-0.333
-601.098	800.000	-0.080	-0.321
-600.084	-68.465	0.244	-0.124
-599.069	442.176	-0.141	-0.409
-598.055	-82.358	-0.347	-0.149
-597.040	113.009	0.393	-0.631
-596.025	40.696	-0.290	-0.346
-595.011	-24.001	0.171	-0.135
-593.996	-200.000	-0.049	-0.342
-592.982	-95.377	0.332	0.117
-591.967	62.481	0.187	-0.247
-590.952	292.546	-0.129	0.312
-589.938	232.953	-0.201	0.437
-588.923	800.000	0.134	0.619
-587.909	-200.000	0.016	-0.194
-586.894	386.148	-0.169	0.464
-585.879	-186.525	-0.279	0.005
-584.865	258.718	0.308	-0.703
-583.850	-200.000	-0.014	0.221
-582.836	-130.016	-0.555	0.099
-581.821	439.456	-0.119	-0.344
-580.806	-27.802	-0.114	-0.087
-579.792	-200.000	-0.008	-0.154
-578.777	-66.204	-0.504	0.264
-577.763	-20.880	-0.115	0.093
-576.748	531.214	-0.088	0.275
-575.733	106.084	-0.360	0.563
-574.719	-200.000	0.003	-0.186
-573.704	-200.000	-0.041	-0.458
-572.690	-85.990	0.327	-0.133
-571.675	-46.333	0.529	0.342
-570.661	-112.283	0.203	0.053
-569.646	-42.393	-0.380	0.255
-568.631	75.053	0.195	-0.272
-567.617	90.676	0.196	-0.290
-566.602	-200.000	0.071	-0.448
-565.588	17.504	-0.060	0.063
-564.573	500.850	-0.116	-0.354
-563.558	-2.082	-0.368	-0.341
-562.544	139.302	0.072	0.126
-561.529	-107.988	-0.245	0.070
-560.515	-66.369	-0.454	-0.237
-559.500	170.359	0.079	-0.149
-558.485	158.441	-0.216	-0.396
-557.471	-109.457	0.131	-0.036
-556.456	126.453	0.011	0.018
-555.442	42.223	0.113	-0.136
-554.427	-200.000	0.002	-0.100
-553.412	-184.435	-0.280	-0.006
-552.398	-178.831	0.306	-0.009
-551.383	42.981	-0.086	0.103
-550.369	-81.663	0.335	-0.144
-549.354	-200.000	0.010	0.500
-548.339	-200.000	-0.044	0.409
-547.325	-33.450	0.163	-0.119
-546.310	-200.000	0.044	-0.298
-545.296	-47.438	0.331	0.211
-544.281	309.748	-0.102	-0.253
-543.266	6.294	0.068	0.066
-542.252	-87.423	0.224	0.089
-541.237	-7.767	-0.108	-0.096
-540.223	78.814	0.344	-0.486
-539.208	-138.352	-0.422	0.061
-538.193	-105.314	-0.388	0.116
-537.179	-116.519	-0.124	0.030
-536.164	10.373	0.237	0.238
-535.150	-138.911	0.468	-0.066
-534.135	-39.146	-0.193	-0.134
-533.121	96.909	-0.172	-0.260
-532.106	-90.226	0.108	-0.041
-531.091	-69.817	0.358	-0.179
-530.077	-190.512	0.287	0.004
-529.062	64.496	0.206	0.274
-528.048	-200.000	0.039	0.298
-527.033	-135.776	-0.215	0.033
-526.018	43.936	0.142	-0.172
-525.004	-76.777	0.308	0.142
-523.989	-102.584	0.730	0.228
-522.975	-71.901	0.531	-0.259
-521.960	86.578	-0.300	-0.436
-520.945	-69.056	0.185	0.093
-519.931	224.594	0.183	0.390
-518.916	-200.000	0.021	0.362
-517.902	69.503	0.254	0.345
-516.887	-56.869	-0.076	0.044
-515.872	800.000	0.077	0.410
-514.858	107.041	-0.091	-0.142
-513.843	-60.978	-0.187	-0.104
-512.829	-2.580	-0.134	0.123
-511.814	-200.000	0.052	0.312
-510.799	-200.000	-0.064	0.512
-509.785	-200.000	-0.040	-0.237
-508.770	-65.705	0.172	0.090
-507.756	29.584	-0.201	0.226
-506.741	-42.430	-0.232	0.156
-505.726	-124.005	0.013	-0.003
-504.712	101.704	0.242	0.372
-503.697	-24.931	0.195	0.152
-502.683	233.935	-0.020	0.043
-501.668	-81.448	0.406	-0.175
-500.653	-34.966	0.339	0.243
-499.639	-200.000	-0.040	0.234
-498.624	-75.973	-0.092	-0.043
-497.610	-200.000	0.028	0.194
-496.595	-102.231	-0.344	0.108
-495.581	-98.778	-0.085	0.028
-494.566	-179.020	-0.492	-0.014
-493.551	69.059	-0.096	-0.130
-492.537	592.203	0.035	-0.114
-491.522	33.118	-0.166	0.189
-490.508	-90.616	-0.388	0.147
-489.493	-200.000	-0.047	-0.276
-488.478	-121.724	0.185	-0.040
-487.464	-112.523	0.117	0.031
-486.449	621.336	-0.035	-0.115
-485.435	-47.888	-0.083	-0.053
-484.420	-87.006	-0.206	-0.082
-483.405	800.000	-0.044	0.213
-482.391	-138.514	-0.447	0.064
-481.376	-47.901	-0.203	-0.129
-480.362	-106.784	0.422	-0.122
-479.347	334.232	0.289	-0.739
-478.332	800.000	0.074	0.306
-477.318	-148.883	-0.542	0.057
-476.303	-132.747	0.848	-0.141
-475.289	-58.013	0.028	-0.016
-474.274	-130.695	-0.298	0.052
-473.259	-193.468	-0.642	0.007
-472.245	153.297	-0.016	-0.029
-471.230	-24.455	-0.176	-0.137
-470.216	-57.252	-0.217	-0.125
-469.201	-150.809	0.556	-0.055
-468.186	29.765	0.075	-0.084
-467.172	-200.000	0.016	0.224
-466.157	97.820	-0.212	-0.321
-465.143	564.821	-0.111	-0.356
-464.128	607.749	-0.067	0.222
-463.113	800.000	0.090	0.357
-462.099	115.002	-0.032	-0.052
-461.084	-104.071	-0.285	-0.087
-460.070	-39.224	-0.043	-0.030
-459.055	-200.000	0.049	0.342
-458.040	-93.795	-0.799	-0.287
-457.026	-64.982	-0.079	-0.042
-456.011	-80.730	0.347	-0.151
-454.997	-200.000	0.004	0.389
-453.982	-136.811	0.257	-0.039
-452.968	-47.352	-0.132	0.084
-451.953	-125.663	-0.575	-0.113
-450.938	-161.779	-0.352	-0.023
-449.924	4.115	0.072	0.069
-448.909	800.000	-0.045	-0.181
-447.895	-200.000	0.025	0.223
-446.880	95.211	-0.178	0.267
-445.865	-147.091	-0.239	-0.026
-444.851	-2.700	0.130	0.119
-443.836	9.460	-0.070	-0.070
-442.822	-200.000	-0.047	-0.279
-441.807	77.761	-0.236	0.331
-440.792	-200.000	0.006	0.441
-439.778	-157.659	0.364	-0.028
-438.763	800.000	-0.040	-0.198
-437.749	208.014	0.114	-0.235
-436.734	-55.787	0.180	0.105
-435.719	-26.003	-0.346	0.267
-434.705	800.000	0.064	-0.285
-433.690	46.829	0.327	0.399
-432.676	-56.997	-0.076	0.044
-431.661	671.707	0.064	-0.220
-430.646	-76.403	-0.060	-0.027
-429.632	-83.437	0.203	0.085
-428.617	-9.236	-0.398	-0.348
-427.603	-108.846	0.110	0.031
-426.588	-85.986	-0.074	0.030
-425.573	288.819	0.129	-0.308
-424.559	-92.435	0.215	0.079
-423.544	-200.000	-0.079	-0.471
-422.530	162.049	0.181	0.333
-421.515	-53.228	0.315	0.189
-420.500	-98.850	-0.467	0.155
-419.486	-37.936	-0.211	0.146
-418.471	-200.000	-0.004	0.097
-417.457	-200.000	-0.075	0.695
-416.442	82.467	0.161	0.230
-415.428	-124.098	0.340	-0.069
-414.413	-86.369	-0.457	0.183
-413.398	120.753	0.078	-0.128
-412.384	-139.897	0.555	-0.076
-411.369	350.389	0.041	0.107
-410.355	63.745	0.228	0.301
-409.340	-143.885	-0.314	0.038
-408.325	349.437	0.202	-0.526
-407.311	40.941	0.230	0.272
-406.296	-43.678	0.152	-0.100
-405.282	-200.000	-0.080	-0.466
-404.267	-144.757	0.281	0.033
-403.252	11.320	0.280	0.281
-402.238	-4.734	0.132	-0.120
-401.223	-57.015	-0.040	0.023
-400.209	-200.000	-0.004	-0.149
-399.194	-11.266	-0.200	0.173
-398.179	-111.306	0.488	-0.130
-397.165	159.103	0.216	0.394
-396.150	363.184	-0.138	0.364
-395.136	-8.337	0.609	0.536
-394.121	59.474	-0.106	0.136
-393.106	-50.206	0.419	0.259
-392.092	-200.000	-0.008	0.357
-391.077	396.833	-0.061	-0.169
-390.063	-60.975	0.251	-0.139
-389.048	78.389	-0.025	-0.035
-388.033	-200.000	-0.081	0.531
-387.019	81.852	-0.268	0.381
-386.004	73.103	0.263	0.360
-384.990	166.584	0.059	0.111
-383.975	44.131	0.192	0.230
-382.960	-9.711	-0.265	0.231
-381.946	-85.894	-0.221	-0.089
-380.931	53.574	-0.305	0.384
-379.917	149.688	-0.163	0.291
-378.902	-42.404	0.053	0.036
-377.888	-88.158	-0.668	-0.261
-376.873	364.091	0.056	-0.148
-375.858	-138.600	0.250	0.035
-374.844	-112.092	-0.251	0.066
-373.829	-34.477	-0.557	-0.399
-372.815	-112.823	0.398	-0.103
-371.800	33.925	0.095	0.108
-370.785	800.000	-0.076	-0.416
-369.771	-5.231	0.235	-0.211
-368.756	-56.630	-0.008	0.005
-367.742	130.796	-0.150	-0.252
-366.727	800.000	-0.024	0.133
-365.712	120.078	-0.064	-0.105
-364.698	800.000	-0.136	-0.497
-363.683	800.000	0.031	0.138
-362.669	-90.349	0.285	-0.108
-361.654	-135.331	0.453	0.070
-360.639	-99.068	-0.363	-0.120
-359.625	-200.000	-0.025	-0.546
-358.610	23.870	0.352	-0.380
-357.596	276.289	0.058	-0.135
-356.581	56.357	0.074	-0.094
-355.566	-75.322	-0.406	-0.189
-354.552	619.020	0.068	0.226
-353.537	475.719	0.041	-0.122
-352.523	-200.000	0.063	0.373
-351.508	37.089	0.134	0.155
-350.493	237.905	0.120	0.262
-349.479	44.277	-0.095	0.115
-348.464	-131.498	-0.401	-0.068
-347.450	-66.144	-0.296	0.154
-346.435	-124.510	0.328	0.066
-345.420	-121.126	0.231	0.050
-344.406	800.000	-0.019	0.099
-343.391	-165.979	-0.252	0.014
-342.377	-43.308	-0.230	0.152
-341.362	-1.852	-0.073	-0.067
-340.348	-101.922	0.324	0.102
-339.333	800.000	0.066	0.291
-338.318	-125.364	0.096	-0.019
-337.304	51.967	0.275	-0.342
-336.289	-177.590	-0.157	-0.005
-335.275	189.104	0.175	-0.343
-334.260	-25.947	-0.061	0.047
-333.245	195.179	-0.092	-0.184
-332.231	-66.630	-0.147	-0.076
-331.216	-200.000	0.025	-0.210
-330.202	18.823	-0.333	-0.348
-329.187	-97.385	-0.314	0.106
-328.172	-165.418	0.223	0.013
-327.158	-48.363	-0.471	0.296
-326.143	-74.662	-0.124	-0.058
-325.129	34.225	0.162	-0.184
-324.114	24.345	-0.512	-0.553
-323.099	-99.313	-0.797	-0.261
-322.085	800.000	0.081	-0.413
-321.070	166.520	0.258	-0.480
-320.056	-135.012	-0.302	0.047
-319.041	-91.632	-0.190	-0.070
-318.026	1.709	-0.327	-0.307
-317.012	-100.524	0.230	-0.074
-315.997	369.746	0.132	-0.351
-314.983	42.119	0.148	0.176
-313.968	-129.466	0.406	-0.073
-312.953	-93.024	-0.215	-0.078
-311.939	37.577	-0.404	0.469
-310.924	86.456	0.133	0.192
-309.910	-200.000	-0.055	0.376
-308.895	-117.640	0.204	-0.048
-307.880	86.489	0.094	0.135
-306.866	349.878	0.160	-0.415
-305.851	73.700	-0.285	-0.390
-304.837	117.750	-0.119	-0.192
-303.822	-96.314	-0.193	-0.066
-302.807	477.527	0.085	0.252
-301.793	16.514	0.141	0.145
-300.778	-2.446	-0.204	0.186
-299.764	-200.000	-0.528	-0.003
-298.749	-200.000	-0.012	-0.116
-297.735	800.000	-0.091	-0.341
-296.720	-200.000	0.018	0.180
-295.705	41.360	-0.219	0.259
-294.691	-68.125	0.156	0.079
-293.676	-200.000	0.030	0.489
-292.662	58.926	-0.308	0.396
-291.647	-116.031	0.330	0.080
-290.632	-55.552	-0.417	-0.243
-289.618	259.831	-0.098	0.222
-288.603	-40.444	0.298	0.201
-287.589	800.000	0.040	-0.211
-286.574	-200.000	0.040	0.359
-285.559	-200.000	0.003	0.364
-284.545	32.611	-0.200	0.225
-283.530	63.058	0.309	-0.404
-282.516	36.065	0.286	-0.329
-281.501	-120.023	0.328	-0.073
-280.486	79.288	-0.075	-0.105
-279.472	-13.639	-0.214	-0.180
-278.457	-127.463	0.321	0.060
-277.443	181.000	0.091	-0.176
-276.428	109.029	-0.114	0.179
-275.413	-200.000	-0.001	0.109
-274.399	38.289	-0.219	0.255
-273.384	-125.982	-0.254	-0.049
-272.370	-73.165	-0.131	-0.062
-271.355	137.808	0.174	-0.298
-270.340	-42.726	0.357	0.236
-269.326	-96.317	-0.477	-0.164
-268.311	133.948	-0.056	0.095
-267.297	551.315	0.071	-0.224
-266.282	-168.719	0.192	-0.009
-265.267	-82.823	0.341	-0.143
-264.253	116.780	-0.153	-0.246
-263.238	43.102	0.019	-0.023
-262.224	-5.428	0.065	0.059
-261.209	-155.367	0.867	0.072
-260.195	-155.796	0.488	0.040
-259.180	253.382	-0.037	0.082
-258.165	-17.385	0.266	0.218
-257.151	-103.833	0.321	0.097
-256.136	-200.000	-0.016	-0.218
-255.122	-90.571	0.093	-0.035
-254.107	-155.220	0.266	0.022
-253.092	-64.170	-0.282	-0.149
-252.078	-76.992	0.383	-0.174
-251.063	-134.734	-0.337	-0.053
-250.049	-17.107	-0.061	0.050
-249.034	-200.000	0.036	0.483
-248.019	-79.214	-0.199	-0.088
-247.005	34.517	0.092	-0.105
-245.990	-79.493	0.297	0.130
-244.976	214.166	0.166	0.343
-243.961	119.294	-0.283	0.457
-242.946	170.734	0.159	0.297
-241.932	736.825	-0.098	0.343
-240.917	265.991	0.174	-0.396
-239.903	-100.376	0.077	0.025
-238.888	-19.606	-0.162	-0.130
-237.873	-200.000	0.037	-0.214
-236.859	65.679	0.224	-0.296
-235.844	172.518	0.065	0.122
-234.830	-131.238	-0.347	-0.059
-233.815	1.984	-0.116	-0.109
-232.800	55.014	0.172	-0.217
-231.786	-22.301	0.079	-0.062
-230.771	-18.936	-0.438	0.354
-229.757	-99.653	-0.194	-0.063
-228.742	-159.498	0.383	0.027
-227.727	774.649	0.027	0.096
-226.713	800.000	-0.120	0.478
-225.698	-128.152	0.361	0.067
-224.684	116.184	0.041	-0.065
-223.669	-138.549	-0.357	0.050
-222.655	682.192	-0.054	0.186
-221.640	11.886	0.468	-0.468
-220.625	13.189	-0.057	0.057
-219.611	-87.828	-0.332	-0.130
-218.596	-135.401	-0.413	-0.064
-217.582	-107.509	0.100	-0.028
-216.567	165.287	0.127	0.235
-215.552	-66.948	0.504	0.258
-214.538	473.318	0.182	0.535
-213.523	17.957	-0.201	0.208
-212.509	-55.823	0.416	0.241
-211.494	-200.000	-0.005	0.246
-210.479	-70.942	-0.213	0.104
-209.465	760.231	-0.087	0.307
-208.450	-37.211	0.135	0.094
-207.436	-98.779	0.445	-0.147
-206.421	156.355	-0.283	-0.509
-205.406	800.000	-0.061	-0.282
-204.392	-24.977	-0.241	-0.186
-203.377	-151.833	-0.209	0.020
-202.363	-3.967	-0.148	-0.133
-201.348	-200.000	-0.027	-0.420
-200.333	91.508	0.213	-0.312
-199.319	-200.000	0.053	0.444
-198.304	-12.983	-0.211	-0.179
-197.290	800.000	-0.100	0.368
-196.275	5.869	-0.473	-0.455
-195.260	-113.690	-0.436	0.110
-194.246	800.000	-0.087	-0.411
-193.231	-200.000	0.033	-0.318
-192.217	-200.000	0.027	-0.355
-191.202	-200.000	-0.015	-0.380
-190.187	-68.755	-0.241	0.120
-189.173	800.000	0.039	0.142
-188.158	-147.283	0.169	-0.018
-187.144	42.045	0.241	-0.285
-186.129	-200.000	-0.033	-0.456
-185.114	70.319	0.140	0.188
-184.100	21.150	0.246	0.259
-183.085	-89.337	-0.467	-0.178
-182.071	162.322	0.187	0.342
-181.056	185.309	-0.015	0.030
-180.042	-109.200	-0.171	0.047
-179.027	-2.769	-0.256	0.232
-178.012	397.879	-0.048	-0.130
-176.998	156.892	-0.223	-0.402
-175.983	43.383	-0.190	-0.226
-174.969	800.000	0.086	0.453
-173.954	-125.800	0.182	0.035
-172.939	427.179	0.148	0.417
-171.925	-84.832	-0.234	0.095
-170.910	107.062	0.207	-0.320
-169.896	148.221	0.037	0.065
-168.881	-151.565	-0.459	-0.044
-167.866	800.000	-0.068	-0.314
-166.852	-200.000	-0.002	-0.454
-165.837	17.358	-0.171	-0.176
-164.823	-141.614	-0.338	0.044
-163.808	-160.128	0.279	-0.019
-162.793	-122.464	0.272	-0.057
-161.779	-71.963	0.585	-0.281
-160.764	11.089	0.133	0.132
-159.750	-100.409	0.128	0.041
-158.735	151.174	0.261	-0.463
-157.720	146.836	-0.278	-0.487
-156.706	-17.086	0.080	-0.066
-155.691	34.579	0.153	0.173
-154.677	-123.341	-0.203	-0.042
-153.662	-193.717	-0.111	0.001
-152.647	800.000	-0.067	0.358
-151.633	85.407	-0.100	0.143
-150.618	169.504	-0.209	-0.388
-149.604	-150.980	-0.445	0.043
-148.589	-28.402	-0.108	0.081
-147.574	-101.067	-0.415	-0.131
-146.560	-125.872	-0.439	0.085
-145.545	349.353	-0.127	0.326
-144.531	-4.284	0.293	0.263
-143.516	800.000	0.049	-0.234
-142.502	-129.394	0.231	-0.041
-141.487	586.897	-0.102	-0.326
-140.472	-110.226	0.267	0.072
-139.458	-64.462	-0.327	0.172
-138.443	-130.430	-0.281	-0.049
-137.429	78.726	-0.124	0.172
-136.414	-200.000	-0.055	-0.491
-135.399	160.608	-0.242	0.439
-134.385	-145.388	-0.162	-0.019
-133.370	-97.117	-0.146	0.049
-132.356	108.597	0.205	0.318
-131.341	398.395	-0.098	0.266
-130.326	-22.273	-0.299	0.235
-129.312	68.740	-0.357	0.476
-128.297	40.850	0.316	0.369
-127.283	-98.057	0.354	0.117
-126.268	433.671	-0.090	-0.256
-125.253	44.191	-0.375	0.446
-124.239	89.137	-0.306	0.443
-123.224	800.000	-0.061	0.239
-122.210	-75.110	0.299	-0.138
-121.195	324.745	0.218	-0.543
