DTS Sentinel unit serial number:	SN409020Multiplexer serial number:	ORYXHardware model number:	OX4-SRSoftware version number:	ORYX F/W v3.00 Oryx Data Collector v3.7.2.0data status	okinstallation	HaddamTimeLapsedifferential loss correction	single-endedforward channel	channel 3reverse channel	N/Adate	2011/06/22time	04:06:17forward acquisition time	30.00reverse acquisition time	0.00gamma	498.7831k internal	0.1752k external	0.1752temperature offset calibration	1.0074default loss term (dB/km)	0.3790temperature slope calibration	1.3530multiplexer offset coefficient	1.0000multiplexer slope coefficient	1.0000fibre end	0.00T internal ref (°C)	22.53T ext. ref 1 (°C)	18.23T ext. ref 2 (°C)	0.10length (m)	temperature (°C)	Stokes	anti-Stokes-747.200	-71.317	-0.497	-0.246
-746.185	-49.967	0.149	-0.093
-745.171	-200.000	0.013	0.249
-744.156	-145.191	-0.507	0.060
-743.142	47.316	-0.248	-0.307
-742.127	-200.000	0.012	0.631
-741.112	-11.502	0.138	0.120
-740.098	221.329	0.187	0.401
-739.083	800.000	-0.064	-0.245
-738.069	25.325	-0.032	-0.035
-737.054	-200.000	-0.022	-0.360
-736.039	-106.104	-0.357	0.106
-735.025	-200.000	-0.002	0.114
-734.010	-129.498	-0.242	0.044
-732.996	800.000	-0.069	-0.298
-731.981	-85.710	-0.141	0.058
-730.966	-141.041	0.417	-0.056
-729.952	-18.061	0.058	-0.048
-728.937	170.903	-0.148	-0.282
-727.923	-113.342	0.196	0.051
-726.908	-200.000	-0.041	-0.347
-725.894	800.000	-0.149	0.634
-724.879	-186.631	-0.650	0.012
-723.864	-119.592	0.321	-0.073
-722.850	-62.255	0.008	-0.005
-721.835	800.000	0.039	0.196
-720.821	-93.430	-0.164	-0.060
-719.806	-7.135	0.125	0.113
-718.791	-114.471	0.269	-0.068
-717.777	714.894	-0.053	-0.187
-716.762	-21.986	0.150	-0.121
-715.748	-85.915	-0.138	0.056
-714.733	84.174	0.183	0.266
-713.718	-62.179	0.369	0.203
-712.704	-37.353	0.144	0.102
-711.689	20.770	-0.073	-0.078
-710.675	-109.872	-0.145	-0.040
-709.660	-10.439	-0.205	0.180
-708.645	-74.103	0.414	0.198
-707.631	212.284	-0.187	0.393
-706.616	2.552	-0.171	0.164
-705.602	92.156	-0.059	-0.089
-704.587	12.786	-0.429	-0.439
-703.572	-79.982	0.276	-0.122
-702.558	153.287	-0.092	-0.167
-701.543	-4.650	-0.131	-0.120
-700.529	-200.000	-0.026	0.193
-699.514	16.866	-0.215	0.225
-698.499	157.579	-0.140	0.257
-697.485	379.151	0.096	-0.261
-696.470	146.118	0.317	0.564
-695.456	-200.000	0.002	-0.171
-694.441	800.000	0.101	0.408
-693.426	-123.546	-0.248	-0.052
-692.412	-200.000	0.020	-0.216
-691.397	-58.224	-0.484	0.279
-690.383	-82.949	-0.256	0.109
-689.368	-181.124	0.314	-0.008
-688.354	-44.035	0.094	0.063
-687.339	632.271	-0.036	-0.121
-686.324	-3.129	-0.055	-0.051
-685.310	448.344	-0.089	-0.261
-684.295	101.410	-0.184	0.285
-683.281	212.352	-0.235	-0.492
-682.266	-140.317	-0.683	-0.094
-681.251	-124.287	0.150	0.031
-680.237	-127.717	0.505	-0.096
-679.222	-46.539	-0.453	-0.294
-678.208	-158.776	0.202	0.015
-677.193	-117.617	0.472	0.112
-676.178	-120.051	0.688	0.155
-675.164	233.257	-0.130	-0.284
-674.149	50.477	0.075	0.094
-673.135	121.498	-0.292	0.482
-672.120	800.000	-0.047	-0.254
-671.105	-116.524	0.253	0.061
-670.091	85.468	0.197	0.288
-669.076	-34.015	0.278	-0.202
-668.062	-73.171	-0.235	-0.114
-667.047	-83.179	0.145	-0.061
-666.032	-200.000	0.050	0.492
-665.018	-40.702	0.314	0.215
-664.003	-200.000	-0.010	-0.326
-662.989	-5.529	0.036	-0.032
-661.974	24.654	0.041	0.045
-660.959	800.000	-0.027	-0.120
-659.945	23.863	-0.198	-0.216
-658.930	-47.129	-0.289	-0.186
-657.916	-68.696	0.521	-0.266
-656.901	-32.131	0.193	0.143
-655.886	800.000	0.117	-0.545
-654.872	800.000	0.050	-0.235
-653.857	79.286	-0.161	-0.228
-652.843	-122.905	-0.097	0.021
-651.828	-123.289	0.032	-0.007
-650.814	1.613	0.061	0.058
-649.799	-99.984	0.167	0.055
-648.784	-98.215	0.727	-0.246
-647.770	-104.702	-0.291	-0.088
-646.755	800.000	-0.108	-0.502
-645.741	258.853	0.061	-0.139
-644.726	-91.915	0.327	-0.122
-643.711	-37.411	-0.150	0.106
-642.697	-23.188	0.148	-0.117
-641.682	162.456	0.112	-0.208
-640.668	25.468	-0.092	0.102
-639.653	-200.000	-0.020	-0.160
-638.638	133.729	0.459	-0.787
-637.624	-52.170	0.210	-0.129
-636.609	-87.192	0.215	0.086
-635.595	-21.610	0.297	0.239
-634.580	-200.000	0.024	-0.381
-633.565	-87.790	0.235	0.093
-632.551	546.656	0.042	-0.134
-631.536	-162.657	-0.472	-0.030
-630.522	-37.399	-0.099	0.070
-629.507	-200.000	-0.074	-0.455
-628.492	-200.000	-0.007	0.147
-627.478	800.000	0.135	0.600
-626.463	82.330	-0.024	-0.035
-625.449	64.483	0.159	0.211
-624.434	-99.755	0.106	-0.035
-623.419	-144.630	-0.226	0.027
-622.405	262.316	0.162	-0.373
-621.390	-144.575	0.327	-0.039
-620.376	-82.105	-0.354	-0.152
-619.361	-39.469	0.296	-0.205
-618.346	-120.684	-0.518	0.115
-617.332	-200.000	0.022	-0.285
-616.317	-41.519	0.280	-0.190
-615.303	76.122	0.201	-0.282
-614.288	428.750	0.098	-0.280
-613.273	-150.244	-0.181	0.018
-612.259	-131.016	-0.046	0.008
-611.244	355.872	-0.258	-0.681
-610.230	10.732	0.156	-0.157
-609.215	65.974	0.023	-0.030
-608.201	62.281	-0.132	0.174
-607.186	-33.532	0.104	-0.076
-606.171	-200.000	0.003	0.473
-605.157	73.949	-0.153	-0.212
-604.142	-38.136	-0.196	0.137
-603.128	800.000	-0.065	0.292
-602.113	-127.402	-0.273	-0.052
-601.098	-149.904	0.361	0.037
-600.084	-106.808	0.305	0.089
-599.069	-58.912	-0.432	-0.246
-598.055	-78.889	-0.336	-0.151
-597.040	19.267	-0.169	-0.179
-596.025	-200.000	0.001	-0.160
-595.011	170.303	0.186	-0.352
-593.996	-159.916	0.202	-0.014
-592.982	-172.554	0.379	-0.016
-591.967	-136.147	0.255	0.039
-590.952	331.346	-0.129	0.331
-589.938	-165.301	-0.349	-0.020
-588.923	-119.249	-0.300	-0.068
-587.909	-117.861	0.371	0.087
-586.894	80.178	0.493	-0.700
-585.879	-139.315	0.189	-0.027
-584.865	-200.000	0.013	0.279
-583.850	-12.227	-0.062	0.053
-582.836	-61.081	-0.085	-0.047
-581.821	-98.442	-0.250	-0.084
-580.806	-75.280	-0.193	0.090
-579.792	-111.344	0.243	-0.065
-578.777	-200.000	-0.009	0.148
-577.763	800.000	0.092	-0.368
-576.748	277.375	0.239	-0.563
-575.733	772.169	-0.143	-0.519
-574.719	-182.936	-0.124	-0.003
-573.704	-144.320	0.215	-0.026
-572.690	8.499	-0.017	-0.017
-571.675	637.538	-0.074	-0.250
-570.661	-127.783	-0.414	-0.078
-569.646	-64.765	-0.198	-0.105
-568.631	800.000	-0.060	0.233
-567.617	-63.943	0.271	-0.146
-566.602	263.621	-0.135	-0.311
-565.588	-111.895	0.345	-0.091
-564.573	-51.437	0.084	-0.052
-563.558	-200.000	0.006	-0.366
-562.544	105.655	0.168	0.263
-561.529	65.409	-0.160	0.213
-560.515	-24.020	-0.222	-0.175
-559.500	13.646	0.332	0.340
-558.485	731.381	-0.172	0.610
-557.471	-130.176	-0.176	0.031
-556.456	6.404	0.063	-0.062
-555.442	122.139	-0.101	0.166
-554.427	211.921	0.067	-0.140
-553.412	330.401	0.209	0.533
-552.398	-35.977	-0.460	0.327
-551.383	-18.794	-0.493	0.404
-550.369	-42.115	-0.436	0.293
-549.354	-193.436	-0.349	0.004
-548.339	-200.000	-0.076	0.452
-547.325	145.983	-0.171	-0.304
-546.310	-0.916	-0.174	0.162
-545.296	-105.544	-0.591	0.176
-544.281	-78.029	-0.264	-0.119
-543.266	176.223	-0.081	-0.155
-542.252	-130.905	0.411	-0.072
-541.237	-52.442	-0.126	-0.077
-540.223	116.311	-0.108	0.174
-539.208	-200.000	0.037	0.372
-538.193	-143.671	0.330	-0.041
-537.179	77.331	-0.106	0.149
-536.164	-22.276	-0.159	0.127
-535.150	-92.763	0.530	-0.194
-534.135	-150.272	0.665	0.067
-533.121	-200.000	-0.008	-0.175
-532.106	544.717	0.061	-0.193
-531.091	-104.541	0.528	-0.159
-530.077	-71.489	-0.318	-0.156
-529.062	33.324	-0.155	-0.177
-528.048	155.404	-0.042	-0.077
-527.033	211.873	0.075	-0.155
-526.018	3.182	0.299	0.286
-525.004	-200.000	-0.010	-0.106
-523.989	59.390	0.214	-0.278
-522.975	-26.188	-0.297	-0.229
-521.960	22.115	0.084	0.090
-520.945	-168.450	0.387	0.019
-519.931	800.000	0.039	-0.177
-518.916	-79.655	0.207	-0.092
-517.902	-136.845	0.657	-0.098
-516.887	49.087	0.555	-0.687
-515.872	16.901	-0.261	-0.272
-514.858	139.232	-0.125	0.217
-513.843	-139.011	-0.292	0.041
-512.829	-114.354	0.576	0.145
-511.814	603.247	0.075	-0.248
-510.799	-118.875	-0.219	0.050
-509.785	197.600	-0.119	0.239
-508.770	50.301	-0.205	0.255
-507.756	193.028	-0.144	0.288
-506.741	-66.070	-0.089	0.047
-505.726	101.485	0.172	0.263
-504.712	31.605	-0.168	-0.190
-503.697	800.000	-0.044	-0.220
-502.683	12.397	0.183	-0.186
-501.668	-16.615	0.297	-0.247
-500.653	-200.000	0.014	0.146
-499.639	144.572	-0.104	-0.183
-498.624	18.466	-0.414	-0.436
-497.610	132.014	-0.184	0.313
-496.595	47.683	0.044	0.053
-495.581	324.251	0.210	-0.529
-494.566	-86.537	0.062	0.025
-493.551	-98.193	-0.364	0.122
-492.537	-71.433	-0.142	-0.069
-491.522	-66.209	-0.220	0.115
-490.508	98.759	-0.359	0.545
-489.493	-79.169	0.039	0.017
-488.478	-129.451	0.579	-0.104
-487.464	-117.182	0.160	0.038
-486.449	399.134	-0.164	0.455
-485.435	-200.000	0.085	0.641
-484.420	4.988	-0.263	-0.254
-483.405	6.775	-0.110	-0.107
-482.391	608.854	0.101	-0.334
-481.376	58.105	0.339	-0.437
-480.362	-112.378	-0.352	0.092
-479.347	-116.658	-0.438	0.105
-478.332	-75.123	-0.492	0.230
-477.318	78.489	0.020	0.028
-476.303	-13.790	-0.091	0.078
-475.289	-200.000	0.008	0.192
-474.274	800.000	-0.047	0.196
-473.259	800.000	-0.020	-0.107
-472.245	-144.043	-0.336	0.041
-471.230	-114.823	0.323	-0.080
-470.216	800.000	-0.043	-0.177
-469.201	-176.411	-0.248	-0.008
-468.186	16.900	0.239	-0.249
-467.172	45.071	-0.053	0.065
-466.157	-200.000	0.023	0.470
-465.143	-200.000	-0.024	-0.192
-464.128	49.835	0.167	-0.207
-463.113	18.166	0.113	-0.119
-462.099	149.700	-0.086	-0.154
-461.084	76.031	0.144	0.201
-460.070	-115.297	0.284	0.070
-459.055	-75.334	0.219	0.102
-458.040	-22.960	-0.156	-0.123
-457.026	-54.909	-0.463	-0.273
-456.011	17.462	-0.168	-0.175
-454.997	-84.438	0.440	-0.182
-453.982	309.723	-0.099	-0.243
-452.968	800.000	-0.082	0.430
-451.953	500.818	0.197	0.600
-450.938	-90.598	0.210	0.079
-449.924	614.758	0.158	0.521
-448.909	-63.076	0.176	0.095
-447.895	209.987	0.177	0.366
-446.880	63.449	-0.060	-0.079
-445.865	697.542	0.060	-0.209
-444.851	-68.284	0.301	-0.153
-443.836	246.141	-0.131	-0.290
-442.822	-84.586	-0.128	0.053
-441.807	-45.042	0.501	0.326
-440.792	63.951	0.139	0.183
-439.778	-113.916	0.297	-0.075
-438.763	-200.000	0.011	0.575
-437.749	113.694	0.156	-0.248
-436.734	661.296	-0.017	0.057
-435.719	-118.790	-0.429	-0.098
-434.705	301.802	-0.071	0.173
-433.690	44.963	-0.329	0.398
-432.676	-32.237	-0.305	-0.223
-431.661	800.000	0.078	0.294
-430.646	-152.611	0.225	-0.021
-429.632	800.000	-0.042	-0.209
-428.617	120.386	0.179	-0.293
-427.603	243.700	-0.079	-0.175
-426.588	-75.285	0.319	-0.149
-425.573	708.953	0.018	0.062
-424.559	377.913	0.120	-0.323
-423.544	66.042	-0.217	-0.289
-422.530	-63.302	0.179	0.096
-421.515	31.791	-0.280	0.316
-420.500	424.210	0.083	0.235
-419.486	-52.702	-0.308	0.186
-418.471	800.000	0.132	0.492
-417.457	-200.000	0.014	0.445
-416.442	22.533	0.309	0.332
-415.428	53.335	-0.282	0.354
-414.413	-155.190	-0.009	-0.001
-413.398	193.194	-0.295	-0.586
-412.384	800.000	-0.076	0.331
-411.369	800.000	-0.033	0.161
-410.355	-148.934	-0.255	-0.027
-409.340	49.666	-0.181	-0.224
-408.325	78.888	0.202	0.284
-407.311	-180.351	-0.354	0.009
-406.296	51.283	0.223	0.277
-405.282	-96.439	0.434	0.149
-404.267	-104.299	0.113	-0.034
-403.252	75.290	-0.329	-0.455
-402.238	-60.334	0.373	0.207
-401.223	176.895	0.106	0.203
-400.209	-64.281	0.064	0.034
-399.194	800.000	0.087	0.323
-398.179	186.347	0.132	0.259
-397.165	1.636	-0.246	0.232
-396.150	-52.723	-0.338	-0.204
-395.136	-187.120	0.569	0.010
-394.121	332.823	0.153	-0.389
-393.106	-200.000	-0.011	0.160
-392.092	-59.396	0.154	0.086
-391.077	372.126	-0.101	-0.270
-390.063	-197.278	-0.399	0.003
-389.048	-123.259	0.189	0.039
-388.033	-52.133	-0.244	0.148
-387.019	122.577	0.117	-0.191
-386.004	-53.128	-0.426	0.256
-384.990	-143.662	0.158	0.019
-383.975	53.583	-0.117	-0.147
-382.960	-95.372	-0.659	0.231
-381.946	-1.701	0.337	-0.311
-380.931	189.522	0.085	0.167
-379.917	-31.156	-0.355	0.261
-378.902	-200.000	0.006	0.089
-377.888	-52.012	-0.485	0.294
-376.873	-70.676	-0.306	-0.151
-375.858	65.474	-0.095	-0.126
-374.844	468.161	0.054	-0.159
-373.829	-22.515	-0.070	0.055
-372.815	-200.000	0.002	0.196
-371.800	91.873	-0.182	0.268
-370.785	800.000	-0.151	-0.802
-369.771	-200.000	-0.069	0.425
-368.756	800.000	0.117	-0.473
-367.742	-200.000	-0.038	-0.450
-366.727	13.955	-0.150	0.153
-365.712	34.208	0.449	0.513
-364.698	-42.725	0.423	0.281
-363.683	-66.634	-0.144	0.074
-362.669	233.525	0.201	0.435
-361.654	774.564	-0.110	-0.396
-360.639	-107.473	-0.165	0.047
-359.625	412.313	-0.116	0.323
-358.610	-96.775	-0.502	-0.172
-357.596	46.687	-0.060	-0.073
-356.581	-112.329	0.235	-0.061
-355.566	-11.150	-0.184	0.158
-354.552	-45.486	0.279	0.180
-353.537	-141.934	0.272	-0.035
-352.523	-4.330	-0.209	-0.189
-351.508	-53.318	0.201	0.120
-350.493	-200.000	-0.005	-0.130
-349.479	-46.455	-0.441	-0.282
-348.464	-148.431	0.237	0.025
-347.450	-161.956	0.204	0.013
-346.435	-106.890	0.508	-0.146
-345.420	30.919	0.219	0.245
-344.406	-86.703	-0.393	0.157
-343.391	-200.000	-0.009	-0.263
-342.377	-55.675	-0.199	-0.116
-341.362	-103.137	-0.220	0.068
-340.348	8.844	-0.087	0.086
-339.333	48.959	0.504	-0.619
-338.318	-137.501	0.419	-0.061
-337.304	-13.401	-0.096	-0.082
-336.289	-60.962	-0.277	0.153
-335.275	-70.001	-0.336	-0.167
-334.260	-200.000	0.049	0.389
-333.245	-173.433	0.375	-0.015
-332.231	144.693	0.091	-0.159
-331.216	-200.000	0.002	0.102
-330.202	558.919	0.028	-0.089
-329.187	-50.297	0.369	0.227
-328.172	8.136	-0.277	-0.271
-327.158	0.213	-0.248	0.231
-326.143	346.763	-0.146	-0.378
-325.129	-200.000	0.009	0.334
-324.114	161.970	-0.040	-0.073
-323.099	200.994	0.102	-0.205
-322.085	-98.294	0.810	0.270
-321.070	90.897	0.112	-0.164
-320.056	-73.178	0.228	0.109
-319.041	-200.000	-0.006	0.462
-318.026	-24.686	0.309	0.240
-317.012	98.854	0.263	-0.397
-315.997	40.441	-0.124	0.146
-314.983	-15.289	0.466	0.389
-313.968	-103.697	-0.512	0.156
-312.953	346.738	-0.063	-0.162
-311.939	-113.031	-0.383	0.098
-310.924	79.986	0.291	0.409
-309.910	147.927	-0.143	-0.253
-308.895	31.544	0.239	-0.268
-307.880	55.679	-0.122	-0.154
-306.866	151.748	0.270	-0.482
-305.851	800.000	-0.055	-0.277
-304.837	-8.008	0.217	0.191
-303.822	549.883	0.091	-0.287
-302.807	9.566	-0.468	-0.462
-301.793	-113.092	0.294	0.075
-300.778	800.000	0.065	0.348
-299.764	-200.000	-0.016	0.417
-298.749	-65.387	0.217	-0.114
-297.735	566.392	0.082	-0.260
-296.720	800.000	-0.031	0.173
-295.705	-90.338	-0.284	-0.107
-294.691	30.810	-0.176	-0.196
-293.676	-130.190	0.204	0.036
-292.662	-139.305	-0.215	0.030
-291.647	237.915	-0.168	-0.366
-290.632	-162.511	-0.286	-0.018
-289.618	-39.479	0.234	0.160
-288.603	-9.614	0.468	0.406
-287.589	241.367	0.078	0.172
-286.574	182.317	-0.089	-0.173
-285.559	32.847	-0.121	0.137
-284.545	-200.000	-0.002	-0.336
-283.530	-181.375	0.175	0.004
-282.516	124.506	0.221	0.364
-281.501	-113.180	-0.114	-0.029
-280.486	281.804	0.055	0.129
-279.472	445.462	-0.113	0.324
-278.457	-179.791	-0.116	-0.003
-277.443	49.508	-0.068	0.083
-276.428	-106.234	0.288	0.084
-275.413	-82.861	0.227	-0.095
-274.399	-200.000	0.002	-0.103
-273.384	8.384	-0.140	-0.137
-272.370	372.309	0.048	-0.129
-271.355	-40.856	0.160	-0.108
-270.340	-30.126	0.435	0.322
-269.326	800.000	0.023	0.094
-268.311	202.798	0.166	-0.336
-267.297	95.368	0.164	0.244
-266.282	-74.265	0.358	0.168
-265.267	-53.106	-0.258	-0.154
-264.253	-25.335	0.028	-0.022
-263.238	-135.163	0.228	0.035
-262.224	-78.754	-0.174	0.077
-261.209	-99.738	-0.282	0.091
-260.195	800.000	0.007	-0.036
-259.180	-107.979	-0.406	0.114
-258.165	-135.501	-0.312	0.048
-257.151	-143.996	0.503	0.061
-256.136	146.475	-0.236	-0.414
-255.122	9.213	0.049	0.049
-254.107	630.426	-0.100	-0.333
-253.092	113.129	0.080	0.126
-252.078	-164.098	0.309	0.018
-251.063	37.487	-0.045	0.051
-250.049	-51.825	-0.297	0.180
-249.034	-170.661	0.144	0.006
-248.019	-200.000	-0.017	-0.126
-247.005	-200.000	-0.002	-0.020
-245.990	-133.596	-0.392	-0.063
-244.976	-200.000	-0.027	0.546
-243.961	5.035	0.134	-0.129
-242.946	-200.000	-0.025	0.216
-241.932	251.659	0.164	-0.366
-240.917	-105.771	-0.616	-0.180
-239.903	10.217	-0.265	0.262
-238.888	313.181	-0.081	-0.200
-237.873	-21.054	-0.713	-0.567
-236.859	-41.928	-0.129	-0.086
-235.844	-33.012	0.264	-0.191
-234.830	115.486	0.193	-0.308
-233.815	85.433	-0.058	0.083
-232.800	-98.350	-0.235	-0.078
-231.786	-200.000	0.045	-0.525
-230.771	-33.406	-0.282	0.203
-229.757	-145.601	-0.410	-0.047
-228.742	693.520	-0.038	0.129
-227.727	800.000	-0.071	-0.261
-226.713	-21.493	-0.303	0.240
-225.698	-133.030	0.305	-0.050
-224.684	-117.505	0.345	-0.081
-223.669	77.440	0.242	0.336
-222.655	13.283	0.089	0.090
-221.640	231.629	0.062	-0.133
-220.625	-196.025	0.602	0.005
-219.611	528.503	-0.046	0.141
-218.596	30.259	0.378	-0.419
-217.582	-200.000	0.044	-0.332
-216.567	145.541	0.276	-0.483
-215.552	113.841	0.223	0.354
-214.538	-16.734	0.373	0.306
-213.523	-71.502	0.132	-0.064
-212.509	-17.859	0.214	-0.174
-211.494	85.687	-0.063	0.090
-210.479	-125.662	0.145	-0.028
-209.465	-92.847	-0.440	-0.159
-208.450	-116.469	-0.139	0.033
-207.436	-200.000	-0.057	-0.394
-206.421	800.000	0.038	-0.158
-205.406	-26.689	-0.096	0.073
-204.392	800.000	-0.076	0.281
-203.377	-130.495	-0.307	0.053
-202.363	-11.822	-0.193	-0.164
-201.348	-33.093	-0.228	-0.164
-200.333	288.120	0.097	-0.229
-199.319	-200.000	0.008	0.104
-198.304	223.464	0.207	0.436
-197.290	-12.213	-0.231	0.196
-196.275	33.868	-0.155	-0.175
-195.260	348.517	0.246	-0.633
-194.246	-103.128	-0.337	-0.103
-193.231	-179.276	-0.229	-0.006
-192.217	-25.640	0.363	0.278
-191.202	-7.894	-0.293	0.257
-190.187	-97.672	-0.384	-0.128
-189.173	73.301	0.190	-0.258
-188.158	-89.222	0.412	0.157
-187.144	96.724	-0.269	0.401
-186.129	47.579	-0.389	0.472
-185.114	800.000	-0.103	0.460
-184.100	591.095	-0.138	0.446
-183.085	468.025	0.034	0.100
-182.071	10.964	-0.081	0.080
-181.056	-173.755	-0.328	0.012
-180.042	-192.557	0.354	-0.004
-179.027	167.694	-0.172	-0.318
-178.012	-5.442	0.230	0.205
-176.998	-200.000	-0.185	-0.000
-175.983	800.000	0.044	-0.200
-174.969	-200.000	-0.048	0.442
-173.954	-62.845	-0.332	-0.178
-172.939	-89.401	0.119	0.045
-171.925	-156.573	-0.096	-0.008
-170.910	-134.624	0.147	-0.023
-169.896	793.217	-0.043	-0.156
-168.881	-200.000	-0.031	-0.249
-167.866	63.884	-0.213	0.278
-166.852	-152.816	0.316	0.029
-165.837	-33.869	-0.417	0.298
-164.823	-16.909	-0.225	0.185
-163.808	-133.072	-0.283	0.046
-162.793	-140.039	-0.305	0.041
-161.779	8.639	0.148	0.145
-160.764	274.723	-0.133	0.308
-159.750	-147.408	0.303	0.033
-158.735	-153.874	-0.431	-0.038
-157.720	-200.000	0.005	0.391
-156.706	247.231	0.055	0.120
-155.691	-178.296	0.158	0.005
-154.677	800.000	-0.091	0.343
-153.662	-35.966	0.220	0.154
-152.647	116.661	0.164	-0.261
-151.633	-200.000	-0.018	0.275
-150.618	-78.367	0.195	-0.086
-149.604	58.034	-0.152	-0.193
-148.589	-150.284	-0.079	-0.008
-147.574	99.495	0.059	-0.089
-146.560	-45.412	0.115	0.074
-145.545	-164.867	0.530	-0.030
-144.531	800.000	-0.087	-0.354
-143.516	-89.402	-0.137	-0.052
-142.502	-200.000	0.003	0.180
-141.487	-150.601	0.277	0.027
-140.472	301.463	0.277	0.666
-139.458	-110.860	-0.411	0.109
-138.443	87.015	0.167	0.239
-137.429	-78.747	-0.259	-0.114
-136.414	-63.204	0.263	-0.140
-135.399	-145.531	-0.798	-0.092
-134.385	-117.692	-0.319	-0.074
-133.370	-147.277	-0.503	0.055
-132.356	-158.404	0.194	0.014
-131.341	-200.000	0.008	0.144
-130.326	-122.495	-0.528	0.110
-129.312	-10.758	0.321	0.275
-128.297	-200.000	-0.045	0.278
-127.283	-104.448	0.213	-0.063
-126.268	0.268	0.263	-0.244
-125.253	26.896	0.314	-0.341
-124.239	-92.735	0.302	0.109
-123.224	-174.290	0.162	-0.006
-122.210	-111.664	0.119	0.031
-121.195	-200.000	0.001	-0.339
