DTS Sentinel unit serial number:	SN409020Multiplexer serial number:	ORYXHardware model number:	OX4-SRSoftware version number:	ORYX F/W v3.00 Oryx Data Collector v3.7.2.0data status	okinstallation	HaddamTimeLapsedifferential loss correction	single-endedforward channel	channel 3reverse channel	N/Adate	2011/06/22time	07:41:17forward acquisition time	30.00reverse acquisition time	0.00gamma	498.7831k internal	0.1760k external	0.1760temperature offset calibration	1.0074default loss term (dB/km)	0.3790temperature slope calibration	1.3530multiplexer offset coefficient	1.0000multiplexer slope coefficient	1.0000fibre end	0.00T internal ref (°C)	23.81T ext. ref 1 (°C)	21.61T ext. ref 2 (°C)	0.14length (m)	temperature (°C)	Stokes	anti-Stokes-747.200	-99.882	0.344	0.113
-746.185	3.170	-0.125	0.120
-745.171	-200.000	-0.040	0.310
-744.156	464.571	0.063	-0.189
-743.142	-10.483	0.263	-0.230
-742.127	-48.376	0.429	-0.272
-741.112	54.403	0.186	0.237
-740.098	-196.156	-0.187	-0.002
-739.083	-11.859	0.268	-0.232
-738.069	-200.000	-0.016	0.324
-737.054	308.717	0.059	0.146
-736.039	102.388	0.241	0.373
-735.025	-111.392	0.419	-0.112
-734.010	-200.000	0.054	-0.521
-732.996	276.179	-0.145	0.342
-731.981	800.000	0.141	-0.593
-730.966	-100.264	0.781	0.255
-729.952	38.080	-0.196	0.231
-728.937	-23.200	-0.048	0.038
-727.923	-200.000	-0.004	-0.156
-726.908	-62.393	-0.344	0.188
-725.894	-200.000	0.021	0.344
-724.879	-157.695	-0.457	0.035
-723.864	-35.322	0.096	-0.069
-722.850	-38.102	0.633	-0.442
-721.835	-200.000	-0.056	0.330
-720.821	-171.684	0.075	-0.003
-719.806	800.000	0.038	-0.193
-718.791	-93.388	-0.613	-0.223
-717.777	348.691	-0.150	-0.392
-716.762	25.317	0.318	-0.349
-715.748	61.550	-0.202	-0.266
-714.733	30.916	0.287	0.325
-713.718	63.962	0.065	0.086
-712.704	120.236	0.158	0.259
-711.689	-200.000	0.005	0.050
-710.675	-149.062	0.257	0.027
-709.660	-141.822	-0.321	-0.042
-708.645	149.386	-0.279	0.499
-707.631	80.627	0.187	0.266
-706.616	593.480	-0.102	0.334
-705.602	-100.187	0.185	0.060
-704.587	182.774	-0.149	0.291
-703.572	-94.776	-0.243	-0.086
-702.558	33.119	-0.342	-0.392
-701.543	800.000	-0.027	0.145
-700.529	109.424	0.146	0.231
-699.514	-99.847	-0.449	-0.147
-698.499	171.914	-0.289	0.550
-697.485	67.699	0.370	0.499
-696.470	-61.983	0.171	-0.094
-695.456	-165.009	-0.463	0.027
-694.441	-60.332	0.450	-0.252
-693.426	-117.764	0.138	0.032
-692.412	-200.000	0.013	-0.176
-691.397	-39.435	0.030	-0.021
-690.383	-123.881	0.331	-0.068
-689.368	-136.780	-0.198	0.030
-688.354	-43.124	-0.272	0.181
-687.339	-84.710	0.461	-0.191
-686.324	3.038	0.066	0.063
-685.310	-13.460	0.300	0.257
-684.295	800.000	0.061	-0.270
-683.281	-18.526	-0.130	0.107
-682.266	86.060	0.230	-0.334
-681.251	-135.313	0.633	0.099
-680.237	23.965	0.155	0.168
-679.222	-200.000	-0.014	0.240
-678.208	-200.000	0.060	0.458
-677.193	-13.829	0.260	0.221
-676.178	58.436	0.096	-0.124
-675.164	-74.219	-0.385	-0.183
-674.149	-41.056	-0.291	-0.198
-673.135	-4.974	0.183	-0.166
-672.120	-69.184	0.538	0.272
-671.105	-65.041	0.027	-0.014
-670.091	-16.712	-0.062	0.052
-669.076	-102.385	-0.254	-0.080
-668.062	-152.501	0.207	-0.019
-667.047	259.618	-0.147	-0.336
-666.032	16.203	-0.356	-0.370
-665.018	-121.288	-0.188	0.041
-664.003	-25.941	-0.171	0.132
-662.989	-39.806	-0.299	-0.205
-661.974	-56.696	0.415	-0.241
-660.959	800.000	0.111	-0.613
-659.945	-23.555	0.440	-0.347
-658.930	-106.287	-0.426	-0.125
-657.916	-108.957	0.294	0.082
-656.901	-5.332	0.080	0.072
-655.886	-121.158	0.354	0.077
-654.872	-200.000	0.054	-0.372
-653.857	28.607	-0.306	-0.341
-652.843	34.558	-0.184	-0.212
-651.828	-200.000	0.002	0.506
-650.814	39.917	-0.382	0.452
-649.799	11.030	0.025	-0.025
-648.784	190.670	-0.037	0.073
-647.770	-14.284	-0.302	0.256
-646.755	85.952	-0.138	-0.200
-645.741	800.000	-0.117	-0.465
-644.726	-103.806	-0.158	-0.048
-643.711	67.555	0.093	-0.125
-642.697	-91.325	-0.647	-0.242
-641.682	-162.918	0.088	0.006
-640.668	100.956	-0.061	0.094
-639.653	128.076	0.146	0.245
-638.638	-132.417	-0.181	0.030
-637.624	55.575	0.165	-0.211
-636.609	-118.984	-0.288	-0.066
-635.595	800.000	-0.039	-0.167
-634.580	-159.838	-0.222	-0.016
-633.565	-125.031	0.304	-0.061
-632.551	497.888	-0.056	-0.171
-631.536	-60.266	0.297	-0.166
-630.522	0.056	-0.075	0.070
-629.507	-67.023	0.079	0.041
-628.492	800.000	0.173	-0.694
-627.478	105.549	0.251	-0.391
-626.463	-110.342	0.353	0.096
-625.449	175.177	-0.120	-0.229
-624.434	158.256	0.052	-0.095
-623.419	672.535	-0.055	-0.189
-622.405	-52.893	-0.399	-0.241
-621.390	-47.411	-0.058	0.037
-620.376	275.964	-0.208	-0.487
-619.361	-38.904	-0.291	-0.201
-618.346	-60.842	0.278	-0.154
-617.332	473.486	0.084	-0.251
-616.317	-200.000	0.045	-0.518
-615.303	-137.334	-0.438	0.065
-614.288	162.728	-0.151	0.280
-613.273	5.920	0.061	-0.060
-612.259	-129.057	-0.375	0.068
-611.244	-172.028	-0.222	-0.009
-610.230	-200.000	0.023	-0.376
-609.215	76.204	-0.198	-0.276
-608.201	-200.000	0.008	0.157
-607.186	-4.603	-0.350	-0.318
-606.171	-76.601	0.231	-0.106
-605.157	148.110	-0.295	0.524
-604.142	-138.422	0.666	0.095
-603.128	70.738	0.294	-0.401
-602.113	-34.555	0.197	0.141
-601.098	-17.444	0.326	0.269
-600.084	-63.511	0.267	0.144
-599.069	229.668	0.087	-0.188
-598.055	678.185	0.059	-0.201
-597.040	-174.595	-0.436	0.016
-596.025	-200.000	-0.005	-0.524
-595.011	-4.105	0.235	-0.214
-593.996	-74.305	-0.259	0.123
-592.982	-1.829	-0.143	-0.132
-591.967	-46.617	0.336	-0.216
-590.952	-36.997	-0.159	0.112
-589.938	-2.279	-0.159	-0.146
-588.923	-134.770	-0.445	0.070
-587.909	483.718	-0.114	-0.343
-586.894	-200.000	-0.031	0.286
-585.879	-74.701	-0.440	-0.207
-584.865	-126.714	-0.238	0.046
-583.850	800.000	0.110	-0.431
-582.836	63.775	-0.314	-0.414
-581.821	-200.000	-0.039	0.367
-580.806	-9.100	0.187	-0.164
-579.792	-49.674	-0.129	0.080
-578.777	-138.109	-0.271	-0.039
-577.763	387.151	0.174	-0.474
-576.748	13.389	0.285	-0.290
-575.733	-200.000	-0.054	0.363
-574.719	-164.694	0.064	0.004
-573.704	-200.000	0.060	0.528
-572.690	121.336	-0.111	-0.183
-571.675	-83.792	0.232	0.096
-570.661	60.214	-0.192	0.249
-569.646	299.170	-0.094	0.227
-568.631	116.385	-0.075	-0.120
-567.617	-153.499	-0.320	-0.029
-566.602	800.000	0.023	0.126
-565.588	201.859	-0.214	0.434
-564.573	-87.861	0.280	0.110
-563.558	-80.946	0.215	-0.093
-562.544	-153.314	-0.464	-0.042
-561.529	-20.123	0.114	-0.092
-560.515	-200.000	0.038	-0.331
-559.500	-33.175	-0.147	-0.106
-558.485	-76.404	0.439	-0.202
-557.471	127.639	0.087	-0.146
-556.456	-60.258	0.598	0.333
-555.442	637.694	0.190	0.638
-554.427	121.546	-0.230	0.377
-553.412	-174.758	-0.399	-0.015
-552.398	-200.000	-0.018	-0.273
-551.383	-4.758	0.261	-0.236
-550.369	800.000	-0.086	0.337
-549.354	-108.323	-0.231	0.065
-548.339	310.236	0.159	-0.391
-547.325	-59.099	0.441	-0.249
-546.310	41.402	-0.311	-0.369
-545.296	-200.000	0.049	-0.403
-544.281	-179.518	-0.120	0.003
-543.266	36.543	0.227	-0.263
-542.252	-112.450	0.251	0.065
-541.237	-200.000	0.007	0.101
-540.223	-158.830	-0.414	-0.031
-539.208	-136.221	0.438	0.067
-538.193	69.019	-0.493	0.664
-537.179	800.000	0.098	-0.516
-536.164	-35.893	0.200	-0.142
-535.150	367.837	-0.025	-0.068
-534.135	24.423	0.133	-0.145
-533.121	-17.528	-0.132	-0.108
-532.106	-200.000	-0.008	-0.139
-531.091	733.956	0.057	-0.203
-530.077	-87.299	-0.453	-0.179
-529.062	800.000	-0.038	0.195
-528.048	-103.443	-0.202	0.062
-527.033	-94.573	-0.450	0.160
-526.018	79.976	0.199	0.281
-525.004	-27.511	-0.277	0.210
-523.989	-200.000	-0.023	0.262
-522.975	22.427	-0.119	0.127
-521.960	58.448	-0.080	0.104
-520.945	-200.000	-0.015	0.215
-519.931	-31.314	0.157	0.115
-518.916	-83.771	0.537	-0.223
-517.902	53.169	0.061	0.077
-516.887	-148.979	0.257	0.027
-515.872	-64.738	0.033	0.017
-514.858	-48.472	-0.359	0.226
-513.843	-1.073	0.073	-0.068
-512.829	-166.121	0.427	-0.023
-511.814	-152.911	-0.392	0.036
-510.799	-29.715	0.439	0.328
-509.785	73.927	0.121	0.166
-508.770	-121.611	0.274	0.059
-507.756	69.848	-0.205	-0.278
-506.741	111.320	0.128	0.202
-505.726	-46.454	-0.447	0.287
-504.712	-63.644	0.335	0.179
-503.697	64.707	0.175	-0.232
-502.683	-28.794	0.325	0.244
-501.668	-200.000	0.008	-0.143
-500.653	-200.000	0.051	0.525
-499.639	-117.538	-0.437	-0.103
-498.624	-200.000	-0.011	-0.591
-497.610	-159.370	0.118	0.008
-496.595	-151.272	0.433	0.042
-495.581	800.000	0.031	-0.162
-494.566	-104.849	-0.266	0.080
-493.551	-134.983	0.441	0.069
-492.537	208.871	-0.197	-0.406
-491.522	-128.885	0.425	0.077
-490.508	481.989	-0.038	0.112
-489.493	-73.364	-0.284	0.135
-488.478	27.340	0.079	-0.087
-487.464	63.692	-0.302	-0.397
-486.449	-112.715	0.172	-0.045
-485.435	70.526	-0.216	-0.292
-484.420	212.432	0.102	-0.210
-483.405	-107.259	-0.163	0.047
-482.391	278.821	-0.091	0.213
-481.376	-1.255	-0.045	-0.042
-480.362	-200.000	-0.039	0.445
-479.347	-59.517	-0.586	0.328
-478.332	502.599	0.033	-0.099
-477.318	154.109	-0.075	-0.135
-476.303	800.000	0.068	-0.304
-475.289	-200.000	-0.018	0.400
-474.274	-200.000	0.088	-0.591
-473.259	-167.794	0.455	-0.023
-472.245	-32.173	-0.123	0.090
-471.230	-79.456	0.425	0.187
-470.216	14.154	0.712	0.725
-469.201	-200.000	-0.051	0.399
-468.186	479.350	-0.218	0.650
-467.172	35.774	0.440	0.506
-466.157	-151.514	0.136	-0.013
-465.143	-130.274	-0.118	-0.021
-464.128	27.499	0.109	-0.119
-463.113	-200.000	-0.018	0.158
-462.099	621.293	0.035	0.116
-461.084	38.236	0.067	-0.078
-460.070	-118.613	0.357	-0.082
-459.055	8.615	0.234	-0.230
-458.040	-81.868	0.049	0.021
-457.026	-84.001	-0.188	0.078
-456.011	800.000	-0.040	-0.221
-454.997	84.004	-0.182	-0.260
-453.982	-200.000	-0.039	-0.306
-452.968	-9.603	0.388	-0.338
-451.953	-63.382	-0.323	-0.173
-450.938	-59.678	0.218	-0.122
-449.924	59.234	-0.258	-0.332
-448.909	-200.000	0.010	-0.139
-447.895	-114.477	-0.275	0.068
-446.880	145.005	-0.226	-0.395
-445.865	69.347	0.170	0.228
-444.851	-89.471	0.340	-0.130
-443.836	75.210	-0.074	0.101
-442.822	224.115	0.051	0.108
-441.807	-29.525	0.221	0.165
-440.792	-134.176	0.147	-0.023
-439.778	-200.000	0.023	-0.405
-438.763	237.874	0.120	0.261
-437.749	-48.099	0.315	-0.198
-436.734	26.968	-0.104	0.114
-435.719	-69.743	0.355	-0.177
-434.705	72.713	-0.144	-0.197
-433.690	-32.633	0.245	0.178
-432.676	-34.911	-0.354	0.251
-431.661	67.079	-0.117	0.155
-430.646	-60.493	-0.077	0.043
-429.632	133.563	-0.399	-0.676
-428.617	-132.313	-0.378	-0.063
-427.603	-64.941	0.490	-0.257
-426.588	-53.567	-0.122	-0.072
-425.573	-164.683	-0.127	0.007
-424.559	321.387	-0.063	-0.158
-423.544	-106.215	0.419	0.122
-422.530	-8.205	0.269	-0.236
-421.515	-116.953	0.188	-0.045
-420.500	-150.743	0.349	-0.034
-419.486	-118.561	-0.593	0.136
-418.471	42.333	0.077	-0.091
-417.457	613.891	0.090	0.295
-416.442	-45.499	-0.282	0.182
-415.428	84.034	0.133	0.190
-414.413	245.187	-0.084	0.185
-413.398	97.066	-0.173	-0.259
-412.384	-92.883	0.243	0.088
-411.369	-200.000	0.005	0.420
-410.355	-83.078	-0.532	0.222
-409.340	-127.835	-0.467	0.087
-408.325	-67.632	0.221	-0.113
-407.311	71.562	0.342	-0.464
-406.296	482.606	-0.096	-0.285
-405.282	800.000	-0.034	-0.135
-404.267	94.071	-0.382	0.566
-403.252	131.705	0.361	0.608
-402.238	-144.528	0.459	-0.055
-401.223	-98.686	-0.266	0.088
-400.209	-12.174	0.287	-0.244
-399.194	-96.291	0.119	0.041
-398.179	-89.262	0.434	0.166
-397.165	9.127	0.439	-0.433
-396.150	180.995	0.295	-0.566
-395.136	-40.999	0.185	-0.124
-394.121	-132.692	0.256	0.042
-393.106	-200.000	0.028	-0.429
-392.092	-14.961	-0.387	-0.323
-391.077	270.671	-0.113	0.259
-390.063	-138.750	0.422	0.059
-389.048	-94.472	0.297	0.105
-388.033	-69.416	-0.141	0.070
-387.019	-40.129	0.171	0.116
-386.004	102.343	0.074	0.113
-384.990	-162.448	-0.699	-0.045
-383.975	-85.261	0.146	-0.059
-382.960	429.192	-0.139	0.394
-381.946	692.044	0.081	-0.278
-380.931	-92.836	-0.218	0.079
-379.917	-73.872	-0.107	0.051
-378.902	-82.845	-0.276	-0.116
-377.888	-35.260	0.184	0.130
-376.873	87.060	0.170	-0.245
-375.858	-90.357	0.190	0.072
-374.844	47.639	0.099	0.120
-373.829	8.455	-0.449	-0.440
-372.815	-200.000	-0.019	-0.116
-371.800	-17.303	0.460	0.377
-370.785	800.000	0.036	-0.163
-369.771	-186.401	0.364	0.007
-368.756	-160.775	0.325	-0.022
-367.742	-58.113	0.320	-0.181
-366.727	800.000	0.104	0.514
-365.712	-84.212	0.461	0.189
-364.698	89.946	0.203	0.296
-363.683	-91.470	-0.295	0.109
-362.669	-46.062	0.079	-0.050
-361.654	251.628	-0.194	0.432
-360.639	800.000	-0.049	0.216
-359.625	299.644	-0.082	0.199
-358.610	171.305	0.063	-0.119
-357.596	-53.237	0.082	0.049
-356.581	-70.926	0.084	0.041
-355.566	-80.338	0.155	0.067
-354.552	144.730	0.142	0.248
-353.537	231.317	0.091	-0.194
-352.523	102.315	0.246	0.375
-351.508	67.709	-0.098	0.130
-350.493	517.560	0.036	0.111
-349.479	48.641	0.251	0.306
-348.464	-48.781	-0.309	0.192
-347.450	-23.238	0.379	0.297
-346.435	213.565	-0.280	0.578
-345.420	-200.000	-0.031	0.629
-344.406	-200.000	-0.074	0.531
-343.391	50.065	-0.266	0.326
-342.377	105.114	-0.187	0.288
-341.362	345.783	0.214	0.550
-340.348	-200.000	-0.003	-0.143
-339.333	17.060	0.069	0.071
-338.318	99.330	0.229	-0.345
-337.304	-200.000	0.022	-0.254
-336.289	-103.115	0.254	-0.078
-335.275	-6.701	-0.191	0.169
-334.260	463.984	-0.183	-0.534
-333.245	-54.310	-0.353	-0.207
-332.231	-162.243	-0.381	-0.024
-331.216	800.000	-0.052	0.219
-330.202	-200.000	-0.055	0.514
-329.187	498.900	-0.083	0.249
-328.172	-25.727	0.266	-0.204
-327.158	71.132	0.132	0.178
-326.143	132.480	-0.063	0.107
-325.129	79.506	0.149	0.208
-324.114	-200.000	-0.006	-0.134
-323.099	418.158	0.184	0.515
-322.085	800.000	0.073	0.268
-321.070	-90.673	0.420	-0.157
-320.056	-109.550	0.317	0.086
-319.041	275.217	0.139	-0.323
-318.026	553.709	0.129	-0.406
-317.012	-77.070	-0.172	0.077
-315.997	-200.000	-0.029	0.190
-314.983	34.769	0.245	0.279
-313.968	-9.638	-0.361	-0.312
-312.953	-86.059	-0.283	-0.113
-311.939	-94.384	-0.218	-0.077
-310.924	-200.000	-0.031	-0.671
-309.910	-70.994	0.056	0.027
-308.895	-53.724	-0.011	-0.007
-307.880	-53.781	-0.401	0.237
-306.866	24.799	-0.303	0.327
-305.851	-158.254	0.359	0.027
-304.837	72.882	-0.270	-0.367
-303.822	20.320	-0.380	-0.398
-302.807	-200.000	0.013	0.178
-301.793	471.163	-0.018	0.053
-300.778	242.731	-0.128	-0.280
-299.764	-25.773	-0.122	0.093
-298.749	125.311	-0.090	0.147
-297.735	705.145	0.078	-0.270
-296.720	800.000	0.067	0.306
-295.705	-69.477	-0.557	-0.276
-294.691	-86.202	-0.028	-0.011
-293.676	-47.275	-0.161	-0.102
-292.662	103.763	0.177	0.271
-291.647	800.000	-0.054	-0.237
-290.632	800.000	-0.050	0.227
-289.618	-122.394	-0.587	0.123
-288.603	-52.339	0.127	0.076
-287.589	-58.687	0.515	0.289
-286.574	-200.000	-0.001	-0.017
-285.559	-117.468	-0.482	0.112
-284.545	-200.000	0.073	-0.447
-283.530	-143.050	-0.156	-0.019
-282.516	49.207	0.164	-0.200
-281.501	556.306	0.192	0.605
-280.486	27.080	0.426	0.464
-279.472	68.862	-0.250	-0.334
-278.457	-61.208	0.307	0.167
-277.443	-158.743	-0.288	-0.021
-276.428	155.260	0.305	-0.547
-275.413	-85.585	0.404	-0.162
-274.399	65.344	-0.183	-0.240
-273.384	171.298	-0.116	-0.217
-272.370	-118.219	-0.259	0.059
-271.355	616.906	0.021	0.068
-270.340	-147.107	-0.282	-0.031
-269.326	-121.270	0.490	0.105
-268.311	-22.771	0.160	0.125
-267.297	-161.866	-0.129	0.008
-266.282	-50.184	-0.141	0.087
-265.267	-155.640	0.565	0.046
-264.253	5.041	-0.213	0.203
-263.238	-122.841	-0.689	0.143
-262.224	147.794	-0.161	0.282
-261.209	417.005	-0.209	-0.580
-260.195	-121.746	-0.492	-0.105
-259.180	-113.747	0.424	-0.106
-258.165	-100.777	-0.186	0.059
-257.151	-61.559	0.040	-0.022
-256.136	4.323	0.494	-0.469
-255.122	118.708	0.140	-0.225
-254.107	31.570	0.114	-0.128
-253.092	244.105	-0.204	0.446
-252.078	-132.779	0.162	0.027
-251.063	52.040	-0.329	-0.406
-250.049	-68.406	0.212	-0.106
-249.034	103.182	0.067	0.102
-248.019	5.601	0.308	-0.295
-247.005	-123.111	0.120	0.025
-245.990	48.392	0.231	-0.281
-244.976	-71.864	-0.392	0.188
-243.961	800.000	-0.160	-0.578
-242.946	-200.000	0.002	-0.290
-241.932	800.000	0.147	-0.650
-240.917	-200.000	0.036	0.335
-239.903	65.818	0.246	0.324
-238.888	-36.952	0.186	0.129
-237.873	-200.000	-0.007	0.432
-236.859	97.118	-0.276	-0.411
-235.844	-67.424	-0.102	-0.051
-234.830	170.113	-0.079	0.148
-233.815	-200.000	0.024	-0.216
-232.800	-54.168	-0.070	-0.041
-231.786	-68.048	0.117	-0.059
-230.771	-200.000	-0.039	0.555
-229.757	44.353	-0.174	-0.207
-228.742	111.759	-0.201	-0.315
-227.727	-131.894	0.102	-0.017
-226.713	-200.000	0.048	0.562
-225.698	-159.377	0.409	-0.029
-224.684	-59.843	0.312	-0.172
-223.669	-71.325	0.337	-0.163
-222.655	-78.875	0.414	-0.182
-221.640	727.278	-0.049	0.171
-220.625	-200.000	-0.004	-0.154
-219.611	-46.595	0.220	0.139
-218.596	258.483	0.085	0.191
-217.582	800.000	-0.031	0.122
-216.567	-61.606	-0.084	0.045
-215.552	728.166	0.139	0.482
-214.538	152.338	0.276	0.489
-213.523	-147.986	-0.061	0.007
-212.509	-109.526	-0.522	-0.142
-211.494	-200.000	0.000	-0.165
-210.479	800.000	0.027	-0.147
-209.465	27.840	0.308	-0.336
-208.450	-108.234	-0.402	0.112
-207.436	-85.549	0.127	-0.051
-206.421	-200.000	0.015	0.710
-205.406	149.331	-0.223	0.391
-204.392	-64.815	-0.319	-0.167
-203.377	237.258	-0.243	-0.522
-202.363	-149.725	-0.018	0.002
-201.348	-108.748	-0.270	-0.074
-200.333	-58.377	-0.049	0.027
-199.319	21.756	-0.236	0.249
-198.304	-130.107	0.459	0.080
-197.290	-33.330	-0.610	-0.436
-196.275	719.437	0.121	-0.418
-195.260	61.590	-0.278	-0.358
-194.246	352.032	-0.122	-0.315
-193.231	84.690	-0.206	0.293
-192.217	-109.002	-0.357	0.098
-191.202	-57.504	0.379	-0.214
-190.187	-167.059	0.158	0.008
-189.173	800.000	-0.026	-0.138
-188.158	-69.039	-0.156	0.078
-187.144	17.558	-0.119	-0.122
-186.129	800.000	-0.056	0.266
-185.114	-200.000	0.044	0.648
-184.100	-51.713	-0.210	-0.126
-183.085	-41.788	-0.116	0.077
-182.071	-78.928	0.282	0.124
-181.056	-116.953	-0.354	-0.083
-180.042	-57.584	-0.207	0.117
-179.027	800.000	0.064	0.361
-178.012	281.005	0.015	0.034
-176.998	-6.128	-0.585	0.516
-175.983	129.120	-0.190	-0.315
-174.969	-29.561	-0.036	0.027
-173.954	22.231	0.194	0.205
-172.939	-200.000	-0.041	0.288
-171.925	-59.885	-0.316	0.174
-170.910	-174.236	0.132	-0.005
-169.896	305.496	-0.145	0.351
-168.881	5.156	0.438	-0.417
-167.866	-13.404	0.415	0.347
-166.852	-105.035	-0.565	-0.166
-165.837	134.585	0.056	0.095
-164.823	-74.309	0.132	-0.062
-163.808	-73.292	-0.178	-0.084
-162.793	800.000	0.045	0.184
-161.779	-73.256	0.314	0.148
-160.764	519.908	0.175	0.533
-159.750	-147.995	-0.300	-0.032
-158.735	3.137	-0.443	0.416
-157.720	565.141	0.130	-0.410
-156.706	285.542	-0.114	0.267
-155.691	-105.330	0.568	-0.166
-154.677	-111.616	0.309	-0.080
-153.662	82.482	-0.141	-0.198
-152.647	14.347	0.141	-0.142
-151.633	-86.607	-0.822	0.324
-150.618	-74.142	-0.464	0.216
-149.604	800.000	0.027	-0.098
-148.589	-132.384	-0.476	-0.078
-147.574	800.000	0.032	-0.162
-146.560	470.195	0.096	0.279
-145.545	800.000	-0.102	-0.381
-144.531	800.000	0.075	-0.400
-143.516	-38.242	-0.332	0.227
-142.502	-71.515	0.350	-0.168
-141.487	5.785	-0.214	-0.204
-140.472	-83.431	0.183	0.075
-139.458	-200.000	0.002	-0.481
-138.443	512.779	-0.008	0.024
-137.429	-43.980	-0.375	0.243
-136.414	275.860	-0.105	0.241
-135.399	-35.602	0.440	0.307
-134.385	-83.775	0.488	0.200
-133.370	116.542	0.067	-0.106
-132.356	-94.879	0.247	0.086
-131.341	-141.734	-0.202	0.026
-130.326	-113.425	0.527	-0.132
-129.312	800.000	0.111	-0.423
-128.297	-114.133	0.322	0.080
-127.283	-114.130	0.134	-0.033
-126.268	-191.006	0.469	-0.006
-125.253	143.098	0.275	-0.473
-124.239	-173.287	-0.113	0.004
-123.224	-86.689	-0.452	-0.178
-122.210	-138.779	0.262	0.036
-121.195	-104.683	0.354	0.105
-120.180	-200.000	-0.029	0.280
