DTS Sentinel unit serial number:	SN409020Multiplexer serial number:	ORYXHardware model number:	OX4-SRSoftware version number:	ORYX F/W v3.00 Oryx Data Collector v3.7.2.0data status	okinstallation	HaddamTimeLapsedifferential loss correction	single-endedforward channel	channel 3reverse channel	N/Adate	2011/06/22time	07:16:17forward acquisition time	30.00reverse acquisition time	0.00gamma	498.7831k internal	0.1754k external	0.1754temperature offset calibration	1.0074default loss term (dB/km)	0.3790temperature slope calibration	1.3530multiplexer offset coefficient	1.0000multiplexer slope coefficient	1.0000fibre end	0.00T internal ref (°C)	23.06T ext. ref 1 (°C)	19.91T ext. ref 2 (°C)	0.12length (m)	temperature (°C)	Stokes	anti-Stokes-747.200	-200.000	0.042	-0.370
-746.185	175.528	0.033	-0.064
-745.171	-200.000	0.018	-0.273
-744.156	394.839	0.212	0.588
-743.142	-41.144	-0.391	0.267
-742.127	-200.000	-0.040	0.544
-741.112	-200.000	0.008	-0.272
-740.098	-200.000	-0.033	0.261
-739.083	-197.466	-0.636	0.005
-738.069	-200.000	-0.056	0.362
-737.054	-156.541	-0.360	0.029
-736.039	-176.761	0.131	0.004
-735.025	800.000	0.098	0.396
-734.010	-12.306	-0.249	0.215
-732.996	-200.000	-0.022	-0.195
-731.981	195.109	-0.136	0.274
-730.966	65.892	-0.111	0.149
-729.952	-141.720	-0.224	-0.029
-728.937	-200.000	0.010	-0.316
-727.923	147.546	-0.122	0.218
-726.908	-42.797	-0.306	-0.205
-725.894	56.587	-0.172	0.221
-724.879	800.000	0.092	-0.415
-723.864	340.083	-0.041	-0.106
-722.850	26.193	0.263	-0.291
-721.835	-36.185	-0.216	-0.154
-720.821	-12.225	0.152	-0.132
-719.806	-61.746	0.117	-0.065
-718.791	4.174	0.125	0.121
-717.777	240.792	-0.115	0.255
-716.762	42.996	0.145	-0.176
-715.748	14.124	0.176	-0.182
-714.733	-123.149	0.385	-0.081
-713.718	-137.092	-0.410	-0.061
-712.704	-124.636	-0.706	-0.144
-711.689	800.000	0.051	0.208
-710.675	141.302	0.131	0.231
-709.660	-48.444	-0.208	-0.132
-708.645	-5.988	0.047	0.043
-707.631	-142.843	-0.264	-0.034
-706.616	285.487	0.096	0.230
-705.602	23.335	0.224	-0.244
-704.587	-53.040	-0.143	-0.087
-703.572	140.597	-0.045	-0.079
-702.558	-23.447	0.205	-0.162
-701.543	-76.597	-0.280	-0.130
-700.529	-15.935	-0.296	-0.249
-699.514	227.702	-0.079	-0.172
-698.499	-200.000	-0.000	-0.166
-697.485	-27.425	-0.389	0.299
-696.470	-165.221	-0.319	-0.018
-695.456	-142.218	0.474	-0.061
-694.441	148.580	-0.089	-0.160
-693.426	-120.975	-0.641	-0.141
-692.412	-21.384	-0.294	-0.237
-691.397	-30.231	-0.190	-0.143
-690.383	11.014	0.264	-0.267
-689.368	10.909	0.147	0.148
-688.354	-200.000	-0.032	-0.335
-687.339	-197.756	0.264	0.002
-686.324	-58.990	-0.831	-0.473
-685.310	-32.449	-0.129	0.095
-684.295	-191.540	0.194	0.003
-683.281	0.903	0.313	-0.296
-682.266	188.904	0.139	0.276
-681.251	173.141	0.068	-0.130
-680.237	-38.110	-0.307	-0.215
-679.222	-150.944	-0.122	0.012
-678.208	225.839	0.289	0.621
-677.193	800.000	0.072	0.281
-676.178	-200.000	0.049	0.425
-675.164	122.974	0.318	0.527
-674.149	140.881	0.192	-0.337
-673.135	-55.893	0.463	-0.272
-672.120	362.687	0.165	-0.440
-671.105	-93.603	0.408	0.148
-670.091	-61.806	0.416	-0.229
-669.076	-116.535	0.319	0.077
-668.062	-126.046	-0.820	-0.161
-667.047	-180.302	0.365	0.010
-666.032	105.073	0.297	0.463
-665.018	88.147	0.319	0.468
-664.003	-200.000	0.009	-0.199
-662.989	-106.275	0.236	0.069
-661.974	-147.557	-0.379	-0.042
-660.959	79.139	0.077	0.109
-659.945	800.000	-0.066	-0.369
-658.930	-25.619	0.050	0.039
-657.916	-200.000	0.070	0.443
-656.901	347.300	-0.156	0.408
-655.886	800.000	0.020	0.108
-654.872	-200.000	-0.008	0.054
-653.857	85.407	-0.156	-0.226
-652.843	-82.452	-0.182	-0.078
-651.828	-103.956	0.464	-0.142
-650.814	29.292	0.261	-0.293
-649.799	-118.950	-0.297	-0.068
-648.784	-35.361	-0.271	-0.194
-647.770	-117.031	-0.678	-0.162
-646.755	800.000	0.059	0.276
-645.741	800.000	0.104	-0.576
-644.726	173.738	0.295	-0.563
-643.711	148.248	-0.144	-0.258
-642.697	-200.000	-0.020	0.138
-641.682	-62.167	0.126	-0.069
-640.668	-90.266	-0.245	-0.093
-639.653	-143.021	0.293	-0.037
-638.638	211.073	0.074	0.154
-637.624	-200.000	-0.004	-0.248
-636.609	-150.869	-0.712	0.070
-635.595	-112.571	-0.241	0.063
-634.580	-7.637	-0.124	-0.110
-633.565	-165.181	0.090	-0.005
-632.551	-111.299	-0.212	-0.057
-631.536	-113.494	-0.543	-0.139
-630.522	-67.761	-0.278	-0.143
-629.507	-117.934	-0.391	-0.092
-628.492	359.345	0.039	0.104
-627.478	466.384	0.014	-0.041
-626.463	103.824	-0.077	-0.119
-625.449	-97.161	-0.218	-0.075
-624.434	-144.318	0.433	-0.053
-623.419	-68.798	0.432	-0.220
-622.405	-76.489	-0.321	-0.148
-621.390	800.000	-0.137	-0.519
-620.376	-87.634	0.277	-0.110
-619.361	-46.120	-0.229	0.148
-618.346	698.974	0.071	-0.249
-617.332	-111.826	0.304	-0.080
-616.317	68.421	0.159	0.216
-615.303	527.834	-0.143	-0.449
-614.288	-190.363	-0.147	0.002
-613.273	303.058	-0.132	0.323
-612.259	-96.189	0.306	0.107
-611.244	-64.230	0.363	-0.194
-610.230	-200.000	0.477	0.003
-609.215	-2.433	-0.104	0.096
-608.201	-7.787	0.098	0.087
-607.186	-200.000	-0.029	-0.547
-606.171	-80.216	0.093	-0.041
-605.157	-200.000	-0.041	0.357
-604.142	-118.817	-0.521	0.120
-603.128	24.198	0.186	-0.203
-602.113	52.108	0.185	0.233
-601.098	-61.612	-0.020	0.011
-600.084	-96.550	-0.333	0.115
-599.069	-67.686	-0.351	-0.181
-598.055	50.222	0.434	-0.540
-597.040	-200.000	-0.043	-0.424
-596.025	-200.000	0.025	-0.225
-595.011	329.618	-0.176	-0.449
-593.996	-163.735	-0.196	-0.012
-592.982	-67.533	-0.210	0.108
-591.967	-125.351	-0.204	-0.041
-590.952	163.663	-0.094	0.174
-589.938	-165.117	-0.498	0.029
-588.923	-30.690	0.330	-0.246
-587.909	166.490	0.186	-0.348
-586.894	74.233	0.156	0.216
-585.879	-136.464	-0.477	-0.072
-584.865	-200.000	0.011	0.254
-583.850	-125.257	-0.245	-0.049
-582.836	800.000	-0.018	0.070
-581.821	145.300	-0.229	0.405
-580.806	-22.567	-0.245	0.195
-579.792	766.154	0.055	-0.200
-578.777	-81.869	-0.175	0.075
-577.763	26.918	0.061	0.068
-576.748	-105.128	0.402	-0.120
-575.733	195.815	0.028	0.056
-574.719	2.434	0.448	0.427
-573.704	38.650	-0.403	0.474
-572.690	413.462	-0.065	-0.182
-571.675	-128.330	-0.427	-0.079
-570.661	-87.559	0.577	0.228
-569.646	-92.722	-0.432	-0.159
-568.631	-98.960	-0.508	0.169
-567.617	43.089	-0.256	0.308
-566.602	-200.000	-0.009	-0.319
-565.588	-200.000	-0.105	-0.824
-564.573	-111.105	-0.246	-0.066
-563.558	-200.000	-0.033	0.340
-562.544	189.881	0.048	-0.094
-561.529	-45.728	0.332	0.215
-560.515	-107.432	0.235	-0.068
-559.500	-91.363	-0.326	-0.122
-558.485	62.085	-0.220	-0.289
-557.471	-115.468	-0.412	-0.101
-556.456	-200.000	-0.055	-0.590
-555.442	-200.000	0.024	0.171
-554.427	-145.017	-0.473	0.056
-553.412	-27.095	0.341	-0.261
-552.398	47.928	0.284	0.350
-551.383	800.000	0.191	0.706
-550.369	-90.447	-0.284	0.108
-549.354	-81.411	0.357	-0.154
-548.339	-118.499	0.386	0.089
-547.325	-49.147	-0.339	0.213
-546.310	262.951	-0.140	0.322
-545.296	-173.784	0.405	-0.016
-544.281	73.256	-0.203	0.280
-543.266	8.325	0.391	0.386
-542.252	-2.185	-0.184	-0.170
-541.237	-187.486	0.253	0.004
-540.223	271.847	0.237	-0.552
-539.208	-23.619	0.260	-0.205
-538.193	-200.000	0.025	0.144
-537.179	-80.777	0.174	0.076
-536.164	-200.000	0.036	0.259
-535.150	800.000	-0.101	0.552
-534.135	252.949	-0.197	-0.444
-533.121	38.681	0.150	0.176
-532.106	-173.881	0.191	-0.007
-531.091	-111.140	-0.155	0.041
-530.077	-51.878	0.163	0.099
-529.062	-5.208	-0.415	-0.375
-528.048	-81.802	-0.362	-0.155
-527.033	-61.823	0.045	0.025
-526.018	-24.132	-0.110	-0.086
-525.004	800.000	0.083	0.403
-523.989	-135.146	0.327	-0.051
-522.975	-200.000	-0.041	0.254
-521.960	-128.630	-0.369	-0.068
-520.945	-141.993	0.313	-0.041
-519.931	-200.000	0.003	0.077
-518.916	-63.064	-0.092	-0.050
-517.902	162.393	-0.150	0.277
-516.887	3.991	-0.386	0.371
-515.872	-41.530	-0.114	-0.077
-514.858	-200.000	-0.045	0.278
-513.843	-200.000	0.051	0.465
-512.829	-13.335	0.248	-0.211
-511.814	-108.386	-0.200	0.056
-510.799	-200.000	-0.035	0.301
-509.785	-200.000	0.040	0.514
-508.770	1.219	0.116	0.110
-507.756	-34.852	-0.122	0.087
-506.741	800.000	-0.036	-0.183
-505.726	47.185	-0.298	-0.364
-504.712	800.000	0.044	-0.229
-503.697	-45.745	0.373	-0.241
-502.683	-6.820	-0.142	0.127
-501.668	188.713	-0.099	-0.196
-500.653	-200.000	0.028	-0.287
-499.639	378.367	0.143	0.385
-498.624	-200.000	-0.016	-0.224
-497.610	171.318	0.094	-0.177
-496.595	-154.978	0.453	0.039
-495.581	16.384	0.118	0.122
-494.566	-10.108	0.276	0.241
-493.551	376.666	-0.157	0.422
-492.537	-87.866	0.492	0.193
-491.522	-200.000	-0.021	0.265
-490.508	-57.742	-0.386	-0.221
-489.493	-93.832	-0.301	0.108
-488.478	138.707	0.074	-0.127
-487.464	-33.372	0.252	-0.183
-486.449	-171.000	-0.380	-0.017
-485.435	-152.177	0.098	0.009
-484.420	467.327	0.108	0.318
-483.405	800.000	0.104	0.502
-482.391	-104.727	-0.145	0.044
-481.376	-200.000	-0.012	-0.156
-480.362	-163.043	-0.393	0.025
-479.347	265.789	0.049	-0.113
-478.332	-200.000	0.017	0.174
-477.318	-147.233	0.062	-0.007
-476.303	-139.507	0.202	0.028
-475.289	272.167	0.170	-0.395
-474.274	78.397	0.396	0.556
-473.259	-150.452	-0.155	-0.015
-472.245	-145.503	0.147	0.017
-471.230	62.061	0.102	0.134
-470.216	-200.000	-0.032	0.281
-469.201	-159.182	0.201	-0.015
-468.186	-157.531	0.133	-0.010
-467.172	395.975	-0.027	-0.075
-466.157	-24.360	0.113	0.088
-465.143	20.797	-0.237	-0.252
-464.128	281.152	0.031	0.073
-463.113	-123.868	0.312	-0.064
-462.099	-60.480	-0.288	-0.160
-461.084	-155.715	0.172	0.014
-460.070	-118.647	0.401	0.092
-459.055	-142.681	-0.325	-0.041
-458.040	-29.918	0.093	-0.069
-457.026	-113.956	0.604	0.153
-456.011	107.852	0.125	-0.195
-454.997	-70.990	0.447	-0.219
-453.982	-145.207	-0.453	0.053
-452.968	94.744	-0.187	0.279
-451.953	-183.442	-0.466	0.010
-450.938	143.756	0.307	0.537
-449.924	-200.000	-0.016	-0.228
-448.909	-200.000	-0.051	0.427
-447.895	-178.598	0.228	-0.007
-446.880	-200.000	0.009	-0.104
-445.865	-5.174	0.177	-0.160
-444.851	-113.333	0.410	0.105
-443.836	-66.935	-0.161	0.083
-442.822	800.000	-0.062	-0.225
-441.807	216.458	0.181	0.378
-440.792	448.384	-0.093	-0.269
-439.778	337.623	0.054	0.137
-438.763	35.128	0.345	0.396
-437.749	-137.788	-0.151	0.022
-436.734	-5.489	0.068	0.061
-435.719	-29.078	-0.287	0.216
-434.705	51.586	0.341	-0.425
-433.690	-98.721	0.185	0.061
-432.676	107.822	0.050	0.078
-431.661	-135.167	0.273	0.043
-430.646	-81.893	-0.318	0.136
-429.632	165.586	0.235	-0.436
-428.617	800.000	-0.064	0.348
-427.603	800.000	0.075	-0.281
-426.588	-40.534	-0.585	-0.397
-425.573	38.225	-0.118	0.138
-424.559	137.168	0.068	0.117
-423.544	-100.691	-0.213	-0.068
-422.530	32.384	-0.241	-0.273
-421.515	-200.000	0.025	-0.205
-420.500	-62.758	0.356	0.192
-419.486	24.348	0.237	0.256
-418.471	-120.494	0.129	-0.029
-417.457	-62.045	0.426	-0.232
-416.442	111.363	-0.459	0.726
-415.428	-128.217	0.062	0.012
-414.413	-178.430	0.313	0.009
-413.398	-45.333	-0.167	-0.108
-412.384	-112.376	0.370	0.096
-411.369	0.577	0.518	0.485
-410.355	-36.131	-0.463	0.327
-409.340	-200.000	0.028	0.246
-408.325	676.358	0.071	-0.241
-407.311	193.044	-0.078	-0.155
-406.296	-185.323	-0.385	-0.008
-405.282	19.088	-0.221	-0.232
-404.267	159.911	-0.016	-0.028
-403.252	36.157	0.319	-0.368
-402.238	-200.000	-0.005	-0.091
-401.223	-13.607	0.282	0.239
-400.209	-200.000	-0.572	0.003
-399.194	-109.776	-0.384	0.105
-398.179	-118.874	-0.376	-0.086
-397.165	43.154	-0.209	-0.249
-396.150	-84.505	0.276	-0.114
-395.136	117.608	0.185	-0.298
-394.121	-106.816	0.288	-0.083
-393.106	-2.601	0.102	-0.093
-392.092	-131.725	-0.211	0.036
-391.077	-68.162	-0.682	-0.346
-390.063	202.852	-0.077	-0.156
-389.048	-129.949	0.300	-0.053
-388.033	4.427	0.100	0.096
-387.019	-158.408	0.090	-0.007
-386.004	75.751	0.180	0.249
-384.990	-200.000	0.000	-0.110
-383.975	-144.133	0.164	0.020
-382.960	-100.401	-0.453	-0.146
-381.946	-103.156	0.263	0.081
-380.931	-85.576	0.162	0.066
-379.917	52.292	0.099	-0.123
-378.902	-200.000	0.024	0.228
-377.888	-33.811	0.063	-0.046
-376.873	-200.000	0.634	0.002
-375.858	778.794	-0.082	-0.293
-374.844	33.556	0.249	-0.283
-373.829	24.491	-0.138	-0.149
-372.815	-57.375	0.208	0.119
-371.800	-180.758	0.516	-0.013
-370.785	800.000	0.075	0.281
-369.771	190.313	-0.071	0.139
-368.756	291.953	0.130	0.309
-367.742	800.000	0.109	0.490
-366.727	800.000	0.070	0.259
-365.712	-134.448	-0.155	-0.025
-364.698	-48.351	0.349	0.219
-363.683	-200.000	0.070	-0.452
-362.669	-86.784	-0.172	-0.068
-361.654	-145.833	0.104	0.012
-360.639	-102.573	-0.418	0.130
-359.625	-200.000	-0.025	0.378
-358.610	-20.573	-0.184	-0.147
-357.596	800.000	-0.040	0.183
-356.581	-200.000	0.016	0.364
-355.566	71.816	0.208	-0.282
-354.552	183.260	0.165	-0.319
-353.537	-86.377	0.238	-0.095
-352.523	-3.645	-0.215	0.195
-351.508	44.333	0.110	0.132
-350.493	800.000	-0.026	0.121
-349.479	-200.000	-0.019	-0.118
-348.464	505.985	0.121	0.368
-347.450	-136.036	-0.222	-0.034
-346.435	139.843	-0.226	0.391
-345.420	77.307	0.039	-0.054
-344.406	-123.916	-0.248	-0.050
-343.391	38.983	0.437	0.510
-342.377	-117.771	-0.154	-0.036
-341.362	495.931	0.058	-0.174
-340.348	3.673	-0.221	-0.210
-339.333	-36.795	0.178	-0.124
-338.318	28.201	-0.106	0.117
-337.304	63.377	0.148	0.193
-336.289	102.481	-0.405	-0.619
-335.275	-152.503	-0.448	-0.041
-334.260	-24.603	0.306	-0.237
-333.245	291.918	0.068	-0.161
-332.231	-62.597	-0.224	0.121
-331.216	309.003	0.099	0.243
-330.202	88.297	-0.063	-0.091
-329.187	-132.167	0.078	-0.013
-328.172	138.181	-0.074	0.127
-327.158	-1.919	0.118	-0.108
-326.143	6.386	-0.351	0.340
-325.129	-32.267	0.315	0.229
-324.114	-58.930	0.457	-0.257
-323.099	-11.156	0.096	-0.083
-322.085	-55.983	-0.378	-0.219
-321.070	-73.904	0.235	-0.111
-320.056	4.681	-0.232	0.222
-319.041	-3.087	-0.358	0.326
-318.026	319.907	-0.221	0.549
-317.012	-200.000	0.719	0.003
-315.997	-39.315	-0.206	0.141
-314.983	-142.276	-0.402	0.051
-313.968	326.508	-0.180	-0.451
-312.953	800.000	0.027	0.126
-311.939	22.561	0.403	-0.430
-310.924	-200.000	0.034	-0.814
-309.910	-77.283	-0.519	0.234
-308.895	-143.894	-0.404	-0.049
-307.880	-38.238	-0.369	0.254
-306.866	32.274	-0.423	0.476
-305.851	-115.122	0.410	-0.101
-304.837	7.944	-0.307	0.300
-303.822	-136.018	0.350	-0.053
-302.807	114.403	0.159	0.253
-301.793	-200.000	-0.013	0.157
-300.778	-83.750	-0.171	0.071
-299.764	-113.043	-0.273	-0.070
-298.749	-132.915	-0.510	-0.084
-297.735	-200.000	-0.183	0.000
-296.720	-113.251	-0.225	0.057
-295.705	27.332	0.307	-0.337
-294.691	-131.864	-0.232	0.039
-293.676	52.035	0.020	0.024
-292.662	-159.793	-0.096	-0.007
-291.647	800.000	-0.038	0.153
-290.632	273.962	-0.149	-0.344
-289.618	-105.757	-0.070	-0.020
-288.603	592.469	0.105	-0.340
-287.589	83.937	0.107	-0.153
-286.574	-30.970	0.190	-0.139
-285.559	-59.126	-0.472	0.264
-284.545	-57.341	-0.338	-0.193
-283.530	176.303	-0.120	-0.228
-282.516	-200.000	0.050	0.295
-281.501	-134.726	0.251	0.039
-280.486	-79.712	0.471	0.206
-279.472	800.000	-0.083	-0.322
-278.457	233.805	-0.279	-0.600
-277.443	-55.432	-0.167	0.097
-276.428	-150.224	-0.565	-0.056
-275.413	800.000	0.077	-0.313
-274.399	-94.131	0.623	0.221
-273.384	-20.668	-0.293	0.234
-272.370	154.072	0.151	0.271
-271.355	-3.678	-0.256	-0.231
-270.340	102.196	-0.188	-0.286
-269.326	17.429	-0.112	0.116
-268.311	681.025	0.178	-0.608
-267.297	-155.528	-0.280	-0.023
-266.282	800.000	0.125	0.646
-265.267	114.101	-0.124	0.196
-264.253	-200.000	0.004	-0.182
-263.238	466.375	0.040	-0.117
-262.224	150.224	-0.157	0.278
-261.209	-53.800	0.239	0.141
-260.195	-47.376	0.100	-0.063
-259.180	-195.548	0.480	-0.004
-258.165	-73.380	0.460	0.218
-257.151	169.513	0.244	-0.455
-256.136	800.000	0.099	0.545
-255.122	-32.705	0.088	0.064
-254.107	-62.192	0.326	0.176
-253.092	-151.514	0.587	-0.056
-252.078	76.447	-0.217	0.300
-251.063	-22.295	0.297	0.234
-250.049	-21.268	0.179	-0.142
-249.034	44.488	0.113	0.135
-248.019	578.100	0.173	0.555
-247.005	-46.463	0.407	-0.259
-245.990	-15.458	-0.087	-0.073
-244.976	-93.571	0.204	0.073
-243.961	89.553	-0.056	-0.082
-242.946	180.644	-0.425	-0.814
-241.932	-26.056	-0.424	-0.323
-240.917	101.434	-0.202	0.306
-239.903	-23.980	0.289	0.224
-238.888	55.940	0.235	-0.297
-237.873	800.000	-0.048	0.181
-236.859	585.370	-0.030	0.096
-235.844	-54.460	0.140	0.082
-234.830	-23.242	0.404	-0.316
-233.815	-99.853	-0.417	0.135
-232.800	-153.371	0.335	-0.030
-231.786	379.718	-0.073	-0.196
-230.771	-98.626	0.183	0.060
-229.757	-200.000	-0.013	-0.251
-228.742	-56.669	-0.336	0.193
-227.727	-75.754	0.145	-0.066
-226.713	226.652	-0.107	0.226
-225.698	-200.000	0.001	0.330
-224.684	-195.687	-0.540	-0.005
-223.669	37.824	0.285	0.329
-222.655	69.526	0.062	-0.084
-221.640	3.505	-0.224	0.212
-220.625	-32.218	-0.274	-0.198
-219.611	151.729	-0.209	0.371
-218.596	93.216	-0.114	-0.167
-217.582	43.497	-0.193	0.229
-216.567	25.258	0.239	-0.258
-215.552	800.000	-0.098	0.409
-214.538	715.580	-0.046	0.159
-213.523	4.202	-0.534	-0.507
-212.509	47.537	-0.227	0.275
-211.494	-20.293	-0.217	0.173
-210.479	403.963	0.046	0.128
-209.465	-59.966	0.394	0.218
-208.450	-200.000	-0.038	0.271
-207.436	205.821	-0.209	-0.423
-206.421	434.027	-0.139	-0.394
-205.406	46.144	-0.125	-0.150
-204.392	33.634	-0.285	-0.321
-203.377	-136.887	0.348	-0.051
-202.363	-12.335	0.196	-0.166
-201.348	-200.000	-0.052	0.422
-200.333	-110.701	-0.380	-0.101
-199.319	17.006	-0.083	0.085
-198.304	204.476	-0.136	0.274
-197.290	482.961	-0.149	-0.443
-196.275	-121.810	0.364	0.077
-195.260	5.830	0.167	-0.161
-194.246	-149.331	0.233	0.024
-193.231	800.000	-0.103	0.420
-192.217	197.498	-0.043	0.085
-191.202	-9.402	-0.259	-0.224
-190.187	-13.722	-0.045	-0.037
-189.173	-187.207	0.721	0.012
-188.158	260.166	0.148	0.334
-187.144	-136.271	-0.288	-0.043
-186.129	-104.644	0.382	0.114
-185.114	-71.992	-0.450	0.216
-184.100	83.885	0.094	-0.134
-183.085	-48.949	-0.027	-0.017
-182.071	-107.538	0.338	-0.095
-181.056	185.828	0.274	-0.530
-180.042	182.449	-0.091	-0.175
-179.027	147.358	-0.114	-0.200
-178.012	-87.949	0.230	0.089
-176.998	-153.863	0.413	0.036
-175.983	-36.775	-0.327	0.227
-174.969	-18.812	-0.123	-0.100
-173.954	-43.843	-0.319	0.208
-172.939	-200.000	0.018	0.206
-171.925	136.191	0.278	-0.471
-170.910	76.364	0.124	-0.171
-169.896	-118.786	-0.200	0.045
-168.881	-109.964	0.232	-0.063
-167.866	607.616	0.143	-0.465
-166.852	-135.167	0.257	-0.040
-165.837	-68.440	-0.013	-0.006
-164.823	-53.298	-0.026	-0.015
-163.808	-108.219	0.139	-0.039
-162.793	-200.000	0.111	-0.749
-161.779	800.000	0.008	-0.038
-160.764	12.919	-0.126	0.126
-159.750	0.287	0.515	-0.476
-158.735	93.923	0.245	-0.361
-157.720	-168.079	0.245	0.012
-156.706	-156.756	0.096	0.008
-155.691	-125.486	0.684	0.134
-154.677	757.447	0.099	0.349
-153.662	205.340	0.062	-0.126
-152.647	-93.651	0.231	0.082
-151.633	-126.348	-0.329	0.063
-150.618	-97.398	-0.470	0.158
-149.604	-136.015	0.559	-0.084
-148.589	4.971	0.411	-0.392
-147.574	-200.000	0.022	-0.236
-146.560	142.560	0.187	0.323
-145.545	-109.113	-0.535	-0.146
-144.531	-53.705	-0.328	-0.193
-143.516	-85.545	0.487	-0.195
-142.502	410.533	0.015	-0.040
-141.487	31.753	0.101	0.113
-140.472	4.350	0.191	-0.182
-139.458	537.355	-0.025	0.077
-138.443	73.344	0.135	-0.184
-137.429	-200.000	-0.061	-0.822
-136.414	-152.776	-0.386	-0.035
-135.399	-200.000	0.265	-0.002
-134.385	37.430	-0.154	0.177
-133.370	-83.408	-0.407	0.168
-132.356	-153.827	-0.044	-0.004
-131.341	30.783	0.161	-0.178
-130.326	378.376	-0.109	0.290
-129.312	-39.249	-0.142	-0.096
-128.297	-3.284	-0.248	-0.224
-127.283	-6.046	-0.159	0.140
-126.268	-123.438	-0.430	-0.088
-125.253	-0.365	0.145	0.133
-124.239	-200.000	0.026	-0.265
-123.224	-143.631	0.304	-0.037
-122.210	350.636	0.248	-0.637
