DTS Sentinel unit serial number:	SN409020Multiplexer serial number:	ORYXHardware model number:	OX4-SRSoftware version number:	ORYX F/W v3.00 Oryx Data Collector v3.7.2.0data status	okinstallation	HaddamTimeLapsedifferential loss correction	single-endedforward channel	channel 3reverse channel	N/Adate	2011/06/21time	20:01:17forward acquisition time	30.00reverse acquisition time	0.00gamma	498.7831k internal	0.1787k external	0.1787temperature offset calibration	1.0074default loss term (dB/km)	0.3790temperature slope calibration	1.3530multiplexer offset coefficient	1.0000multiplexer slope coefficient	1.0000fibre end	0.00T internal ref (°C)	32.34T ext. ref 1 (°C)	23.88T ext. ref 2 (°C)	0.03length (m)	temperature (°C)	Stokes	anti-Stokes-747.200	32.974	-0.356	-0.401
-746.185	800.000	0.032	0.162
-745.171	800.000	-0.047	-0.247
-744.156	800.000	0.037	0.159
-743.142	-183.447	-0.278	-0.006
-742.127	50.987	0.084	0.104
-741.112	-18.657	0.352	-0.285
-740.098	20.611	-0.076	0.080
-739.083	85.263	-0.189	-0.271
-738.069	165.005	0.084	0.155
-737.054	-6.841	0.062	-0.055
-736.039	-48.502	0.212	-0.132
-735.025	-200.000	-0.003	-0.208
-734.010	278.607	0.140	-0.325
-732.996	800.000	-0.101	-0.554
-731.981	-12.828	0.350	-0.296
-730.966	-30.758	0.343	0.252
-729.952	19.314	-0.087	-0.091
-728.937	-113.049	-0.290	-0.074
-727.923	117.773	-0.189	0.303
-726.908	-153.619	-0.362	0.032
-725.894	-86.184	-0.231	-0.092
-724.879	-200.000	-0.019	0.176
-723.864	-40.762	-0.288	0.194
-722.850	-106.183	0.283	0.082
-721.835	113.575	-0.025	-0.040
-720.821	67.894	-0.315	-0.419
-719.806	121.537	-0.222	0.361
-718.791	4.914	0.028	-0.027
-717.777	-143.317	-0.331	-0.041
-716.762	71.888	-0.104	-0.141
-715.748	-6.238	-0.181	-0.161
-714.733	-37.643	-0.323	-0.223
-713.718	244.660	-0.039	-0.085
-712.704	169.636	-0.233	-0.435
-711.689	-200.000	-0.007	-0.141
-710.675	1.374	0.150	0.140
-709.660	-110.415	0.308	0.082
-708.645	261.311	-0.090	-0.203
-707.631	111.245	-0.019	0.029
-706.616	800.000	0.063	-0.326
-705.602	800.000	0.103	-0.409
-704.587	42.972	-0.166	-0.197
-703.572	-98.313	-0.248	-0.082
-702.558	329.131	0.109	-0.274
-701.543	-200.000	-0.046	0.558
-700.529	-61.802	0.420	0.228
-699.514	397.046	-0.074	0.201
-698.499	788.904	-0.057	0.203
-697.485	-18.543	0.264	-0.214
-696.470	-86.400	0.511	0.203
-695.456	32.456	-0.131	0.147
-694.441	132.730	0.198	-0.333
-693.426	800.000	0.102	0.442
-692.412	-53.973	-0.155	-0.091
-691.397	262.274	0.085	-0.192
-690.383	304.449	-0.178	0.432
-689.368	441.904	-0.026	-0.074
-688.354	-67.797	-0.387	-0.196
-687.339	272.836	-0.174	-0.401
-686.324	800.000	0.022	0.106
-685.310	-148.731	-0.369	0.038
-684.295	-7.731	-0.169	0.148
-683.281	-66.459	-0.186	-0.095
-682.266	-78.665	-0.196	0.086
-681.251	-200.000	-0.019	-0.201
-680.237	-23.659	-0.088	0.069
-679.222	800.000	0.027	-0.116
-678.208	-133.383	-0.582	-0.094
-677.193	-200.000	0.013	0.292
-676.178	-125.268	0.071	-0.014
-675.164	-138.702	0.276	0.039
-674.149	800.000	-0.134	-0.507
-673.135	-42.710	0.411	-0.271
-672.120	110.849	0.183	0.286
-671.105	136.211	0.074	-0.126
-670.091	-118.400	-0.259	-0.059
-669.076	-117.840	0.221	0.051
-668.062	128.185	0.213	-0.352
-667.047	-200.000	-0.013	-0.273
-666.032	500.710	-0.087	0.262
-665.018	77.239	-0.248	-0.342
-664.003	-200.000	-0.042	0.327
-662.989	102.484	-0.119	0.180
-661.974	-174.993	0.216	0.008
-660.959	85.714	-0.066	0.094
-659.945	-126.857	-0.246	-0.047
-658.930	-200.000	0.004	0.524
-657.916	-85.579	0.432	-0.173
-656.901	-146.576	0.673	0.075
-655.886	-200.000	0.027	-0.228
-654.872	731.842	0.114	0.397
-653.857	32.722	0.107	-0.120
-652.843	-16.339	-0.490	0.403
-651.828	-129.324	-0.135	-0.024
-650.814	-43.542	-0.487	0.318
-649.799	-185.361	0.106	0.002
-648.784	-147.571	-0.049	0.005
-647.770	-117.971	-0.603	0.139
-646.755	214.730	-0.097	0.200
-645.741	-15.872	0.174	-0.144
-644.726	-140.466	0.446	-0.060
-643.711	48.856	0.108	-0.131
-642.697	-13.340	-0.124	0.104
-641.682	-180.111	-0.406	-0.011
-640.668	-149.228	-0.273	0.028
-639.653	-34.461	0.202	0.143
-638.638	244.348	0.202	-0.441
-637.624	800.000	-0.030	0.109
-636.609	-92.624	0.123	0.045
-635.595	89.953	-0.273	0.396
-634.580	-99.253	-0.184	0.060
-633.565	-194.942	0.226	-0.002
-632.551	281.240	-0.196	0.457
-631.536	-26.250	-0.203	-0.154
-630.522	47.957	-0.048	-0.058
-629.507	-101.096	0.638	0.201
-628.492	-28.968	0.192	0.143
-627.478	-200.000	0.043	0.273
-626.463	800.000	-0.087	-0.492
-625.449	-82.878	-0.380	-0.158
-624.434	-16.100	-0.318	-0.261
-623.419	18.008	0.232	0.240
-622.405	-114.619	-0.326	-0.080
-621.390	-200.000	-0.035	0.216
-620.376	39.139	0.110	0.128
-619.361	-200.000	-0.007	-0.251
-618.346	-200.000	-0.065	-0.492
-617.332	-28.037	0.182	-0.136
-616.317	89.024	0.102	0.147
-615.303	-126.130	0.205	-0.039
-614.288	14.414	-0.204	-0.206
-613.273	163.807	-0.101	0.184
-612.259	-26.359	0.282	-0.214
-611.244	-171.746	-0.341	0.014
-610.230	81.718	0.266	-0.373
-609.215	-98.543	0.132	-0.043
-608.201	271.715	-0.056	0.128
-607.186	-200.000	-0.045	0.458
-606.171	140.635	0.273	0.468
-605.157	-200.000	-0.056	0.426
-604.142	224.438	-0.092	-0.193
-603.128	-144.464	-0.233	0.028
-602.113	107.577	0.121	0.187
-601.098	-92.597	-0.298	0.107
-600.084	-200.000	0.012	-0.140
-599.069	-48.608	-0.303	0.188
-598.055	-86.161	0.390	0.155
-597.040	800.000	-0.068	0.270
-596.025	171.481	0.020	-0.037
-595.011	-36.915	0.442	-0.306
-593.996	15.084	-0.299	0.303
-592.982	-200.000	0.032	0.321
-591.967	331.163	0.038	-0.096
-590.952	-96.765	0.521	-0.176
-589.938	23.418	-0.167	-0.177
-588.923	57.975	-0.193	0.245
-587.909	-200.000	0.015	-0.176
-586.894	-165.100	-0.177	0.010
-585.879	-86.232	-0.172	-0.068
-584.865	-107.949	-0.089	0.025
-583.850	2.475	-0.340	-0.318
-582.836	5.327	0.394	-0.376
-581.821	-200.000	-0.022	0.149
-580.806	80.530	-0.076	0.106
-579.792	-141.439	-0.259	0.034
-578.777	174.410	-0.039	-0.074
-577.763	-17.346	-0.233	-0.190
-576.748	-186.427	0.332	0.006
-575.733	-163.367	0.617	-0.037
-574.719	-124.536	-0.094	-0.019
-573.704	144.416	-0.189	0.327
-572.690	-169.905	-0.189	-0.009
-571.675	-73.355	-0.130	0.061
-570.661	29.970	0.235	0.259
-569.646	-64.821	0.082	-0.043
-568.631	-73.235	0.139	-0.065
-567.617	-165.250	0.389	-0.022
-566.602	81.779	-0.095	0.133
-565.588	-14.920	0.153	-0.126
-564.573	-146.712	-0.480	-0.053
-563.558	-37.109	-0.454	0.314
-562.544	280.684	-0.089	-0.206
-561.529	-94.674	-0.520	0.182
-560.515	-6.378	0.160	0.141
-559.500	139.739	-0.142	-0.242
-558.485	152.295	-0.039	0.068
-557.471	800.000	-0.094	-0.513
-556.456	36.006	-0.180	0.205
-555.442	635.011	-0.071	-0.233
-554.427	-70.435	-0.274	-0.134
-553.412	-200.000	0.027	-0.680
-552.398	665.326	-0.148	0.496
-551.383	-151.348	-0.745	0.071
-550.369	800.000	-0.043	-0.210
-549.354	48.443	-0.315	0.381
-548.339	56.485	-0.237	0.298
-547.325	-176.584	-0.468	-0.015
-546.310	317.865	-0.111	0.272
-545.296	-88.239	-0.105	0.040
-544.281	-0.883	0.136	0.125
-543.266	53.970	0.077	0.096
-542.252	84.676	0.142	-0.202
-541.237	-108.178	0.240	0.067
-540.223	-93.154	-0.494	0.176
-539.208	233.046	0.140	-0.298
-538.193	-60.165	-0.321	-0.176
-537.179	-15.589	-0.467	-0.384
-536.164	97.757	0.121	-0.180
-535.150	800.000	0.209	-0.768
-534.135	133.886	-0.050	-0.084
-533.121	-156.452	0.202	0.016
-532.106	638.005	0.059	0.195
-531.091	-200.000	-0.022	0.313
-530.077	-200.000	0.002	-0.269
-529.062	-114.070	-0.118	-0.029
-528.048	1.385	0.159	0.148
-527.033	234.253	-0.236	-0.504
-526.018	120.697	0.045	0.073
-525.004	-196.433	0.315	0.003
-523.989	33.954	0.308	0.346
-522.975	2.261	-0.186	-0.174
-521.960	189.091	-0.119	0.231
-520.945	-74.041	-0.205	0.095
-519.931	257.991	0.043	-0.095
-518.916	-136.314	0.185	0.028
-517.902	-136.794	0.301	0.044
-516.887	-113.838	0.017	0.004
-515.872	-85.748	-0.255	0.101
-514.858	529.597	0.041	-0.126
-513.843	-200.000	0.053	-0.402
-512.829	-160.384	0.350	0.024
-511.814	-24.701	-0.101	-0.077
-510.799	-35.952	-0.524	-0.365
-509.785	244.731	-0.039	-0.084
-508.770	-0.894	-0.022	0.020
-507.756	-91.154	-0.175	0.064
-506.741	-200.000	-0.021	0.289
-505.726	800.000	0.048	0.241
-504.712	-106.172	0.191	0.055
-503.697	40.508	-0.158	0.184
-502.683	-200.000	0.009	0.416
-501.668	55.092	-0.193	0.240
-500.653	-191.641	0.386	0.005
-499.639	-200.000	-0.016	-0.431
-498.624	-200.000	0.032	0.471
-497.610	-42.364	-0.096	0.063
-496.595	-175.212	0.177	-0.006
-495.581	-165.971	-0.250	-0.014
-494.566	27.210	-0.388	-0.420
-493.551	-76.058	-0.344	-0.156
-492.537	-76.638	-0.476	-0.214
-491.522	-200.000	0.044	-0.449
-490.508	316.657	0.069	0.169
-489.493	86.982	0.178	0.254
-488.478	361.813	-0.124	-0.322
-487.464	162.628	-0.253	-0.458
-486.449	-109.715	0.235	-0.063
-485.435	-30.737	-0.122	0.089
-484.420	64.422	-0.133	-0.173
-483.405	118.655	-0.238	0.379
-482.391	393.060	0.102	0.275
-481.376	453.388	0.124	0.356
-480.362	-35.525	0.264	0.184
-479.347	3.937	-0.258	0.243
-478.332	134.609	0.166	0.278
-477.318	246.042	0.063	-0.138
-476.303	-52.466	-0.430	-0.255
-475.289	800.000	-0.073	0.349
-474.274	-200.000	0.006	-0.199
-473.259	37.137	-0.271	-0.309
-472.245	-120.646	-0.163	-0.035
-471.230	-81.380	0.646	-0.273
-470.216	-65.666	0.132	0.068
-469.201	-200.000	0.018	-0.239
-468.186	-200.000	0.025	-0.291
-467.172	70.857	0.244	-0.326
-466.157	-157.367	0.151	0.012
-465.143	-13.395	0.262	0.219
-464.128	80.582	0.090	0.125
-463.113	-88.458	0.672	-0.257
-462.099	166.453	-0.170	0.310
-461.084	262.071	-0.155	0.346
-460.070	-16.484	-0.115	-0.094
-459.055	-73.990	-0.059	-0.028
-458.040	277.740	-0.057	-0.132
-457.026	-52.734	-0.425	0.252
-456.011	-121.051	0.042	0.009
-454.997	-8.121	-0.146	0.126
-453.982	800.000	0.073	0.370
-452.968	-61.460	-0.413	-0.222
-451.953	380.438	0.194	-0.514
-450.938	-200.000	-0.019	-0.350
-449.924	113.935	0.316	-0.495
-448.909	18.159	-0.230	0.236
-447.895	-200.000	0.021	0.124
-446.880	549.792	-0.115	-0.358
-445.865	-91.236	-0.384	-0.141
-444.851	418.599	0.124	-0.342
-443.836	99.797	-0.092	0.138
-442.822	800.000	0.117	0.527
-441.807	-5.181	-0.486	0.429
-440.792	230.865	-0.071	0.149
-439.778	324.915	-0.186	0.460
-438.763	165.363	0.165	-0.300
-437.749	103.489	-0.074	0.112
-436.734	800.000	-0.133	-0.667
-435.719	-200.000	0.002	0.108
-434.705	17.573	0.109	0.111
-433.690	800.000	0.115	0.585
-432.676	43.454	0.268	-0.315
-431.661	-140.059	-0.229	-0.031
-430.646	-91.765	-0.596	0.217
-429.632	32.588	0.387	0.430
-428.617	-167.990	-0.308	0.015
-427.603	-200.000	-0.024	0.367
-426.588	-120.672	0.155	-0.033
-425.573	633.382	-0.130	0.427
-424.559	-200.000	-0.001	-0.198
-423.544	56.632	0.078	-0.098
-422.530	102.554	-0.377	-0.567
-421.515	92.755	-0.154	-0.223
-420.500	723.166	-0.049	0.170
-419.486	-28.571	0.291	0.215
-418.471	9.393	-0.138	0.134
-417.457	-97.558	0.480	0.159
-416.442	-31.130	-0.125	-0.091
-415.428	-31.670	-0.163	0.118
-414.413	800.000	-0.095	0.404
-413.398	-47.899	0.290	0.180
-412.384	221.611	0.168	-0.348
-411.369	168.575	0.087	0.159
-410.355	-200.000	-0.019	-0.158
-409.340	141.900	0.197	0.337
-408.325	240.895	-0.040	0.085
-407.311	-13.536	0.182	0.151
-406.296	-122.409	0.372	0.077
-405.282	-9.172	0.331	0.284
-404.267	-100.057	0.376	-0.119
-403.252	187.897	-0.118	-0.228
-402.238	84.675	-0.378	0.532
-401.223	-113.464	-0.418	0.104
-400.209	7.985	-0.273	-0.262
-399.194	111.082	0.074	0.115
-398.179	-200.000	0.009	0.185
-397.165	-148.580	0.870	-0.090
-396.150	161.709	-0.257	0.463
-395.136	103.334	-0.112	0.169
-394.121	13.826	-0.367	-0.366
-393.106	-139.210	-0.311	-0.043
-392.092	-30.211	-0.233	-0.170
-391.077	130.820	0.214	0.354
-390.063	269.983	-0.104	0.235
-389.048	27.025	-0.313	0.337
-388.033	-2.147	-0.172	-0.155
-387.019	-41.551	0.516	0.340
-386.004	-29.306	-0.259	-0.190
-384.990	-11.931	-0.292	-0.245
-383.975	4.354	-0.321	-0.301
-382.960	260.875	-0.062	0.138
-381.946	31.244	-0.279	-0.307
-380.931	-200.000	-0.007	-0.055
-379.917	-62.772	0.065	0.034
-378.902	-32.078	-0.245	-0.176
-377.888	-200.000	-0.002	-0.049
-376.873	-58.543	0.315	-0.175
-375.858	-29.613	0.494	-0.361
-374.844	80.111	-0.131	-0.182
-373.829	-36.007	-0.108	-0.075
-372.815	-69.853	-0.293	0.143
-371.800	90.910	-0.071	0.102
-370.785	42.422	0.112	0.131
-369.771	-159.707	0.357	-0.025
-368.756	642.759	0.067	0.219
-367.742	-154.705	-0.270	0.023
-366.727	-70.109	-0.116	-0.056
-365.712	-27.251	0.370	0.276
-364.698	39.596	-0.139	0.159
-363.683	40.021	-0.269	-0.310
-362.669	-200.000	-0.015	0.119
-361.654	800.000	0.075	0.350
-360.639	-200.000	-0.005	-0.200
-359.625	6.475	0.174	-0.165
-358.610	-59.489	0.634	-0.348
-357.596	-137.540	0.233	0.033
-356.581	-173.954	-0.500	-0.019
-355.566	-124.582	-0.223	0.044
-354.552	-130.809	0.227	-0.039
-353.537	85.604	0.244	-0.345
-352.523	17.060	0.391	0.397
-351.508	50.945	-0.243	-0.296
-350.493	-7.376	0.050	-0.043
-349.479	-102.430	0.207	-0.063
-348.464	-26.783	-0.236	0.177
-347.450	800.000	0.101	-0.406
-346.435	-177.649	0.590	0.018
-345.420	170.554	0.070	-0.128
-344.406	83.768	0.082	-0.115
-343.391	800.000	0.027	0.140
-342.377	-192.097	-0.375	0.005
-341.362	-47.046	-0.306	0.191
-340.348	5.529	0.243	-0.230
-339.333	-174.962	0.338	-0.012
-338.318	-69.563	0.218	0.107
-337.304	-25.821	-0.074	-0.056
-336.289	-102.625	0.207	-0.063
-335.275	-75.394	0.232	-0.105
-334.260	375.971	-0.020	0.053
-333.245	84.063	0.246	0.345
-332.231	-121.192	0.720	-0.153
-331.216	-75.653	0.154	-0.070
-330.202	-200.000	0.008	0.319
-329.187	242.552	-0.312	0.672
-328.172	-37.072	-0.567	-0.388
-327.158	-8.957	-0.278	-0.238
-326.143	-82.656	0.114	0.047
-325.129	-75.026	0.364	-0.166
-324.114	-200.000	-0.045	-0.424
-323.099	31.999	0.163	-0.180
-322.085	-32.084	0.236	0.169
-321.070	38.086	0.304	0.347
-320.056	-106.748	0.407	0.115
-319.041	-38.021	-0.319	-0.216
-318.026	-104.803	0.079	-0.023
-317.012	-82.261	0.454	-0.188
-315.997	-166.681	-0.257	0.013
-314.983	601.296	0.069	-0.220
-313.968	-13.090	-0.431	-0.358
-312.953	-200.000	-0.030	-0.733
-311.939	-159.849	-0.436	-0.030
-310.924	68.302	-0.285	-0.374
-309.910	153.508	-0.048	-0.084
-308.895	24.823	0.271	0.288
-307.880	800.000	0.070	-0.306
-306.866	800.000	-0.098	0.401
-305.851	-115.886	-0.286	0.068
-304.837	-141.993	-0.053	0.007
-303.822	-55.355	0.452	0.259
-302.807	54.166	0.201	-0.247
-301.793	-200.000	-0.044	0.318
-300.778	180.970	0.177	0.333
-299.764	-30.128	0.159	-0.115
-298.749	-44.059	-0.062	0.040
-297.735	9.674	-0.162	-0.157
-296.720	-54.989	-0.267	-0.153
-295.705	-18.116	0.244	0.195
-294.691	-80.455	0.123	-0.052
-293.676	643.772	0.153	0.501
-292.662	125.813	-0.173	0.280
-291.647	31.187	-0.148	-0.162
-290.632	-124.117	-0.034	-0.007
-289.618	60.478	0.348	0.441
-288.603	-111.491	-0.324	-0.084
-287.589	-147.639	-0.212	-0.022
-286.574	151.371	0.154	-0.269
-285.559	-35.671	0.597	0.413
-284.545	-200.000	-0.041	0.363
-283.530	66.813	0.182	0.238
-282.516	-99.835	0.308	0.098
-281.501	62.979	-0.141	-0.181
-280.486	764.559	-0.050	0.174
-279.472	23.078	0.073	-0.077
-278.457	-144.940	0.310	0.036
-277.443	37.887	-0.094	-0.107
-276.428	-29.141	-0.396	-0.290
-275.413	181.107	-0.113	-0.212
-274.399	-73.282	0.126	0.059
-273.384	-62.826	-0.310	-0.163
-272.370	-200.000	0.103	-0.811
-271.355	157.201	-0.196	-0.348
-270.340	82.322	-0.170	0.236
-269.326	4.971	-0.231	0.217
-268.311	-89.489	-0.284	0.106
-267.297	-61.950	0.197	-0.105
-266.282	25.084	0.130	-0.137
-265.267	-73.611	0.260	-0.120
-264.253	339.621	0.157	-0.393
-263.238	358.103	0.154	-0.394
-262.224	800.000	0.079	-0.381
-261.209	289.488	-0.205	-0.477
-260.195	8.488	0.243	0.234
-259.180	214.316	0.088	0.179
-258.165	283.531	0.138	-0.318
-257.151	800.000	-0.162	0.587
-256.136	35.026	0.166	-0.186
-255.122	-57.394	-0.455	0.254
-254.107	800.000	-0.026	0.137
-253.092	339.535	0.195	-0.488
-252.078	800.000	-0.033	0.171
-251.063	-99.159	-0.419	-0.135
-250.049	-77.017	0.165	0.073
-249.034	-72.417	-0.349	0.164
-248.019	-25.939	-0.253	0.190
-247.005	-99.123	-0.613	-0.197
-245.990	800.000	-0.044	0.193
-244.976	-14.711	-0.320	-0.262
-243.961	128.508	0.148	0.241
-242.946	-43.445	-0.315	0.203
-241.932	-8.614	-0.299	-0.256
-240.917	-117.093	0.460	0.106
-239.903	350.587	-0.237	0.600
-238.888	-200.000	0.046	-0.315
-237.873	437.510	0.229	-0.640
-236.859	61.030	0.176	0.223
-235.844	-100.682	0.048	-0.015
-234.830	57.898	0.094	0.117
-233.815	-1.084	0.089	0.080
-232.800	150.651	0.103	0.180
-231.786	510.050	0.134	0.401
-230.771	-39.585	-0.152	0.101
-229.757	-82.005	0.284	-0.118
-228.742	37.929	-0.200	-0.227
-227.727	83.544	0.100	-0.140
-226.713	-200.000	-0.051	0.616
-225.698	-200.000	-0.022	0.212
-224.684	490.224	0.126	0.370
-223.669	800.000	0.066	0.243
-222.655	-75.219	0.467	-0.212
-221.640	166.792	0.096	0.174
-220.625	-119.581	0.437	-0.096
-219.611	729.910	-0.031	-0.107
-218.596	-63.106	0.366	-0.192
-217.582	-106.891	-0.651	0.183
-216.567	-48.990	0.500	-0.304
-215.552	71.772	0.179	-0.238
-214.538	-44.416	-0.031	-0.020
-213.523	-200.000	0.055	0.409
-212.509	6.520	-0.172	0.163
-211.494	800.000	-0.038	-0.142
-210.479	-131.184	-0.267	-0.045
-209.465	-82.844	0.376	0.154
-208.450	204.092	-0.092	0.183
-207.436	-145.222	0.450	0.051
-206.421	333.332	0.100	-0.249
-205.406	65.503	0.157	-0.202
-204.392	-147.092	0.062	-0.007
-203.377	-134.092	0.384	0.060
-202.363	800.000	0.110	-0.585
-201.348	-44.408	-0.184	-0.117
-200.333	800.000	-0.140	0.587
-199.319	-4.761	0.308	0.271
-198.304	-121.383	0.320	-0.067
-197.290	-130.154	-0.308	0.053
-196.275	18.006	-0.233	-0.237
-195.260	-200.000	-0.036	-0.334
-194.246	9.524	0.136	0.132
-193.231	365.946	0.274	0.708
-192.217	-200.000	0.017	-0.103
-191.202	300.529	-0.128	-0.303
-190.187	53.137	-0.076	0.093
-189.173	63.532	-0.200	-0.256
-188.158	-79.169	0.138	0.060
-187.144	-159.307	-0.158	-0.011
-186.129	64.512	0.237	-0.304
-185.114	158.911	0.154	-0.274
-184.100	208.045	0.141	-0.281
-183.085	-92.927	0.428	-0.151
-182.071	-32.010	-0.019	0.013
-181.056	-40.881	0.450	-0.296
-180.042	198.799	0.046	-0.090
-179.027	-32.779	0.187	-0.132
-178.012	-200.000	0.009	-0.265
-176.998	201.453	0.251	0.494
-175.983	-108.851	-0.233	-0.063
-174.969	589.822	-0.033	-0.104
-173.954	22.082	0.211	0.219
-172.939	-14.452	0.229	0.188
-171.925	-44.045	0.396	0.253
-170.910	-45.938	0.398	-0.249
-169.896	-121.556	-0.114	-0.024
-168.881	-91.171	0.303	-0.110
-167.866	152.140	-0.185	0.323
-166.852	-27.772	0.264	0.194
-165.837	98.129	0.104	0.153
-164.823	-16.747	0.342	0.275
-163.808	303.164	-0.145	0.343
-162.793	58.544	-0.318	0.397
-161.779	-142.023	-0.271	0.034
-160.764	-200.000	-0.037	-0.257
-159.750	-66.699	0.218	-0.109
-158.735	-23.047	-0.231	-0.176
-157.720	800.000	-0.032	-0.140
-156.706	-155.191	-0.470	0.038
-155.691	129.300	0.246	-0.401
-154.677	800.000	0.106	0.486
-153.662	-40.450	0.182	-0.120
-152.647	64.074	0.274	-0.351
-151.633	-137.836	-0.445	-0.063
-150.618	654.921	-0.076	-0.248
-149.604	214.121	0.142	-0.287
-148.589	-186.143	0.503	0.009
-147.574	-200.000	0.012	0.332
-146.560	-6.717	-0.168	-0.145
-145.545	-200.000	0.025	0.511
-144.531	-122.812	-0.165	0.034
-143.516	104.320	0.134	-0.201
-142.502	-188.318	-0.352	0.006
-141.487	800.000	0.086	0.479
-140.472	22.725	0.247	0.257
-139.458	-189.906	0.207	-0.003
-138.443	-137.759	-0.214	0.030
-137.429	-103.646	-0.139	-0.041
-136.414	-135.534	0.096	0.014
-135.399	-154.249	0.153	0.013
-134.385	800.000	-0.058	-0.271
-133.370	-123.185	0.481	0.097
-132.356	73.609	0.444	0.592
-131.341	248.328	-0.055	0.118
-130.326	-112.816	-0.708	-0.177
-129.312	-172.599	0.392	-0.015
-128.297	498.127	0.074	0.217
-127.283	69.545	-0.219	0.287
-126.268	-59.607	-0.469	0.255
-125.253	556.932	0.043	0.132
-124.239	-71.836	-0.163	0.077
-123.224	-70.611	0.110	-0.052
-122.210	-101.160	0.337	-0.104
-121.195	-200.000	-0.078	-0.471
-120.180	800.000	-0.113	0.605
