DTS Sentinel unit serial number:	SN409020Multiplexer serial number:	ORYXHardware model number:	OX4-SRSoftware version number:	ORYX F/W v3.00 Oryx Data Collector v3.7.2.0data status	okinstallation	HaddamTimeLapsedifferential loss correction	single-endedforward channel	channel 3reverse channel	N/Adate	2011/06/22time	00:31:17forward acquisition time	30.00reverse acquisition time	0.00gamma	498.7831k internal	0.1751k external	0.1751temperature offset calibration	1.0074default loss term (dB/km)	0.3790temperature slope calibration	1.3530multiplexer offset coefficient	1.0000multiplexer slope coefficient	1.0000fibre end	0.00T internal ref (°C)	22.66T ext. ref 1 (°C)	17.99T ext. ref 2 (°C)	0.06length (m)	temperature (°C)	Stokes	anti-Stokes-747.200	143.922	0.120	0.213
-746.185	764.497	0.203	0.736
-745.171	156.989	-0.183	-0.336
-744.156	408.316	0.127	0.359
-743.142	800.000	0.028	0.151
-742.127	511.542	0.156	0.485
-741.112	-46.314	0.053	-0.035
-740.098	65.386	0.098	0.131
-739.083	-108.745	-0.058	0.016
-738.069	-69.854	0.232	0.117
-737.054	-200.000	0.006	0.544
-736.039	-91.911	0.180	-0.067
-735.025	-13.895	0.224	-0.192
-734.010	28.910	0.174	0.196
-732.996	17.741	0.433	-0.457
-731.981	-64.102	-0.483	0.261
-730.966	-43.254	-0.180	-0.121
-729.952	-200.000	-0.039	-0.239
-728.937	-200.000	-0.011	-0.169
-727.923	-13.999	0.316	-0.271
-726.908	-200.000	0.033	0.506
-725.894	194.139	-0.145	-0.292
-724.879	-129.860	-0.163	-0.029
-723.864	-200.000	0.009	-0.381
-722.850	-200.000	0.003	-0.414
-721.835	304.623	-0.116	-0.287
-720.821	-164.727	-0.316	0.019
-719.806	66.747	-0.184	0.248
-718.791	-26.042	0.409	0.318
-717.777	-92.802	-0.378	-0.140
-716.762	-80.128	0.312	-0.138
-715.748	-144.877	0.182	-0.022
-714.733	-7.494	-0.151	-0.136
-713.718	-65.035	-0.385	0.206
-712.704	99.770	-0.141	0.217
-711.689	-5.087	-0.140	-0.127
-710.675	-163.788	-0.234	0.014
-709.660	-138.054	0.275	-0.040
-708.645	-133.535	0.563	0.093
-707.631	-200.000	-0.017	-0.184
-706.616	-200.000	0.004	0.277
-705.602	162.152	-0.090	0.167
-704.587	-70.362	0.420	-0.210
-703.572	-27.560	-0.163	0.126
-702.558	32.008	-0.239	0.273
-701.543	401.580	-0.087	-0.243
-700.529	-116.550	0.264	0.064
-699.514	-200.000	0.001	0.063
-698.499	-128.089	0.138	0.026
-697.485	-97.954	0.231	-0.078
-696.470	-32.958	0.263	-0.193
-695.456	536.854	0.044	-0.139
-694.441	-179.649	-0.258	0.007
-693.426	-11.266	-0.153	0.134
-692.412	800.000	0.058	-0.279
-691.397	-191.598	-0.309	0.004
-690.383	-22.581	0.212	-0.170
-689.368	-98.618	-0.388	-0.130
-688.354	800.000	-0.038	-0.146
-687.339	-5.472	0.061	-0.055
-686.324	133.929	-0.195	-0.336
-685.310	-200.000	-0.033	-0.617
-684.295	85.877	0.305	0.445
-683.281	578.761	0.150	-0.488
-682.266	-200.000	-0.002	0.142
-681.251	314.846	-0.140	-0.351
-680.237	-38.569	0.596	-0.416
-679.222	-12.186	0.274	-0.237
-678.208	800.000	-0.047	-0.194
-677.193	270.470	0.098	0.229
-676.178	21.983	-0.215	0.232
-675.164	-154.555	-0.137	-0.012
-674.149	-200.000	-0.003	-0.318
-673.135	156.499	-0.147	-0.270
-672.120	113.716	0.273	-0.441
-671.105	-176.739	0.319	0.011
-670.091	-200.000	-0.090	0.581
-669.076	97.644	-0.011	-0.017
-668.062	-37.954	-0.195	-0.137
-667.047	-51.556	0.087	-0.054
-666.032	-200.000	-0.038	0.568
-665.018	-28.084	0.458	0.350
-664.003	-200.000	-0.066	0.528
-662.989	-200.000	0.002	-0.287
-661.974	35.829	-0.107	0.124
-660.959	-133.370	-0.344	-0.057
-659.945	800.000	0.083	0.373
-658.930	-198.949	0.344	-0.002
-657.916	-136.478	0.478	0.073
-656.901	800.000	0.074	0.288
-655.886	-200.000	0.064	0.482
-654.872	-11.942	0.337	0.292
-653.857	-111.689	-0.375	-0.100
-652.843	66.800	0.156	-0.210
-651.828	-66.786	0.036	-0.019
-650.814	23.415	0.071	0.077
-649.799	-25.448	0.192	0.150
-648.784	-37.054	0.092	0.065
-647.770	-200.000	-0.055	0.758
-646.755	88.230	-0.299	0.440
-645.741	257.130	-0.155	-0.353
-644.726	180.340	-0.074	-0.144
-643.711	253.784	0.135	-0.306
-642.697	-200.000	-0.034	0.331
-641.682	271.617	0.168	-0.392
-640.668	-14.015	-0.344	-0.294
-639.653	125.314	0.397	-0.664
-638.638	270.614	-0.070	0.164
-637.624	330.358	0.131	-0.336
-636.609	584.214	-0.049	-0.161
-635.595	205.317	0.083	0.171
-634.580	-128.864	-0.370	0.068
-633.565	-78.674	-0.271	-0.122
-632.551	-77.811	0.400	0.182
-631.536	83.656	-0.133	0.193
-630.522	-164.469	-0.600	0.036
-629.507	643.961	-0.088	0.298
-628.492	65.253	-0.289	0.386
-627.478	53.349	-0.130	-0.165
-626.463	-86.641	0.328	-0.132
-625.449	-89.049	-0.385	0.150
-624.434	29.347	0.049	0.055
-623.419	-72.797	-0.210	0.102
-622.405	46.221	0.135	-0.166
-621.390	-200.000	-0.148	0.001
-620.376	800.000	0.013	0.067
-619.361	-200.000	0.070	-0.751
-618.346	-160.355	0.424	-0.030
-617.332	-200.000	0.043	-0.320
-616.317	-163.419	-0.325	0.020
-615.303	33.215	-0.169	-0.194
-614.288	-200.000	-0.004	-0.339
-613.273	-53.743	-0.229	0.138
-612.259	166.524	0.041	-0.077
-611.244	453.853	0.065	0.192
-610.230	800.000	0.073	0.325
-609.215	438.639	0.116	0.338
-608.201	-131.384	-0.530	-0.092
-607.186	-80.884	-0.022	0.010
-606.171	-200.000	0.054	-0.421
-605.157	24.997	-0.205	-0.225
-604.142	-135.599	-0.280	-0.043
-603.128	102.484	-0.022	0.033
-602.113	800.000	-0.054	0.294
-601.098	-200.000	-0.010	-0.246
-600.084	297.847	-0.304	-0.741
-599.069	800.000	0.062	-0.250
-598.055	151.844	-0.170	-0.306
-597.040	-111.734	0.227	0.060
-596.025	-153.481	0.445	0.040
-595.011	-3.049	-0.128	-0.118
-593.996	-139.269	-0.373	0.052
-592.982	-166.872	-0.528	0.028
-591.967	-109.231	0.191	0.053
-590.952	-200.000	-0.010	0.076
-589.938	189.222	0.110	0.219
-588.923	-152.686	0.423	0.039
-587.909	-73.841	-0.423	0.202
-586.894	618.697	-0.034	-0.115
-585.879	-38.886	-0.173	-0.120
-584.865	-133.395	-0.226	0.037
-583.850	90.561	-0.276	-0.408
-582.836	-161.645	-0.580	0.039
-581.821	-166.437	0.679	0.037
-580.806	-77.414	0.477	-0.217
-579.792	6.931	-0.177	-0.174
-578.777	354.408	0.087	0.230
-577.763	-132.543	-0.198	0.033
-576.748	-188.218	-0.212	0.003
-575.733	-123.619	-0.496	-0.103
-574.719	217.567	-0.037	0.078
-573.704	-105.856	0.205	-0.061
-572.690	-31.695	0.100	0.074
-571.675	-200.000	-0.007	-0.189
-570.661	743.137	0.055	0.198
-569.646	276.885	0.149	-0.351
-568.631	310.865	-0.100	-0.249
-567.617	547.703	0.210	-0.668
-566.602	208.536	0.112	-0.232
-565.588	-200.000	0.043	0.334
-564.573	-112.088	-0.359	-0.095
-563.558	-200.000	0.009	-0.203
-562.544	-113.476	-0.233	0.060
-561.529	-39.120	0.208	0.144
-560.515	321.932	-0.070	-0.177
-559.500	-25.853	-0.326	-0.253
-558.485	29.187	0.211	-0.236
-557.471	73.795	-0.265	-0.367
-556.456	-20.275	-0.123	-0.100
-555.442	-55.462	0.071	-0.042
-554.427	530.024	0.015	0.048
-553.412	800.000	-0.027	-0.150
-552.398	15.323	-0.133	-0.137
-551.383	-184.836	-0.118	-0.002
-550.369	-129.771	0.124	0.022
-549.354	800.000	-0.059	0.324
-548.339	-200.000	-0.075	0.446
-547.325	800.000	0.041	0.218
-546.310	-200.000	-0.001	-0.198
-545.296	-91.962	0.289	0.107
-544.281	725.965	-0.115	-0.408
-543.266	-81.366	0.307	-0.133
-542.252	-38.160	0.347	-0.242
-541.237	-95.670	0.175	-0.061
-540.223	-60.620	-0.137	-0.076
-539.208	-18.365	0.145	-0.119
-538.193	96.633	0.196	0.296
-537.179	-24.674	0.295	0.231
-536.164	-200.000	-0.021	-0.166
-535.150	-51.130	0.443	-0.273
-534.135	305.135	0.136	-0.335
-533.121	-98.017	-0.101	0.034
-532.106	-118.492	0.167	0.039
-531.091	-89.758	0.549	-0.210
-530.077	800.000	0.096	-0.353
-529.062	35.953	-0.193	0.224
-528.048	-88.852	0.150	0.058
-527.033	688.696	-0.050	0.172
-526.018	11.691	0.290	0.293
-525.004	-122.953	0.248	0.052
-523.989	800.000	-0.043	0.171
-522.975	-166.771	-0.424	-0.023
-521.960	50.396	-0.228	0.284
-520.945	48.791	-0.312	0.386
-519.931	410.915	0.115	0.321
-518.916	202.782	0.095	0.194
-517.902	-200.000	-0.017	0.240
-516.887	-71.591	-0.209	-0.102
-515.872	-68.679	-0.165	0.084
-514.858	421.039	-0.073	0.207
-513.843	331.382	0.101	0.257
-512.829	-200.000	0.039	0.253
-511.814	-200.000	0.822	0.000
-510.799	291.263	0.146	0.351
-509.785	65.567	0.027	-0.036
-508.770	81.187	0.043	-0.062
-507.756	-200.000	-0.005	-0.107
-506.741	110.450	-0.119	0.189
-505.726	137.350	-0.065	0.112
-504.712	-67.473	0.576	0.297
-503.697	-200.000	-0.023	0.146
-502.683	800.000	-0.050	-0.222
-501.668	-66.583	-0.595	0.309
-500.653	-200.000	0.042	0.257
-499.639	-200.000	-0.011	0.192
-498.624	-122.827	0.361	0.076
-497.610	31.387	0.146	-0.165
-496.595	-200.000	-0.014	-0.234
-495.581	23.898	0.318	-0.345
-494.566	-200.000	0.015	-0.631
-493.551	-52.065	0.341	0.208
-492.537	-34.912	-0.132	0.094
-491.522	-200.000	-0.039	0.300
-490.508	40.912	-0.248	0.294
-489.493	234.392	0.207	-0.451
-488.478	-194.643	0.093	-0.001
-487.464	-57.540	-0.314	0.181
-486.449	-200.000	-0.020	-0.170
-485.435	-3.505	0.150	-0.137
-484.420	-8.297	0.247	0.218
-483.405	-200.000	-0.006	0.063
-482.391	0.863	0.241	0.227
-481.376	209.866	-0.198	-0.410
-480.362	120.937	0.123	0.201
-479.347	-113.933	-0.531	0.135
-478.332	752.872	-0.097	-0.345
-477.318	-14.951	-0.372	-0.313
-476.303	-42.129	0.298	0.200
-475.289	-48.332	0.192	-0.121
-474.274	315.007	-0.022	-0.055
-473.259	158.871	0.161	-0.295
-472.245	-9.686	-0.295	-0.258
-471.230	-95.951	0.309	0.108
-470.216	-122.142	-0.337	-0.072
-469.201	800.000	0.047	0.248
-468.186	-67.503	0.250	0.128
-467.172	-26.647	0.404	-0.310
-466.157	-28.920	0.284	-0.214
-465.143	148.045	-0.167	0.296
-464.128	-165.564	-0.320	0.018
-463.113	-46.061	0.312	-0.201
-462.099	-131.044	0.397	-0.069
-461.084	167.243	0.075	0.141
-460.070	-194.735	-0.209	-0.002
-459.055	-121.529	-0.383	-0.083
-458.040	-29.351	0.202	0.152
-457.026	282.837	0.153	0.362
-456.011	-58.668	0.219	0.124
-454.997	-167.754	0.181	0.009
-453.982	-41.856	-0.246	0.165
-452.968	-41.607	-0.350	-0.236
-451.953	-149.171	0.418	-0.043
-450.938	-125.616	-0.213	0.042
-449.924	-200.000	-0.023	-0.371
-448.909	-114.705	-0.280	0.070
-447.895	31.166	-0.174	0.196
-446.880	320.109	0.033	-0.082
-445.865	-129.558	0.148	0.027
-444.851	-128.227	-0.158	-0.029
-443.836	-48.878	0.100	0.063
-442.822	-104.904	-0.404	-0.121
-441.807	-54.879	0.153	0.090
-440.792	20.429	-0.269	-0.286
-439.778	104.303	-0.223	0.345
-438.763	83.982	0.051	0.074
-437.749	-200.000	0.016	0.152
-436.734	-200.000	0.007	0.245
-435.719	-96.930	0.319	-0.109
-434.705	222.295	0.194	-0.412
-433.690	-51.654	-0.239	-0.146
-432.676	-94.700	0.401	-0.142
-431.661	-32.546	0.191	0.140
-430.646	800.000	0.056	-0.288
-429.632	188.614	-0.107	0.211
-428.617	-48.490	0.294	0.185
-427.603	444.752	-0.114	-0.330
-426.588	-171.507	0.143	0.006
-425.573	-200.000	-0.257	-0.001
-424.559	-200.000	0.065	0.595
-423.544	-142.579	-0.253	0.032
-422.530	-200.000	-0.007	0.053
-421.515	-37.120	0.044	-0.031
-420.500	-100.893	-0.405	-0.130
-419.486	-173.642	-0.287	0.011
-418.471	5.361	0.366	0.354
-417.457	-200.000	0.021	-0.317
-416.442	-150.972	-0.620	-0.061
-415.428	-158.083	0.143	-0.011
-414.413	-200.000	-0.005	0.168
-413.398	-92.153	0.115	0.042
-412.384	-97.414	0.422	0.143
-411.369	97.094	0.158	0.238
-410.355	51.574	0.039	0.048
-409.340	37.312	-0.288	0.334
-408.325	739.015	-0.033	0.117
-407.311	-66.787	-0.248	-0.128
-406.296	-151.104	0.569	0.055
-405.282	-55.218	0.099	-0.058
-404.267	53.319	-0.098	0.123
-403.252	800.000	0.134	-0.504
-402.238	-172.074	0.225	-0.009
-401.223	800.000	0.030	0.112
-400.209	-160.456	0.511	-0.035
-399.194	-112.400	0.323	-0.084
-398.179	-200.000	0.013	-0.305
-397.165	154.473	0.338	-0.610
-396.150	-31.891	0.572	0.419
-395.136	-38.224	0.540	0.374
-394.121	-80.736	-0.388	-0.168
-393.106	800.000	-0.040	0.183
-392.092	99.967	0.197	0.299
-391.077	-2.158	-0.191	0.175
-390.063	5.415	-0.154	-0.149
-389.048	-123.182	0.078	-0.016
-388.033	-200.000	0.011	-0.496
-387.019	800.000	-0.060	0.339
-386.004	76.524	-0.026	0.036
-384.990	-144.479	-0.328	-0.039
-383.975	38.381	0.271	0.316
-382.960	201.933	0.042	-0.086
-381.946	-38.287	-0.163	0.113
-380.931	-173.766	0.180	-0.007
-379.917	18.879	-0.058	-0.061
-378.902	88.617	0.109	0.159
-377.888	32.177	0.152	0.172
-376.873	-98.583	0.322	-0.107
-375.858	153.254	-0.157	-0.282
-374.844	-84.374	0.612	-0.252
-373.829	-200.000	0.028	0.224
-372.815	-60.640	-0.323	-0.179
-371.800	76.297	-0.207	0.287
-370.785	-153.647	0.260	-0.023
-369.771	-200.000	-0.005	0.308
-368.756	-99.026	-0.323	-0.106
-367.742	-42.350	-0.497	0.331
-366.727	-200.000	-0.021	0.214
-365.712	-19.575	-0.137	0.111
-364.698	-104.342	-0.087	0.026
-363.683	-31.719	-0.093	0.068
-362.669	-139.494	0.160	0.022
-361.654	-49.759	-0.201	-0.125
-360.639	-109.270	0.216	-0.060
-359.625	-100.746	0.299	0.096
-358.610	800.000	0.081	0.387
-357.596	36.843	0.094	0.109
-356.581	-200.000	0.055	0.585
-355.566	800.000	0.085	-0.370
-354.552	3.690	0.221	-0.211
-353.537	-151.211	0.329	0.032
-352.523	-103.540	-0.161	-0.049
-351.508	-200.000	0.046	0.573
-350.493	-200.000	0.020	0.231
-349.479	-110.796	0.559	-0.150
-348.464	-2.756	0.322	-0.294
-347.450	525.694	0.142	0.441
-346.435	331.292	-0.236	-0.598
-345.420	800.000	0.092	-0.504
-344.406	431.036	-0.045	0.127
-343.391	-102.676	-0.336	-0.104
-342.377	-155.397	-0.181	-0.015
-341.362	-151.295	-0.258	-0.025
-340.348	5.799	0.151	-0.146
-339.333	-124.108	0.184	-0.037
-338.318	-131.514	-0.257	-0.044
-337.304	697.038	-0.050	0.172
-336.289	60.006	0.074	-0.096
-335.275	-40.013	-0.356	-0.242
-334.260	-8.838	-0.216	-0.189
-333.245	335.873	0.254	-0.647
-332.231	315.668	-0.103	0.255
-331.216	-93.457	-0.344	0.124
-330.202	-200.000	-0.048	-0.452
-329.187	40.500	0.097	0.115
-328.172	-140.592	0.115	0.015
-327.158	-175.385	0.230	0.008
-326.143	292.073	-0.219	0.522
-325.129	48.277	0.270	-0.331
-324.114	-0.372	0.097	-0.090
-323.099	-18.967	0.022	0.018
-322.085	800.000	0.131	-0.559
-321.070	11.869	-0.285	0.285
-320.056	-66.517	-0.171	0.088
-319.041	102.672	0.103	-0.157
-318.026	757.829	0.123	0.439
-317.012	39.473	-0.279	0.327
-315.997	-140.786	-0.603	-0.080
-314.983	280.648	-0.112	-0.263
-313.968	26.227	-0.276	0.301
-312.953	-98.929	0.330	-0.109
-311.939	570.985	-0.073	-0.232
-310.924	-200.000	0.004	-0.090
-309.910	-174.608	0.398	0.015
-308.895	-85.222	0.155	0.063
-307.880	-102.264	0.327	0.102
-306.866	-154.627	-0.208	0.018
-305.851	107.520	-0.350	0.545
-304.837	155.273	-0.061	0.111
-303.822	159.341	-0.043	-0.079
-302.807	396.207	-0.111	0.303
-301.793	-100.103	0.282	0.091
-300.778	-97.370	-0.180	0.061
-299.764	-115.046	0.180	0.044
-298.749	800.000	0.085	-0.308
-297.735	-64.752	0.213	0.112
-296.720	-164.627	0.100	0.006
-295.705	-175.637	-0.141	-0.005
-294.691	23.125	0.245	-0.262
-293.676	-163.895	-0.359	-0.022
-292.662	-123.499	-0.424	-0.087
-291.647	-25.899	-0.193	-0.148
-290.632	135.908	0.284	-0.483
-289.618	-100.062	-0.264	-0.085
-288.603	132.453	-0.150	0.254
-287.589	-200.000	0.011	-0.102
-286.574	-70.577	-0.279	-0.137
-285.559	-114.056	0.299	-0.075
-284.545	8.308	-0.235	-0.231
-283.530	0.017	-0.249	0.231
-282.516	343.523	0.039	-0.101
-281.501	800.000	0.021	0.089
-280.486	136.173	0.061	0.105
-279.472	-200.000	0.001	-0.465
-278.457	-19.720	-0.278	0.224
-277.443	-122.866	-0.362	-0.076
-276.428	32.658	0.150	0.170
-275.413	93.149	0.106	0.157
-274.399	-23.106	-0.124	-0.097
-273.384	17.585	-0.249	0.258
-272.370	31.497	-0.208	0.233
-271.355	92.619	0.301	0.444
-270.340	-173.801	0.129	-0.005
-269.326	798.420	-0.147	-0.533
-268.311	638.152	0.061	-0.203
-267.297	53.729	0.227	0.285
-266.282	-200.000	0.051	0.546
-265.267	-9.630	-0.365	0.317
-264.253	-200.000	-0.053	0.314
-263.238	-4.878	-0.155	-0.139
-262.224	478.952	-0.132	-0.393
-261.209	67.892	0.250	-0.333
-260.195	177.972	-0.164	-0.313
-259.180	-136.504	0.177	0.027
-258.165	-101.794	-0.476	0.149
-257.151	-4.672	-0.361	-0.324
-256.136	49.230	-0.361	-0.443
-255.122	-38.926	0.115	0.079
-254.107	-50.380	0.255	0.156
-253.092	-78.964	-0.046	-0.020
-252.078	-62.601	-0.193	0.104
-251.063	-112.859	0.329	0.084
-250.049	60.013	0.124	0.160
-249.034	-101.867	-0.233	0.073
-248.019	-34.601	0.236	0.168
-247.005	-56.638	-0.184	-0.106
-245.990	-118.563	-0.117	-0.027
-244.976	33.305	0.195	-0.220
-243.961	-112.786	0.332	0.085
-242.946	-70.998	0.181	-0.088
-241.932	85.115	0.120	-0.171
-240.917	138.282	0.099	-0.170
-239.903	200.800	0.114	-0.229
-238.888	81.292	0.094	0.133
-237.873	-200.000	0.042	-0.251
-236.859	-87.575	-0.271	0.106
-235.844	-128.812	0.058	0.011
-234.830	3.268	-0.172	-0.163
-233.815	-89.098	-0.561	-0.215
-232.800	-51.708	0.448	0.271
-231.786	-71.209	0.096	-0.047
-230.771	60.000	-0.181	0.232
-229.757	-84.925	0.313	0.127
-228.742	-200.000	0.031	0.352
-227.727	-87.769	-0.217	0.085
-226.713	498.955	0.050	0.151
-225.698	-41.420	0.161	-0.108
-224.684	-98.026	-0.196	-0.065
-223.669	-39.487	-0.509	0.346
-222.655	-145.291	-0.414	0.048
-221.640	85.408	-0.264	0.377
-220.625	-194.005	0.317	0.003
-219.611	-75.532	0.237	0.109
-218.596	-200.000	0.002	0.566
-217.582	-200.000	-0.046	0.302
-216.567	-112.245	0.179	-0.046
-215.552	135.851	0.473	0.803
-214.538	-56.293	0.275	0.158
-213.523	155.816	-0.281	0.505
-212.509	-8.261	0.237	-0.208
-211.494	-10.267	0.120	-0.103
-210.479	-141.720	0.217	0.028
-209.465	-79.087	-0.254	0.112
-208.450	-113.046	-0.552	0.141
-207.436	67.241	-0.224	-0.297
-206.421	-120.778	-0.716	-0.156
-205.406	-112.215	0.322	-0.083
-204.392	800.000	-0.045	0.181
-203.377	175.482	-0.343	0.648
-202.363	-200.000	-0.032	0.236
-201.348	-56.420	0.285	-0.164
-200.333	-156.007	0.236	-0.019
-199.319	-86.371	-0.251	0.100
-198.304	-140.517	0.366	-0.049
-197.290	-139.311	0.265	-0.037
-196.275	-57.200	0.347	-0.198
-195.260	52.764	0.226	-0.281
-194.246	210.549	-0.095	-0.195
-193.231	-110.879	-0.378	-0.100
-192.217	-82.880	-0.212	-0.088
-191.202	-200.000	-0.032	-0.292
-190.187	214.644	-0.040	-0.082
-189.173	-200.000	-0.016	-0.115
-188.158	-85.248	0.238	-0.096
-187.144	-1.112	-0.182	-0.167
-186.129	46.460	-0.353	0.425
-185.114	-54.999	0.257	0.150
-184.100	-111.997	-0.453	-0.118
-183.085	800.000	-0.054	0.212
-182.071	-200.000	0.057	0.339
-181.056	748.382	-0.104	0.367
-180.042	17.129	0.294	-0.302
-179.027	-157.080	-0.354	-0.028
-178.012	-200.000	-0.022	-0.260
-176.998	-109.054	0.455	-0.125
-175.983	-164.698	0.553	-0.032
-174.969	-123.411	-0.217	-0.044
-173.954	-13.790	-0.187	0.157
-172.939	-57.764	0.535	-0.303
-171.925	257.171	0.136	-0.304
-170.910	-200.000	0.004	-0.245
-169.896	800.000	0.033	0.143
-168.881	-144.617	-0.242	-0.029
-167.866	-123.811	0.144	0.029
-166.852	26.685	-0.199	0.217
-165.837	-8.475	-0.131	0.114
-164.823	526.060	-0.044	-0.136
-163.808	290.356	0.235	-0.557
-162.793	-200.000	0.024	0.387
-161.779	385.072	-0.149	0.401
-160.764	800.000	-0.081	-0.384
-159.750	66.048	-0.126	-0.166
-158.735	-200.000	-0.031	-0.189
-157.720	-116.226	-0.658	-0.157
-156.706	-12.124	0.619	0.526
-155.691	800.000	0.079	-0.295
-154.677	-69.429	0.283	-0.140
-153.662	-126.596	-0.423	-0.081
-152.647	-78.744	0.288	-0.127
-151.633	-148.382	0.453	0.048
-150.618	4.955	0.370	0.353
-149.604	-114.307	0.687	0.171
-148.589	-85.931	0.085	-0.034
-147.574	464.241	0.154	-0.448
-146.560	-36.171	-0.074	-0.052
-145.545	-18.946	-0.341	0.275
-144.531	192.618	-0.143	-0.280
-143.516	800.000	-0.116	0.512
-142.502	-92.444	0.435	0.158
-141.487	152.539	-0.218	-0.387
-140.472	-108.093	-0.113	0.031
-139.458	800.000	0.078	0.329
-138.443	-110.470	0.404	-0.108
-137.429	-154.920	0.205	-0.017
-136.414	-28.826	0.409	0.304
-135.399	-10.391	-0.149	-0.128
-134.385	-105.105	0.095	0.028
-133.370	71.797	0.418	0.564
-132.356	200.420	-0.209	-0.418
-131.341	800.000	0.109	0.403
-130.326	67.391	-0.274	0.363
-129.312	146.109	0.463	0.807
-128.297	242.245	0.146	0.317
-127.283	-49.571	0.173	0.107
-126.268	800.000	0.051	-0.271
-125.253	-200.000	-0.014	0.276
-124.239	-95.981	-0.354	0.122
-123.224	452.420	0.100	0.288
-122.210	134.435	0.060	0.102
