DTS Sentinel unit serial number:	SN409020Multiplexer serial number:	ORYXHardware model number:	OX4-SRSoftware version number:	ORYX F/W v3.00 Oryx Data Collector v3.7.2.0data status	okinstallation	HaddamTimeLapsedifferential loss correction	single-endedforward channel	channel 3reverse channel	N/Adate	2011/06/22time	05:41:17forward acquisition time	30.00reverse acquisition time	0.00gamma	498.7831k internal	0.1751k external	0.1751temperature offset calibration	1.0074default loss term (dB/km)	0.3790temperature slope calibration	1.3530multiplexer offset coefficient	1.0000multiplexer slope coefficient	1.0000fibre end	0.00T internal ref (°C)	22.56T ext. ref 1 (°C)	17.86T ext. ref 2 (°C)	0.16length (m)	temperature (°C)	Stokes	anti-Stokes-747.200	60.139	-0.242	-0.319
-746.185	-200.000	0.021	0.628
-745.171	32.248	-0.405	0.464
-744.156	-5.374	-0.079	0.072
-743.142	-63.516	-0.129	-0.070
-742.127	31.093	0.423	0.482
-741.112	-16.548	-0.304	-0.256
-740.098	-29.019	0.117	-0.089
-739.083	-81.089	-0.069	-0.030
-738.069	800.000	-0.056	-0.242
-737.054	23.553	0.179	0.195
-736.039	-200.000	0.038	0.298
-735.025	106.634	0.139	-0.219
-734.010	-4.309	-0.414	0.380
-732.996	171.146	-0.180	0.344
-731.981	259.135	0.068	0.156
-730.966	800.000	0.032	-0.135
-729.952	-120.144	-0.452	-0.102
-728.937	-48.542	-0.330	-0.210
-727.923	-12.020	0.080	-0.070
-726.908	-91.218	-0.309	0.117
-725.894	83.733	-0.283	0.410
-724.879	-67.141	0.373	-0.194
-723.864	-200.000	-0.087	-0.597
-722.850	212.166	-0.247	-0.519
-721.835	-98.673	0.244	0.082
-720.821	-79.818	-0.161	-0.072
-719.806	368.183	0.132	-0.357
-718.791	-188.808	-0.130	-0.002
-717.777	-99.547	-0.436	0.144
-716.762	-118.659	-0.485	0.113
-715.748	73.049	-0.143	-0.199
-714.733	-200.000	-0.058	-0.442
-713.718	47.559	0.180	-0.223
-712.704	-200.000	0.032	0.472
-711.689	-76.295	-0.451	-0.210
-710.675	21.877	-0.512	-0.553
-709.660	-156.295	0.148	0.012
-708.645	64.483	0.176	-0.236
-707.631	-47.809	-0.341	-0.218
-706.616	-52.645	0.199	0.121
-705.602	-120.126	-0.141	0.032
-704.587	177.985	0.205	0.398
-703.572	202.650	0.144	-0.296
-702.558	-128.955	-0.494	0.091
-701.543	-200.000	0.016	-0.384
-700.529	313.812	0.240	0.602
-699.514	652.660	-0.037	-0.125
-698.499	-200.000	-0.009	-0.166
-697.485	-63.458	0.251	-0.136
-696.470	-47.897	0.127	-0.081
-695.456	-104.151	-0.245	0.075
-694.441	800.000	-0.128	-0.544
-693.426	-153.670	0.381	-0.034
-692.412	577.882	-0.112	-0.364
-691.397	-108.111	-0.343	-0.098
-690.383	-56.988	-0.194	-0.113
-689.368	194.003	-0.228	-0.459
-688.354	-17.679	-0.238	-0.198
-687.339	-134.997	0.273	-0.043
-686.324	800.000	-0.052	-0.301
-685.310	141.203	0.260	0.458
-684.295	-31.027	0.354	-0.264
-683.281	-200.000	-0.017	0.173
-682.266	-42.540	0.289	-0.195
-681.251	92.141	-0.210	-0.314
-680.237	-113.998	0.382	-0.097
-679.222	-17.190	0.332	-0.277
-678.208	-141.721	-0.215	0.028
-677.193	-78.534	-0.352	-0.159
-676.178	-126.044	-0.111	0.022
-675.164	254.600	0.193	-0.439
-674.149	-141.788	-0.219	-0.029
-673.135	768.731	-0.101	-0.365
-672.120	-172.145	-0.524	-0.022
-671.105	-200.000	-0.034	-0.438
-670.091	208.639	-0.117	-0.244
-669.076	219.340	-0.166	-0.353
-668.062	-163.547	0.156	-0.010
-667.047	200.536	0.104	-0.213
-666.032	-55.029	-0.360	-0.214
-665.018	-156.892	-0.619	-0.050
-664.003	45.466	-0.182	0.223
-662.989	29.237	-0.270	-0.303
-661.974	60.099	-0.305	-0.399
-660.959	-41.751	0.088	-0.060
-659.945	333.362	-0.139	0.357
-658.930	663.733	0.005	-0.018
-657.916	171.884	0.204	0.389
-656.901	-145.301	-0.138	-0.016
-655.886	634.943	0.037	0.124
-654.872	82.633	-0.341	0.491
-653.857	-200.000	0.060	0.358
-652.843	800.000	0.033	0.130
-651.828	800.000	-0.025	-0.124
-650.814	-200.000	-0.009	0.259
-649.799	-90.802	0.621	0.236
-648.784	-27.881	-0.256	-0.196
-647.770	-200.000	-0.018	-0.243
-646.755	8.372	-0.013	-0.013
-645.741	267.287	0.204	-0.473
-644.726	230.057	0.153	-0.331
-643.711	-104.497	-0.373	-0.113
-642.697	24.453	0.372	0.407
-641.682	-136.701	-0.492	-0.074
-640.668	-97.415	-0.441	0.151
-639.653	76.101	-0.195	-0.273
-638.638	-69.501	-0.234	-0.118
-637.624	800.000	0.129	0.580
-636.609	115.590	0.172	-0.278
-635.595	36.343	-0.200	0.233
-634.580	-42.469	-0.358	0.240
-633.565	319.457	0.057	-0.143
-632.551	3.373	0.172	-0.165
-631.536	-126.436	0.359	-0.070
-630.522	470.302	-0.089	-0.267
-629.507	-131.556	-0.282	0.049
-628.492	-67.807	0.055	-0.028
-627.478	-99.786	-0.241	-0.079
-626.463	-35.186	-0.383	0.275
-625.449	406.691	-0.058	0.163
-624.434	-1.717	0.114	-0.106
-623.419	-61.235	-0.210	-0.116
-622.405	-68.642	0.220	-0.112
-621.390	-200.000	0.015	-0.243
-620.376	103.197	-0.179	-0.278
-619.361	56.483	-0.416	-0.536
-618.346	-200.000	-0.012	-0.366
-617.332	340.464	-0.097	0.251
-616.317	91.194	0.071	0.106
-615.303	89.022	0.082	-0.121
-614.288	-108.180	-0.379	0.108
-613.273	-47.160	0.198	0.127
-612.259	-26.869	0.381	-0.294
-611.244	571.019	0.101	0.325
-610.230	21.966	0.215	-0.231
-609.215	-70.535	0.372	-0.185
-608.201	-92.234	-0.328	0.122
-607.186	-104.461	0.511	-0.155
-606.171	800.000	0.012	0.052
-605.157	280.184	-0.141	0.335
-604.142	125.927	0.186	0.311
-603.128	693.449	0.087	0.302
-602.113	-133.870	-0.442	-0.072
-601.098	17.760	0.166	-0.175
-600.084	-200.000	-0.005	-0.093
-599.069	450.027	0.090	-0.263
-598.055	-110.836	-0.156	-0.042
-597.040	-179.926	-0.104	-0.003
-596.025	-20.771	0.430	0.348
-595.011	800.000	0.092	-0.384
-593.996	-52.090	-0.169	0.103
-592.982	-200.000	0.001	-0.156
-591.967	-21.138	0.146	0.118
-590.952	444.954	0.175	-0.509
-589.938	-31.839	0.402	0.297
-588.923	-148.122	0.379	-0.041
-587.909	151.355	0.090	-0.162
-586.894	-174.150	-0.581	0.022
-585.879	269.428	-0.103	-0.239
-584.865	-45.209	0.226	0.147
-583.850	-92.747	0.126	0.046
-582.836	40.734	0.254	-0.302
-581.821	-85.988	-0.341	-0.138
-580.806	-93.793	-0.216	0.078
-579.792	-40.816	0.240	0.163
-578.777	-150.165	-0.589	0.060
-577.763	-140.832	0.035	0.005
-576.748	-200.000	-0.111	0.719
-575.733	-76.576	0.291	0.134
-574.719	309.311	-0.284	0.703
-573.704	267.041	-0.060	0.138
-572.690	-21.064	-0.227	0.183
-571.675	800.000	-0.039	0.171
-570.661	-3.625	0.210	-0.192
-569.646	-19.131	-0.029	-0.024
-568.631	-88.307	0.610	-0.239
-567.617	800.000	-0.034	0.131
-566.602	168.916	0.097	0.183
-565.588	-159.434	0.138	0.010
-564.573	-200.000	-0.010	-0.325
-563.558	407.942	0.016	0.045
-562.544	-96.864	0.271	-0.093
-561.529	444.602	-0.065	0.190
-560.515	-200.000	-0.009	0.082
-559.500	-13.046	-0.142	-0.121
-558.485	-70.984	0.218	-0.108
-557.471	-96.091	0.355	-0.124
-556.456	102.571	-0.082	0.126
-555.442	168.084	-0.052	0.098
-554.427	346.317	-0.062	-0.162
-553.412	-188.745	0.259	0.004
-552.398	554.974	-0.072	-0.230
-551.383	-67.559	-0.100	0.051
-550.369	40.247	0.137	0.163
-549.354	-200.000	-0.039	0.371
-548.339	-25.865	-0.358	0.278
-547.325	541.897	0.184	-0.581
-546.310	-21.920	-0.220	0.176
-545.296	-171.770	0.433	0.018
-544.281	-10.844	0.413	-0.359
-543.266	49.044	0.087	0.108
-542.252	59.958	0.038	-0.050
-541.237	140.177	0.132	0.230
-540.223	-154.118	0.341	-0.030
-539.208	22.986	0.479	0.518
-538.193	-200.000	0.051	0.300
-537.179	-16.576	0.429	-0.358
-536.164	-72.251	0.570	0.277
-535.150	-188.681	-0.382	0.006
-534.135	125.882	0.058	0.097
-533.121	143.132	-0.102	-0.178
-532.106	-89.584	0.426	-0.164
-531.091	-46.562	0.227	-0.146
-530.077	89.462	0.214	-0.315
-529.062	-200.000	-0.054	-0.693
-528.048	53.470	0.498	0.630
-527.033	-200.000	0.019	0.205
-526.018	-200.000	0.007	0.322
-525.004	-200.000	-0.029	0.316
-523.989	72.535	-0.154	-0.212
-522.975	-50.535	0.057	0.035
-521.960	-104.645	0.127	-0.038
-520.945	441.236	-0.133	-0.384
-519.931	-87.505	0.404	0.160
-518.916	-50.292	0.344	0.214
-517.902	-78.270	-0.224	0.101
-516.887	-119.398	-0.231	0.052
-515.872	-114.273	0.354	0.089
-514.858	20.286	-0.211	-0.224
-513.843	-160.258	-0.483	-0.034
-512.829	-27.295	0.070	0.053
-511.814	-121.034	0.428	0.094
-510.799	382.744	-0.189	0.513
-509.785	800.000	-0.084	0.380
-508.770	-117.013	0.307	-0.073
-507.756	-149.712	0.273	0.028
-506.741	-200.000	0.003	-0.265
-505.726	-200.000	0.005	0.421
-504.712	-98.602	0.236	0.079
-503.697	-65.304	0.232	0.122
-502.683	62.663	0.039	0.052
-501.668	-16.070	0.163	-0.136
-500.653	-118.118	0.429	-0.100
-499.639	-168.551	-0.452	-0.022
-498.624	181.234	0.098	0.190
-497.610	-126.530	0.117	-0.023
-496.595	437.944	-0.108	-0.310
-495.581	-162.194	-0.527	-0.034
-494.566	-147.264	-0.338	-0.037
-493.551	800.000	0.025	0.144
-492.537	55.297	-0.201	0.256
-491.522	530.143	0.142	0.445
-490.508	252.993	0.193	0.436
-489.493	41.253	-0.255	0.303
-488.478	-63.649	-0.349	-0.188
-487.464	-60.370	0.238	-0.133
-486.449	61.095	-0.128	-0.167
-485.435	14.543	-0.149	-0.153
-484.420	198.717	0.053	0.107
-483.405	79.793	0.133	-0.188
-482.391	-200.000	-0.014	-0.118
-481.376	228.626	-0.091	-0.196
-480.362	-5.221	0.171	0.154
-479.347	25.176	-0.091	-0.100
-478.332	-145.157	0.397	-0.047
-477.318	-139.470	0.302	0.042
-476.303	-143.200	0.340	-0.043
-475.289	-90.954	-0.129	-0.048
-474.274	14.707	-0.150	-0.155
-473.259	-88.473	-0.316	-0.123
-472.245	-110.529	0.329	0.089
-471.230	-82.516	-0.391	0.166
-470.216	-59.589	0.549	0.308
-469.201	-200.000	0.010	0.294
-468.186	800.000	0.045	-0.236
-467.172	17.466	0.194	-0.202
-466.157	19.209	0.194	-0.204
-465.143	-139.282	0.598	0.084
-464.128	800.000	-0.047	0.204
-463.113	-116.915	0.353	0.084
-462.099	-75.508	0.205	-0.095
-461.084	-114.661	-0.290	-0.072
-460.070	-34.797	-0.181	-0.130
-459.055	55.699	-0.139	-0.178
-458.040	-66.277	-0.558	-0.291
-457.026	43.338	-0.065	0.078
-456.011	131.893	-0.043	0.072
-454.997	-55.279	-0.354	-0.208
-453.982	-108.408	0.227	0.064
-452.968	-130.753	-0.093	-0.016
-451.953	232.366	-0.130	0.280
-450.938	-65.643	0.066	0.035
-449.924	648.877	0.130	0.438
-448.909	-125.013	-0.218	-0.044
-447.895	193.537	-0.114	-0.226
-446.880	-177.766	0.352	-0.011
-445.865	-87.941	-0.122	-0.048
-444.851	31.271	0.435	0.490
-443.836	139.049	-0.059	0.103
-442.822	-130.990	-0.178	-0.031
-441.807	-200.000	-0.034	0.588
-440.792	554.165	0.089	-0.282
-439.778	800.000	0.096	-0.497
-438.763	29.632	-0.136	-0.152
-437.749	-40.256	0.041	0.028
-436.734	251.264	0.137	0.307
-435.719	-13.831	0.201	-0.170
-434.705	-85.080	0.559	-0.229
-433.690	-40.403	0.137	-0.093
-432.676	-6.623	-0.262	0.234
-431.661	51.206	-0.088	0.109
-430.646	95.909	0.222	0.334
-429.632	-70.944	0.317	0.156
-428.617	366.193	-0.239	-0.635
-427.603	800.000	-0.136	-0.560
-426.588	-142.024	0.221	-0.029
-425.573	-70.806	0.327	0.161
-424.559	-78.595	0.426	-0.190
-423.544	-59.455	-0.530	0.298
-422.530	-200.000	-0.048	-0.310
-421.515	-81.938	0.093	-0.040
-420.500	-18.506	0.276	-0.225
-419.486	168.172	-0.123	-0.231
-418.471	-117.697	0.564	-0.132
-417.457	-4.437	0.289	0.262
-416.442	725.924	0.149	0.523
-415.428	-156.215	0.743	-0.060
-414.413	74.035	-0.137	-0.189
-413.398	38.585	0.232	-0.271
-412.384	-88.320	-0.412	-0.161
-411.369	-167.901	0.100	0.005
-410.355	277.666	-0.006	-0.015
-409.340	158.168	0.113	-0.206
-408.325	800.000	-0.036	0.188
-407.311	-110.912	-0.050	0.013
-406.296	-104.884	0.252	0.075
-405.282	-28.764	-0.500	-0.376
-404.267	-1.658	-0.264	0.244
-403.252	-118.734	0.221	0.051
-402.238	-126.663	0.183	-0.035
-401.223	-21.069	-0.109	-0.087
-400.209	61.388	-0.278	0.362
-399.194	37.365	-0.213	0.247
-398.179	800.000	-0.059	-0.341
-397.165	212.193	-0.097	0.202
-396.150	-129.160	-0.074	-0.013
-395.136	79.826	0.065	-0.092
-394.121	-200.000	-0.011	-0.219
-393.106	-117.430	-0.239	0.056
-392.092	-200.000	-0.039	0.457
-391.077	-38.819	0.285	-0.196
-390.063	40.288	-0.032	0.038
-389.048	-93.111	0.235	-0.085
-388.033	-29.899	-0.185	-0.138
-387.019	-177.324	-0.644	-0.020
-386.004	-141.423	-0.193	-0.025
-384.990	-136.538	0.165	-0.025
-383.975	13.828	-0.192	-0.195
-382.960	13.993	0.109	0.111
-381.946	83.459	0.217	-0.311
-380.931	-1.241	-0.328	0.303
-379.917	98.024	-0.057	0.086
-378.902	-160.693	-0.224	-0.015
-377.888	-178.117	0.106	-0.003
-376.873	-200.000	-0.001	-0.207
-375.858	800.000	0.104	-0.382
-374.844	-40.547	-0.319	-0.216
-373.829	152.206	-0.032	0.057
-372.815	33.630	-0.275	-0.313
-371.800	-87.022	-0.403	0.160
-370.785	-157.669	-0.530	0.041
-369.771	-107.526	0.071	0.020
-368.756	-139.200	-0.497	-0.069
-367.742	-200.000	0.022	-0.132
-366.727	10.405	0.187	0.186
-365.712	103.922	-0.110	0.170
-364.698	461.583	0.029	-0.086
-363.683	10.692	0.193	0.192
-362.669	81.922	0.327	-0.464
-361.654	-74.243	0.359	-0.169
-360.639	191.908	0.121	0.240
-359.625	-154.627	-0.123	0.011
-358.610	-130.694	-0.497	0.087
-357.596	215.140	-0.089	-0.184
-356.581	259.284	0.070	-0.158
-355.566	462.691	0.036	0.105
-354.552	70.355	0.077	-0.105
-353.537	453.512	-0.071	0.207
-352.523	-132.769	-0.160	-0.027
-351.508	800.000	-0.071	0.377
-350.493	-151.312	0.101	0.010
-349.479	-200.000	0.037	-0.232
-348.464	2.665	-0.399	-0.378
-347.450	209.118	0.212	0.435
-346.435	-9.867	0.233	-0.203
-345.420	-27.505	0.140	0.106
-344.406	-200.000	0.039	-0.483
-343.391	596.025	-0.061	-0.200
-342.377	-157.895	0.280	0.021
-341.362	159.509	-0.127	-0.231
-340.348	-200.000	-0.070	0.415
-339.333	333.929	0.069	-0.176
-338.318	-11.026	-0.416	-0.358
-337.304	-87.525	-0.261	-0.103
-336.289	-101.978	-0.506	0.159
-335.275	257.812	0.148	-0.335
-334.260	75.218	0.365	-0.503
-333.245	-200.000	0.009	-0.248
-332.231	-200.000	0.008	-0.073
-331.216	-149.442	-0.308	0.032
-330.202	-27.571	0.252	0.191
-329.187	-65.124	-0.348	0.183
-328.172	-126.005	-0.458	0.089
-327.158	-130.215	-0.493	-0.087
-326.143	181.655	-0.175	-0.338
-325.129	-200.000	0.013	-0.302
-324.114	-129.980	-0.056	0.010
-323.099	789.367	0.020	0.074
-322.085	352.009	0.149	-0.387
-321.070	-27.734	0.112	-0.085
-320.056	-200.000	0.011	0.323
-319.041	-200.000	0.001	-0.292
-318.026	-200.000	-0.021	0.230
-317.012	-109.222	-0.200	-0.055
-315.997	-95.407	0.333	-0.116
-314.983	29.113	-0.250	-0.278
-313.968	-55.539	0.120	0.070
-312.953	-125.992	-0.377	-0.073
-311.939	-106.381	0.152	-0.044
-310.924	335.365	0.135	-0.344
-309.910	-91.174	-0.148	-0.055
-308.895	207.895	-0.118	-0.241
-307.880	-147.843	0.377	0.041
-306.866	-200.000	0.062	0.406
-305.851	-101.731	0.081	-0.025
-304.837	-200.000	0.044	0.309
-303.822	-158.882	-0.133	-0.010
-302.807	-32.930	-0.097	0.070
-301.793	-45.471	-0.339	0.219
-300.778	-95.910	-0.117	-0.041
-299.764	494.723	-0.115	0.347
-298.749	-94.741	-0.199	0.070
-297.735	408.426	0.132	0.368
-296.720	-18.054	0.132	0.108
-295.705	-132.905	-0.221	0.036
-294.691	-78.821	0.123	0.054
-293.676	491.957	0.091	0.274
-292.662	-79.729	-0.613	-0.268
-291.647	-103.994	0.056	-0.017
-290.632	76.282	0.655	0.906
-289.618	-120.098	-0.430	-0.095
-288.603	-200.000	0.035	0.312
-287.589	-140.008	0.245	-0.033
-286.574	-200.000	-0.037	0.369
-285.559	-85.914	0.223	0.089
-284.545	-86.252	-0.420	0.168
-283.530	29.522	-0.162	-0.180
-282.516	-41.258	-0.118	-0.079
-281.501	-32.304	-0.485	0.352
-280.486	-130.627	0.625	0.109
-279.472	14.236	-0.094	0.095
-278.457	-200.000	0.014	0.551
-277.443	-35.509	-0.193	0.136
-276.428	-157.213	-0.162	-0.013
-275.413	800.000	0.019	0.080
-274.399	-133.055	-0.300	0.049
-273.384	439.172	0.037	-0.105
-272.370	-200.000	0.012	-0.102
-271.355	-200.000	0.018	0.299
-270.340	-106.874	-0.174	-0.050
-269.326	-88.210	0.118	0.046
-268.311	-200.000	0.000	0.141
-267.297	-66.088	0.312	0.162
-266.282	-200.000	0.020	0.256
-265.267	196.968	-0.336	0.670
-264.253	8.920	-0.195	0.192
-263.238	-70.798	-0.144	0.070
-262.224	800.000	0.111	0.501
-261.209	-86.157	-0.475	0.190
-260.195	1.817	0.341	0.320
-259.180	-178.986	-0.024	-0.001
-258.165	-143.830	0.262	-0.032
-257.151	-165.112	-0.203	-0.012
-256.136	-125.804	-0.230	0.045
-255.122	-120.214	0.352	0.078
-254.107	46.272	0.117	0.142
-253.092	-75.188	-0.533	-0.247
-252.078	23.130	-0.310	-0.332
-251.063	355.161	-0.020	0.053
-250.049	-57.611	0.298	-0.169
-249.034	-22.156	0.311	0.245
-248.019	109.820	-0.259	-0.405
-247.005	419.252	0.122	-0.343
-245.990	13.415	0.157	-0.158
-244.976	212.436	0.104	-0.215
-243.961	-183.272	-0.335	-0.007
-242.946	-95.752	-0.435	0.150
-241.932	-191.427	-1.185	-0.015
-240.917	11.967	-0.274	0.274
-239.903	15.928	0.187	-0.192
-238.888	800.000	-0.048	0.201
-237.873	-9.338	-0.024	-0.021
-236.859	-194.520	0.361	-0.004
-235.844	-186.406	-0.212	-0.004
-234.830	-59.181	0.254	0.142
-233.815	519.325	-0.035	-0.108
-232.800	800.000	0.036	0.132
-231.786	156.229	0.154	-0.278
-230.771	800.000	-0.091	-0.385
-229.757	-200.000	0.083	-0.591
-228.742	-200.000	0.241	-0.001
-227.727	800.000	-0.044	-0.210
-226.713	-200.000	-0.004	-0.183
-225.698	244.491	-0.157	0.345
-224.684	238.805	-0.161	0.350
-223.669	-200.000	-0.018	0.503
-222.655	117.255	-0.288	0.462
-221.640	-200.000	-0.012	-0.373
-220.625	-86.307	-0.108	0.043
-219.611	-102.897	-0.198	-0.061
-218.596	-92.406	-0.380	-0.138
-217.582	-107.264	-0.142	0.040
-216.567	-37.610	0.325	-0.225
-215.552	-49.104	-0.467	-0.290
-214.538	434.992	-0.107	0.304
-213.523	-106.223	-0.310	-0.090
-212.509	126.361	-0.166	-0.274
-211.494	126.959	-0.122	-0.202
-210.479	-68.916	-0.345	-0.173
-209.465	-11.819	-0.066	0.056
-208.450	66.329	0.199	0.263
-207.436	-58.955	0.329	-0.184
-206.421	-200.000	-0.007	0.049
-205.406	-200.000	0.007	-0.040
-204.392	-50.152	0.242	-0.149
-203.377	-200.000	0.001	-0.028
-202.363	77.288	-0.086	-0.119
-201.348	6.104	-0.426	-0.410
-200.333	34.363	0.229	-0.260
-199.319	282.380	-0.140	0.328
-198.304	-181.837	-0.343	0.008
-197.290	11.215	-0.272	-0.271
-196.275	554.849	0.097	0.305
-195.260	-118.943	0.321	-0.073
-194.246	-183.873	0.636	-0.014
-193.231	14.810	0.611	0.621
-192.217	-200.000	-0.044	0.489
-191.202	-200.000	-0.057	0.329
-190.187	-143.450	-0.193	0.024
-189.173	-54.115	0.236	-0.139
-188.158	-118.996	0.241	0.054
-187.144	-87.180	0.149	-0.058
-186.129	48.889	-0.024	-0.030
-185.114	187.466	0.119	-0.231
-184.100	-66.094	0.101	-0.052
-183.085	464.605	0.174	-0.509
-182.071	-31.562	-0.282	-0.205
-181.056	-14.090	-0.138	0.116
-180.042	-165.337	0.206	-0.012
-179.027	385.711	0.054	0.145
-178.012	75.214	-0.135	0.186
-176.998	-200.000	0.055	-0.521
-175.983	124.340	-0.119	-0.195
-174.969	117.551	-0.116	0.185
-173.954	800.000	-0.105	-0.446
-172.939	136.143	0.241	-0.408
-171.925	800.000	0.059	0.260
-170.910	127.094	-0.231	-0.381
-169.896	-101.576	-0.703	0.220
-168.881	111.709	0.485	0.762
-167.866	-27.551	0.279	-0.210
-166.852	-180.758	0.568	-0.015
-165.837	76.833	-0.112	0.154
-164.823	102.166	-0.213	-0.324
-163.808	3.666	0.569	-0.539
-162.793	136.236	-0.091	-0.154
-161.779	69.663	-0.056	0.075
-160.764	-44.573	-0.198	0.128
-159.750	44.004	0.232	0.277
-158.735	-85.179	-0.145	-0.058
-157.720	800.000	0.127	-0.469
-156.706	193.453	0.233	0.459
-155.691	-109.029	-0.175	0.048
-154.677	25.082	-0.147	0.158
-153.662	5.800	0.148	0.142
-152.647	-83.562	-0.164	0.068
-151.633	-200.000	0.003	-0.350
-150.618	-53.587	0.317	-0.187
-149.604	396.164	-0.217	-0.591
-148.589	-99.656	-0.091	-0.029
-147.574	-144.673	0.255	-0.030
-146.560	-200.000	0.007	-0.055
-145.545	172.409	-0.093	-0.173
-144.531	88.158	-0.176	0.254
-143.516	-200.000	0.027	0.155
-142.502	-19.010	0.227	0.183
-141.487	32.730	-0.432	0.485
-140.472	-99.295	-0.374	-0.122
-139.458	-138.380	0.077	-0.011
-138.443	-101.391	-0.258	-0.081
-137.429	123.593	0.222	0.362
-136.414	-30.487	0.476	0.350
-135.399	-46.114	-0.124	-0.079
-134.385	60.625	0.388	0.499
-133.370	489.874	0.191	0.571
-132.356	-167.107	0.201	-0.010
-131.341	-200.000	-0.005	-0.134
-130.326	-64.650	-0.293	0.154
-129.312	27.505	-0.415	-0.453
-128.297	16.040	-0.231	-0.236
-127.283	-49.754	-0.494	0.303
-126.268	209.844	0.161	0.328
-125.253	-113.657	0.262	-0.066
-124.239	-72.228	-0.092	0.044
-123.224	187.741	-0.188	-0.365
