DTS Sentinel unit serial number:	SN409020Multiplexer serial number:	ORYXHardware model number:	OX4-SRSoftware version number:	ORYX F/W v3.00 Oryx Data Collector v3.7.2.0data status	okinstallation	HaddamTimeLapsedifferential loss correction	single-endedforward channel	channel 3reverse channel	N/Adate	2011/06/22time	03:51:17forward acquisition time	30.00reverse acquisition time	0.00gamma	498.7831k internal	0.1751k external	0.1751temperature offset calibration	1.0074default loss term (dB/km)	0.3790temperature slope calibration	1.3530multiplexer offset coefficient	1.0000multiplexer slope coefficient	1.0000fibre end	0.00T internal ref (°C)	22.44T ext. ref 1 (°C)	18.05T ext. ref 2 (°C)	0.09length (m)	temperature (°C)	Stokes	anti-Stokes-747.200	593.967	-0.068	-0.224
-746.185	800.000	0.121	0.585
-745.171	-86.166	-0.200	0.081
-744.156	800.000	-0.118	0.584
-743.142	166.274	-0.105	0.199
-742.127	14.640	-0.278	0.288
-741.112	-65.015	-0.280	0.149
-740.098	430.709	-0.193	0.558
-739.083	-65.384	-0.151	0.080
-738.069	-200.000	0.001	0.483
-737.054	-39.270	0.226	-0.157
-736.039	-48.999	0.066	-0.042
-735.025	-98.147	0.461	-0.157
-734.010	-44.562	-0.114	0.075
-732.996	-73.793	-0.259	-0.124
-731.981	-31.751	-0.337	0.250
-730.966	99.140	-0.181	-0.278
-729.952	-44.564	0.369	-0.244
-728.937	70.953	-0.131	-0.181
-727.923	-139.115	0.104	0.015
-726.908	-53.122	-0.269	0.164
-725.894	349.017	0.157	0.414
-724.879	-122.279	-0.446	0.096
-723.864	-200.000	-0.019	-0.252
-722.850	43.003	-0.093	0.113
-721.835	443.517	0.179	-0.525
-720.821	48.763	-0.132	0.165
-719.806	48.699	0.074	-0.092
-718.791	-80.238	-0.216	-0.096
-717.777	1.234	0.221	-0.210
-716.762	-122.193	-0.131	-0.028
-715.748	-93.107	0.445	-0.164
-714.733	-128.096	-0.422	0.079
-713.718	-17.766	-0.220	0.183
-712.704	-200.000	-0.036	-0.713
-711.689	-200.000	-0.036	-0.241
-710.675	-24.227	-0.446	-0.352
-709.660	-101.497	-0.137	0.044
-708.645	800.000	0.073	0.375
-707.631	-200.000	-0.059	-0.365
-706.616	-54.659	0.357	0.214
-705.602	-44.569	0.268	0.177
-704.587	22.619	0.161	-0.175
-703.572	800.000	0.153	-0.628
-702.558	-16.699	0.231	-0.194
-701.543	178.403	-0.151	0.293
-700.529	800.000	-0.093	-0.348
-699.514	-103.799	0.331	-0.102
-698.499	800.000	-0.037	0.139
-697.485	-56.782	0.058	-0.034
-696.470	800.000	0.070	-0.323
-695.456	94.410	-0.116	-0.175
-694.441	-200.000	0.428	-0.001
-693.426	-90.555	0.126	-0.048
-692.412	-200.000	-0.030	0.568
-691.397	-200.000	-0.010	0.442
-690.383	-110.448	0.444	0.121
-689.368	-144.136	-0.062	0.008
-688.354	201.104	-0.199	-0.406
-687.339	-24.157	-0.374	0.295
-686.324	9.960	-0.470	-0.473
-685.310	139.805	0.115	-0.201
-684.295	-200.000	-0.032	-0.344
-683.281	-138.837	0.659	-0.094
-682.266	-105.784	-0.160	0.048
-681.251	-129.535	0.329	0.060
-680.237	166.542	0.084	-0.158
-679.222	-85.586	0.281	-0.115
-678.208	800.000	0.015	-0.057
-677.193	-145.236	-0.732	0.087
-676.178	10.133	-0.312	0.314
-675.164	-123.425	-0.222	-0.046
-674.149	172.602	0.080	0.153
-673.135	331.450	0.034	0.087
-672.120	-87.246	-0.315	-0.126
-671.105	-44.553	0.652	-0.431
-670.091	73.174	-0.440	-0.610
-669.076	800.000	0.035	-0.171
-668.062	-200.000	-0.013	-0.125
-667.047	-159.272	-0.588	-0.043
-666.032	800.000	-0.036	-0.201
-665.018	-45.972	0.287	-0.187
-664.003	181.822	0.172	0.336
-662.989	-200.000	-0.040	0.357
-661.974	-22.381	0.158	-0.127
-660.959	-148.904	-0.183	0.019
-659.945	-55.600	-0.348	0.205
-658.930	128.784	-0.139	-0.235
-657.916	28.720	0.316	0.355
-656.901	56.117	0.073	-0.094
-655.886	-92.409	0.430	0.159
-654.872	57.791	0.111	-0.144
-653.857	-41.528	-0.275	-0.187
-652.843	-40.525	0.459	0.315
-651.828	54.534	0.230	0.294
-650.814	-41.870	0.312	-0.211
-649.799	-67.728	-0.214	-0.111
-648.784	-66.014	0.321	-0.169
-647.770	146.151	-0.065	-0.115
-646.755	-80.100	-0.275	0.122
-645.741	-121.547	-0.195	0.043
-644.726	-200.000	-0.005	0.245
-643.711	-77.243	0.617	-0.283
-642.697	143.094	-0.112	-0.197
-641.682	-9.036	0.232	-0.205
-640.668	106.475	0.091	-0.144
-639.653	-18.075	-0.211	0.175
-638.638	29.451	0.160	-0.180
-637.624	265.217	-0.096	-0.223
-636.609	-200.000	-0.085	0.595
-635.595	119.769	-0.040	0.066
-634.580	-177.434	-0.156	0.005
-633.565	-94.382	-0.240	0.086
-632.551	-200.000	0.035	0.265
-631.536	-41.798	-0.196	-0.133
-630.522	800.000	0.086	0.317
-629.507	-11.837	0.137	-0.119
-628.492	-176.270	-0.285	-0.010
-627.478	732.242	-0.198	0.706
-626.463	-200.000	-0.016	-0.304
-625.449	197.607	0.193	-0.390
-624.434	-133.532	0.304	-0.050
-623.419	-151.211	-0.393	0.038
-622.405	216.816	-0.150	0.316
-621.390	-77.202	0.492	-0.226
-620.376	129.225	-0.117	0.199
-619.361	740.455	0.095	0.340
-618.346	-85.146	-0.250	0.103
-617.332	158.962	0.138	0.254
-616.317	29.616	-0.143	-0.161
-615.303	-69.553	0.174	0.088
-614.288	-108.607	-0.468	0.132
-613.273	800.000	0.068	-0.320
-612.259	71.461	-0.163	-0.224
-611.244	-114.702	-0.130	0.033
-610.230	-93.303	-0.515	-0.188
-609.215	-200.000	0.086	-0.640
-608.201	-156.293	-0.283	0.023
-607.186	800.000	-0.041	0.218
-606.171	39.137	0.271	0.320
-605.157	-200.000	-0.024	0.295
-604.142	-99.897	0.166	0.055
-603.128	168.967	-0.160	-0.302
-602.113	-200.000	-0.009	-0.058
-601.098	-120.361	0.230	-0.051
-600.084	508.983	-0.122	-0.377
-599.069	-73.874	0.379	-0.181
-598.055	-77.161	0.185	0.085
-597.040	-112.632	-0.316	0.082
-596.025	108.836	0.072	0.114
-595.011	80.441	0.040	-0.057
-593.996	-32.507	-0.287	-0.211
-592.982	-101.172	-0.721	0.231
-591.967	-98.494	0.318	0.107
-590.952	15.272	0.312	-0.323
-589.938	-86.836	-0.274	-0.110
-588.923	-117.313	0.382	-0.091
-587.909	800.000	-0.056	0.290
-586.894	70.589	0.200	0.273
-585.879	77.685	-0.123	-0.173
-584.865	-148.809	-0.428	-0.045
-583.850	686.397	-0.112	-0.388
-582.836	800.000	0.099	-0.414
-581.821	-110.796	0.337	-0.091
-580.806	-121.506	0.408	0.089
-579.792	-101.238	-0.124	-0.040
-578.777	87.921	0.067	0.099
-577.763	-200.000	0.003	0.245
-576.748	-200.000	0.038	0.225
-575.733	-81.312	-0.486	0.211
-574.719	-136.310	-0.337	0.051
-573.704	-136.528	-0.699	0.106
-572.690	-172.881	-0.632	-0.025
-571.675	-142.112	0.505	-0.066
-570.661	-200.000	-0.032	0.195
-569.646	-164.980	-0.399	0.023
-568.631	-38.271	-0.470	0.328
-567.617	800.000	-0.076	-0.322
-566.602	-142.722	-0.169	0.021
-565.588	-0.301	0.106	0.099
-564.573	4.283	0.205	0.198
-563.558	-96.276	0.218	0.076
-562.544	-169.955	-0.612	0.028
-561.529	-156.364	-0.254	-0.021
-560.515	522.520	-0.192	-0.598
-559.500	-59.121	0.146	-0.083
-558.485	800.000	-0.118	-0.582
-557.471	-200.000	-0.042	0.336
-556.456	20.460	-0.319	0.340
-555.442	136.599	0.178	-0.308
-554.427	-90.674	0.236	0.089
-553.412	-72.012	-0.246	-0.120
-552.398	-147.491	-0.308	-0.034
-551.383	-77.497	0.383	0.174
-550.369	8.242	0.512	0.507
-549.354	-96.223	-0.332	-0.115
-548.339	-200.000	0.004	0.369
-547.325	-200.000	-0.049	-0.376
-546.310	242.678	-0.068	-0.151
-545.296	6.688	0.213	-0.209
-544.281	-162.645	0.453	-0.029
-543.266	108.137	-0.159	0.251
-542.252	15.515	-0.424	0.439
-541.237	-113.199	-0.139	-0.036
-540.223	-156.935	0.169	-0.013
-539.208	92.944	0.298	0.445
-538.193	31.952	0.044	0.050
-537.179	-172.228	0.290	0.012
-536.164	-152.720	0.510	-0.047
-535.150	-139.276	-0.260	0.036
-534.135	301.218	0.231	0.564
-533.121	-84.043	0.384	0.160
-532.106	-200.000	0.019	-0.347
-531.091	-83.588	0.340	-0.143
-530.077	125.188	-0.376	0.626
-529.062	-200.000	0.022	-0.516
-528.048	-76.039	0.271	0.126
-527.033	-121.113	-0.082	0.018
-526.018	-104.838	0.071	-0.021
-525.004	254.639	-0.139	0.315
-523.989	-18.737	0.314	0.257
-522.975	-200.000	-0.287	-0.001
-521.960	104.655	-0.133	-0.206
-520.945	-200.000	0.087	0.534
-519.931	68.438	-0.383	0.518
-518.916	-91.468	0.293	-0.109
-517.902	800.000	0.037	-0.144
-516.887	353.596	-0.132	-0.347
-515.872	-3.816	-0.379	-0.346
-514.858	-103.859	0.224	0.068
-513.843	6.091	0.167	-0.163
-512.829	-10.498	-0.238	-0.207
-511.814	-0.266	0.444	0.415
-510.799	-80.573	0.141	-0.062
-509.785	-127.664	0.454	-0.086
-508.770	-163.393	0.273	0.017
-507.756	-177.639	0.156	-0.005
-506.741	52.183	-0.250	0.314
-505.726	274.865	-0.070	-0.164
-504.712	-123.990	-0.277	-0.057
-503.697	-200.000	-0.022	-0.276
-502.683	-145.050	-0.242	0.029
-501.668	47.990	0.056	-0.068
-500.653	-32.285	0.289	-0.212
-499.639	-9.632	-0.199	0.174
-498.624	127.465	0.187	0.312
-497.610	800.000	0.054	0.202
-496.595	-200.000	-0.002	-0.168
-495.581	35.648	0.095	0.110
-494.566	-200.000	-0.043	0.443
-493.551	-70.875	0.206	-0.102
-492.537	-18.322	0.422	-0.347
-491.522	800.000	0.077	0.360
-490.508	-196.233	0.273	-0.002
-489.493	800.000	-0.050	0.284
-488.478	800.000	0.070	-0.295
-487.464	104.740	0.079	-0.122
-486.449	-22.921	-0.261	-0.207
-485.435	-4.211	-0.118	0.107
-484.420	-37.994	0.328	-0.229
-483.405	-62.862	0.403	-0.219
-482.391	800.000	0.028	0.144
-481.376	-123.153	-0.073	0.015
-480.362	58.742	0.392	0.507
-479.347	174.336	-0.129	0.245
-478.332	-200.000	0.030	0.251
-477.318	126.519	-0.167	0.279
-476.303	-106.616	-0.476	-0.138
-475.289	-112.836	-0.201	-0.052
-474.274	800.000	0.058	-0.255
-473.259	-66.849	0.281	-0.146
-472.245	-68.573	-0.141	0.071
-471.230	800.000	-0.121	-0.626
-470.216	243.539	-0.172	-0.380
-469.201	-79.492	0.353	-0.156
-468.186	-104.783	0.190	-0.057
-467.172	-105.842	0.096	0.028
-466.157	-27.009	0.203	0.156
-465.143	-121.752	-0.425	0.091
-464.128	-200.000	0.050	0.488
-463.113	114.567	-0.132	-0.212
-462.099	160.422	0.138	0.254
-461.084	5.708	-0.065	0.063
-460.070	617.917	-0.064	-0.214
-459.055	79.407	-0.414	-0.584
-458.040	-127.173	0.531	0.101
-457.026	-58.956	0.445	-0.252
-456.011	-56.241	0.224	0.130
-454.997	-92.953	0.132	-0.048
-453.982	70.971	0.116	-0.159
-452.968	120.389	0.231	-0.378
-451.953	-128.780	0.202	0.037
-450.938	-37.884	0.250	0.174
-449.924	-138.161	0.218	-0.031
-448.909	800.000	-0.095	-0.382
-447.895	-99.809	-0.106	-0.035
-446.880	184.151	0.358	0.697
-445.865	800.000	0.103	-0.406
-444.851	-82.689	0.528	-0.223
-443.836	134.603	0.207	-0.354
-442.822	6.312	-0.108	-0.105
-441.807	-31.308	-0.179	-0.132
-440.792	-146.410	0.182	0.021
-439.778	28.322	0.291	0.323
-438.763	-84.422	0.068	-0.028
-437.749	-200.000	0.073	0.466
-436.734	234.407	0.184	0.400
-435.719	154.428	0.177	-0.319
-434.705	3.490	-0.196	0.187
-433.690	-133.696	0.209	0.034
-432.676	-200.000	-0.002	0.321
-431.661	64.395	0.388	0.513
-430.646	-200.000	0.053	0.458
-429.632	-200.000	0.008	-0.309
-428.617	-200.000	0.102	-0.764
-427.603	-63.809	-0.249	0.133
-426.588	-148.997	0.328	-0.034
-425.573	-25.823	0.160	0.123
-424.559	800.000	-0.055	0.246
-423.544	-146.620	-0.315	0.035
-422.530	-79.301	0.105	-0.047
-421.515	-137.902	0.218	-0.032
-420.500	296.831	0.138	0.333
-419.486	-71.177	0.305	0.149
-418.471	5.232	0.225	-0.217
-417.457	26.017	0.230	0.252
-416.442	800.000	0.037	0.201
-415.428	392.815	0.120	-0.329
-414.413	-63.261	-0.074	-0.040
-413.398	-162.753	-0.406	-0.026
-412.384	-147.269	-0.420	0.046
-411.369	-200.000	-0.043	-0.507
-410.355	800.000	-0.010	0.048
-409.340	-119.948	0.368	-0.082
-408.325	-95.002	-0.265	-0.093
-407.311	-64.166	-0.359	-0.191
-406.296	103.396	-0.080	-0.124
-405.282	800.000	-0.097	0.408
-404.267	-44.862	0.059	-0.038
-403.252	-48.301	-0.082	-0.052
-402.238	-100.257	-0.499	-0.162
-401.223	-200.000	-0.086	0.507
-400.209	800.000	0.080	0.459
-399.194	-200.000	0.017	-0.605
-398.179	-130.993	0.397	0.069
-397.165	-84.274	0.242	-0.100
-396.150	-5.556	0.362	-0.325
-395.136	676.013	0.108	0.369
-394.121	56.427	-0.121	-0.154
-393.106	-63.238	-0.226	0.122
-392.092	-94.875	0.253	0.089
-391.077	-84.075	-0.358	0.148
-390.063	-170.274	0.333	-0.015
-389.048	-31.862	-0.572	-0.419
-388.033	-87.220	0.397	-0.157
-387.019	521.842	0.061	-0.187
-386.004	172.824	0.119	-0.226
-384.990	-169.382	-0.284	-0.013
-383.975	320.376	-0.285	-0.712
-382.960	-167.936	-0.457	0.023
-381.946	89.198	-0.309	0.452
-380.931	-156.936	-0.336	0.027
-379.917	153.300	-0.139	-0.249
-378.902	-130.414	0.021	0.004
-377.888	-127.907	-0.136	0.025
-376.873	-115.620	0.592	-0.144
-375.858	-85.905	0.161	0.065
-374.844	-200.000	-0.062	-0.467
-373.829	-97.306	-0.159	-0.054
-372.815	299.485	0.218	0.528
-371.800	-200.000	0.272	0.001
-370.785	-90.704	-0.278	0.105
-369.771	166.288	0.054	0.100
-368.756	800.000	-0.050	0.187
-367.742	800.000	-0.072	0.325
-366.727	-158.663	0.373	-0.028
-365.712	41.532	0.174	0.207
-364.698	-101.605	0.367	0.116
-363.683	-200.000	-0.070	0.481
-362.669	178.164	0.147	-0.282
-361.654	82.371	0.070	0.100
-360.639	-200.000	-0.019	0.218
-359.625	-59.872	0.196	-0.109
-358.610	32.638	-0.287	-0.325
-357.596	-53.543	-0.147	0.088
-356.581	-34.187	0.144	0.103
-355.566	54.574	0.251	-0.317
-354.552	332.662	0.148	0.374
-353.537	-128.708	0.440	-0.080
-352.523	-62.584	-0.227	0.123
-351.508	130.608	-0.076	0.127
-350.493	-84.989	0.281	0.115
-349.479	-200.000	-0.051	-0.481
-348.464	-51.804	0.260	-0.158
-347.450	-200.000	-0.010	-0.311
-346.435	250.810	0.129	-0.287
-345.420	-41.643	0.234	0.157
-344.406	-55.285	0.196	0.115
-343.391	-64.074	-0.239	-0.127
-342.377	-178.771	0.381	-0.011
-341.362	369.245	-0.109	0.290
-340.348	44.246	0.564	0.677
-339.333	-79.966	0.115	0.050
-338.318	766.758	0.128	-0.459
-337.304	359.563	0.171	-0.450
-336.289	800.000	0.100	0.407
-335.275	114.973	-0.066	0.106
-334.260	-25.416	-0.104	-0.080
-333.245	490.005	-0.162	-0.486
-332.231	-81.228	0.242	0.104
-331.216	-31.104	-0.067	-0.049
-330.202	-132.456	-0.208	0.035
-329.187	-105.833	-0.470	0.138
-328.172	146.923	0.070	-0.123
-327.158	-110.589	-0.798	-0.214
-326.143	13.872	0.083	-0.084
-325.129	-200.000	0.065	0.476
-324.114	-150.637	0.087	0.009
-323.099	-82.557	-0.348	0.147
-322.085	800.000	0.079	0.376
-321.070	-200.000	-0.018	-0.136
-320.056	-5.445	-0.207	-0.185
-319.041	-112.791	-0.522	-0.134
-318.026	-101.106	-0.403	-0.128
-317.012	-56.050	0.187	0.109
-315.997	-13.259	0.217	0.184
-314.983	-145.324	-0.420	0.049
-313.968	5.969	0.331	-0.320
-312.953	79.198	0.223	-0.312
-311.939	314.056	0.053	-0.130
-310.924	-128.699	-0.206	0.038
-309.910	7.679	-0.323	0.315
-308.895	-36.909	-0.303	-0.212
-307.880	-72.377	-0.209	0.101
-306.866	227.728	0.058	0.123
-305.851	-148.205	0.529	0.056
-304.837	-200.000	0.017	-0.626
-303.822	-11.508	0.086	0.074
-302.807	-22.164	-0.307	-0.243
-301.793	-185.662	-0.220	-0.004
-300.778	-58.129	-0.550	-0.312
-299.764	-144.663	-0.572	-0.068
-298.749	212.581	-0.271	0.559
-297.735	-17.687	0.357	0.292
-296.720	-58.852	-0.225	-0.127
-295.705	-82.893	-0.188	-0.079
-294.691	-83.147	0.356	-0.149
-293.676	-43.573	0.241	-0.159
-292.662	83.969	-0.133	0.190
-291.647	-82.599	-0.449	0.189
-290.632	-132.635	0.114	0.019
-289.618	-12.357	0.112	0.095
-288.603	31.740	-0.169	-0.190
-287.589	391.567	-0.125	-0.341
-286.574	800.000	-0.082	0.393
-285.559	720.903	0.071	-0.248
-284.545	-200.000	-0.007	-0.139
-283.530	-173.629	-0.190	0.007
-282.516	541.002	-0.112	0.350
-281.501	-19.672	0.170	-0.137
-280.486	-146.608	-0.289	-0.032
-279.472	292.154	0.083	0.198
-278.457	176.449	0.140	-0.266
-277.443	-113.528	-0.307	-0.078
-276.428	206.072	0.024	0.050
-275.413	-47.984	0.366	-0.230
-274.399	165.267	0.236	-0.436
-273.384	-32.081	-0.376	0.274
-272.370	27.929	0.196	0.215
-271.355	44.223	-0.263	0.314
-270.340	66.350	-0.336	0.446
-269.326	-22.337	0.322	-0.254
-268.311	-200.000	-0.047	0.352
-267.297	14.417	-0.156	0.159
-266.282	586.940	0.041	-0.133
-265.267	-126.258	-0.239	0.046
-264.253	1.726	0.060	-0.056
-263.238	-31.481	-0.139	-0.102
-262.224	-200.000	-0.029	0.332
-261.209	-92.840	-0.384	0.139
-260.195	-200.000	0.015	-0.280
-259.180	-62.767	0.125	0.067
-258.165	315.308	-0.060	-0.148
-257.151	218.062	-0.190	0.397
-256.136	800.000	0.087	0.371
-255.122	-200.000	-0.099	-0.775
-254.107	800.000	-0.037	-0.171
-253.092	13.027	0.307	0.310
-252.078	-28.280	0.327	0.245
-251.063	-200.000	-0.053	-0.331
-250.049	800.000	0.113	-0.435
-249.034	-182.199	-0.209	0.005
-248.019	-69.716	-0.167	0.083
-247.005	800.000	0.084	-0.364
-245.990	55.716	-0.163	0.206
-244.976	-131.494	0.146	0.025
-243.961	-6.135	-0.428	-0.380
-242.946	48.405	-0.041	-0.050
-241.932	349.360	-0.176	-0.454
-240.917	-200.000	0.017	0.109
-239.903	-103.250	-0.514	-0.157
-238.888	-140.977	-0.205	-0.027
-237.873	-200.000	0.039	-0.310
-236.859	3.330	-0.254	0.240
-235.844	-174.798	-0.148	0.005
-234.830	22.586	0.167	0.178
-233.815	-104.448	0.256	-0.077
-232.800	19.554	-0.469	-0.491
-231.786	-8.226	0.574	0.503
-230.771	74.102	-0.232	0.317
-229.757	800.000	-0.046	0.216
-228.742	597.785	-0.127	-0.413
-227.727	-171.738	-0.479	0.020
-226.713	479.563	-0.157	-0.466
-225.698	24.034	0.481	-0.516
-224.684	-151.199	0.636	-0.061
-223.669	45.077	-0.226	-0.272
-222.655	-36.463	-0.403	-0.282
-221.640	34.599	0.187	0.213
-220.625	-62.287	-0.138	-0.075
-219.611	800.000	0.027	-0.144
-218.596	97.262	-0.189	-0.283
-217.582	-136.035	0.113	-0.017
-216.567	-200.000	0.046	0.281
-215.552	104.775	0.339	0.521
-214.538	-112.702	-0.392	-0.101
-213.523	55.531	-0.134	0.169
-212.509	602.430	-0.112	0.364
-211.494	-21.312	-0.153	0.122
-210.479	-53.055	0.422	0.252
-209.465	-200.000	0.013	0.220
-208.450	26.855	0.308	0.336
-207.436	-68.738	0.107	-0.054
-206.421	-8.259	-0.352	-0.308
-205.406	800.000	-0.053	-0.264
-204.392	-192.633	0.094	-0.001
-203.377	800.000	0.084	0.402
-202.363	64.082	0.429	0.561
-201.348	11.141	0.331	0.329
-200.333	-41.239	-0.512	-0.342
-199.319	182.778	-0.218	-0.420
-198.304	-48.032	0.229	-0.144
-197.290	-200.000	0.002	-0.071
-196.275	-47.966	-0.114	0.071
-195.260	-69.815	-0.501	-0.248
-194.246	73.108	0.059	-0.080
-193.231	211.000	0.171	-0.351
-192.217	32.392	-0.183	-0.206
-191.202	503.898	0.265	-0.801
-190.187	-9.544	0.208	-0.180
-189.173	141.757	0.207	-0.357
-188.158	800.000	0.104	-0.481
-187.144	5.993	-0.289	0.278
-186.129	13.423	-0.240	0.242
-185.114	-153.568	0.413	0.037
-184.100	-141.523	0.839	0.109
-183.085	-177.647	0.385	0.012
-182.071	118.543	0.186	-0.299
-181.056	-200.000	0.042	0.374
-180.042	615.753	-0.154	0.503
-179.027	378.999	-0.051	-0.137
-178.012	-200.000	0.011	-0.291
-176.998	441.507	-0.084	-0.241
-175.983	-136.875	-0.759	0.112
-174.969	-95.326	0.070	-0.024
-173.954	-147.702	0.033	-0.004
-172.939	-121.471	0.299	0.064
-171.925	800.000	-0.040	0.169
-170.910	278.596	-0.158	-0.367
-169.896	311.698	0.207	0.507
-168.881	14.127	0.284	0.287
-167.866	-166.831	0.468	-0.025
-166.852	-200.000	-0.049	0.372
-165.837	-68.259	-0.308	0.155
-164.823	-92.715	0.182	0.066
-163.808	-200.000	0.017	-0.233
-162.793	33.785	0.340	0.384
-161.779	800.000	-0.163	-0.871
-160.764	-12.256	-0.404	0.343
-159.750	-200.000	0.028	0.492
-158.735	77.714	0.085	0.117
-157.720	196.439	-0.141	0.279
-156.706	600.435	-0.127	0.411
-155.691	7.171	-0.152	-0.147
-154.677	773.133	0.031	-0.110
-153.662	-52.208	0.271	-0.162
-152.647	48.747	-0.338	0.412
-151.633	-63.218	-0.070	-0.038
-150.618	138.459	-0.301	0.513
-149.604	76.177	0.134	0.184
-148.589	235.911	-0.029	-0.062
-147.574	-2.216	0.178	0.162
-146.560	-112.530	-0.093	-0.024
-145.545	-200.000	-0.039	-0.247
-144.531	477.980	-0.089	-0.264
-143.516	123.152	0.451	0.735
-142.502	136.748	0.431	0.733
-141.487	174.250	-0.055	0.104
-140.472	-128.066	0.275	-0.051
-139.458	-200.000	0.006	-0.281
-138.443	-200.000	0.047	-0.777
-137.429	730.476	-0.133	-0.464
-136.414	-24.529	0.044	-0.034
-135.399	174.870	0.181	-0.341
-134.385	146.540	-0.301	-0.526
-133.370	288.507	-0.253	0.597
-132.356	778.015	-0.049	-0.176
-131.341	97.728	0.097	-0.145
-130.326	-10.683	0.146	0.125
-129.312	-162.271	0.309	-0.020
-128.297	-47.477	0.344	0.216
-127.283	800.000	0.133	0.618
-126.268	5.730	0.316	-0.303
-125.253	-200.000	-0.003	-0.056
-124.239	71.940	-0.196	0.264
-123.224	65.078	-0.103	-0.136
-122.210	-35.401	-0.130	0.091
-121.195	-119.855	-0.277	-0.061
