DTS Sentinel unit serial number:	SN409020Multiplexer serial number:	ORYXHardware model number:	OX4-SRSoftware version number:	ORYX F/W v3.00 Oryx Data Collector v3.7.2.0data status	okinstallation	HaddamTimeLapsedifferential loss correction	single-endedforward channel	channel 3reverse channel	N/Adate	2011/06/22time	05:56:16forward acquisition time	30.00reverse acquisition time	0.00gamma	498.7831k internal	0.1752k external	0.1752temperature offset calibration	1.0074default loss term (dB/km)	0.3790temperature slope calibration	1.3530multiplexer offset coefficient	1.0000multiplexer slope coefficient	1.0000fibre end	0.00T internal ref (°C)	22.59T ext. ref 1 (°C)	18.00T ext. ref 2 (°C)	0.17length (m)	temperature (°C)	Stokes	anti-Stokes-747.200	-200.000	0.025	-0.286
-746.185	-69.353	0.478	0.243
-745.171	-200.000	0.019	-0.273
-744.156	-67.048	0.085	0.044
-743.142	-200.000	0.022	-0.278
-742.127	-37.131	-0.107	0.076
-741.112	-200.000	0.011	-0.142
-740.098	162.909	-0.251	0.470
-739.083	-109.360	-0.256	0.071
-738.069	-39.813	0.560	-0.388
-737.054	127.515	-0.188	-0.318
-736.039	41.497	-0.041	0.050
-735.025	-200.000	-0.027	-0.304
-734.010	-200.000	0.005	0.179
-732.996	-105.054	0.385	0.116
-731.981	283.445	0.133	0.318
-730.966	-88.166	0.512	0.202
-729.952	143.716	-0.221	-0.392
-728.937	-65.866	-0.216	-0.114
-727.923	42.002	0.148	-0.179
-726.908	146.120	-0.189	0.337
-725.894	17.232	-0.282	0.296
-724.879	198.516	0.208	0.423
-723.864	277.782	0.023	-0.056
-722.850	-158.191	-0.103	0.008
-721.835	-200.000	-0.070	0.416
-720.821	47.417	-0.394	-0.488
-719.806	-200.000	0.043	-0.313
-718.791	176.303	0.134	-0.259
-717.777	-200.000	-0.032	-0.291
-716.762	-200.000	-0.077	-0.512
-715.748	119.418	0.073	0.120
-714.733	-4.616	0.425	-0.389
-713.718	-172.223	-0.319	-0.013
-712.704	122.948	-0.119	-0.198
-711.689	800.000	0.079	-0.387
-710.675	-18.066	-0.015	0.013
-709.660	-120.230	0.134	0.030
-708.645	-33.168	-0.300	0.220
-707.631	-200.000	0.028	-0.200
-706.616	-150.570	0.156	-0.016
-705.602	669.835	0.024	0.082
-704.587	29.072	-0.296	-0.333
-703.572	121.476	-0.259	-0.429
-702.558	170.490	-0.100	-0.191
-701.543	65.797	0.187	-0.251
-700.529	-200.000	0.001	0.151
-699.514	-152.967	-0.111	-0.010
-698.499	274.212	0.053	0.125
-697.485	-200.000	-0.043	-0.348
-696.470	-180.177	0.336	-0.009
-695.456	129.480	0.174	0.295
-694.441	-28.122	0.191	-0.146
-693.426	-200.000	0.015	-0.233
-692.412	29.567	0.091	0.102
-691.397	-200.000	-0.022	-0.258
-690.383	-130.119	0.091	0.016
-689.368	-105.457	-0.409	0.122
-688.354	-72.012	-0.429	-0.210
-687.339	-141.816	0.259	0.034
-686.324	36.255	-0.181	-0.211
-685.310	76.449	-0.340	0.478
-684.295	472.703	-0.146	0.437
-683.281	-49.481	0.289	-0.182
-682.266	-141.602	0.288	-0.038
-681.251	-200.000	0.213	0.000
-680.237	213.322	-0.093	-0.195
-679.222	-112.593	-0.296	0.077
-678.208	-0.414	0.318	-0.299
-677.193	108.497	0.081	-0.128
-676.178	36.095	-0.391	-0.456
-675.164	-107.230	-0.546	-0.158
-674.149	74.832	-0.185	-0.259
-673.135	800.000	-0.087	0.374
-672.120	-174.448	0.185	0.007
-671.105	-88.805	0.460	0.180
-670.091	-200.000	0.015	0.327
-669.076	-35.178	-0.393	0.283
-668.062	-150.195	-0.602	-0.061
-667.047	800.000	-0.037	-0.151
-666.032	-200.000	0.006	0.204
-665.018	7.127	0.482	0.475
-664.003	755.016	0.120	-0.433
-662.989	800.000	-0.044	0.240
-661.974	-56.870	-0.168	-0.098
-660.959	-29.710	0.402	0.303
-659.945	16.717	-0.082	-0.085
-658.930	32.615	-0.352	-0.403
-657.916	-136.077	-0.103	0.016
-656.901	623.461	-0.082	0.274
-655.886	94.440	-0.139	-0.209
-654.872	300.874	0.245	-0.600
-653.857	226.296	-0.054	-0.116
-652.843	279.548	-0.161	0.381
-651.828	-23.557	-0.360	-0.285
-650.814	-165.714	-0.439	-0.025
-649.799	514.805	-0.136	-0.423
-648.784	-77.016	-0.142	0.065
-647.770	-46.611	0.189	-0.122
-646.755	-107.215	-0.499	0.144
-645.741	-142.703	0.231	0.029
-644.726	-125.515	-0.307	-0.061
-643.711	-102.197	-0.660	-0.209
-642.697	800.000	0.049	-0.184
-641.682	91.972	0.039	-0.058
-640.668	298.014	0.158	0.386
-639.653	-56.746	0.362	-0.211
-638.638	-11.511	0.350	0.304
-637.624	-114.812	-0.372	0.093
-636.609	-200.000	-0.001	-0.028
-635.595	-81.284	0.320	-0.139
-634.580	-106.715	-0.410	-0.120
-633.565	-109.745	-0.396	-0.109
-632.551	-99.693	-0.104	0.034
-631.536	190.035	-0.129	0.257
-630.522	-200.000	-0.025	-0.345
-629.507	195.956	-0.156	0.314
-628.492	-200.000	-0.022	0.133
-627.478	555.550	0.068	0.219
-626.463	-71.095	0.447	0.221
-625.449	146.369	-0.251	0.447
-624.434	-7.413	-0.427	0.382
-623.419	-27.200	-0.105	-0.080
-622.405	-77.932	0.293	0.133
-621.390	-54.736	-0.054	-0.032
-620.376	28.997	-0.211	0.237
-619.361	204.660	-0.293	-0.602
-618.346	83.921	-0.418	-0.603
-617.332	-22.355	-0.169	-0.135
-616.317	-58.747	0.250	0.142
-615.303	-20.015	0.182	-0.148
-614.288	-128.528	-0.142	0.026
-613.273	-137.113	0.672	0.100
-612.259	202.411	0.230	-0.470
-611.244	50.629	-0.091	0.114
-610.230	-154.509	-0.253	0.022
-609.215	109.404	0.128	-0.203
-608.201	-200.000	-0.045	-0.481
-607.186	-130.311	0.413	-0.073
-606.171	122.798	-0.144	-0.238
-605.157	-127.768	-0.392	0.074
-604.142	-18.952	-0.226	0.185
-603.128	-189.605	0.288	0.004
-602.113	-200.000	-0.051	-0.302
-601.098	-72.488	-0.128	-0.062
-600.084	-102.730	0.416	-0.130
-599.069	-65.406	0.223	-0.118
-598.055	227.634	-0.030	-0.064
-597.040	-35.993	0.121	0.086
-596.025	-138.099	0.126	0.018
-595.011	-79.356	-0.098	0.044
-593.996	-145.204	0.646	0.076
-592.982	-63.802	-0.525	-0.282
-591.967	-99.686	-0.441	-0.145
-590.952	800.000	-0.074	0.302
-589.938	270.161	-0.063	-0.146
-588.923	-92.222	0.394	0.146
-587.909	208.961	0.282	-0.584
-586.894	98.527	-0.104	-0.158
-585.879	-200.000	0.023	0.199
-584.865	94.404	-0.247	-0.371
-583.850	154.224	0.046	0.084
-582.836	670.910	0.086	0.297
-581.821	-31.216	-0.245	-0.182
-580.806	-200.000	-0.002	0.273
-579.792	-56.505	0.361	0.210
-578.777	-200.000	-0.057	-0.503
-577.763	34.797	-0.109	-0.125
-576.748	-200.000	-0.031	0.206
-575.733	354.061	0.278	0.731
-574.719	203.413	-0.110	-0.225
-573.704	-75.979	0.330	-0.153
-572.690	-88.434	0.109	0.043
-571.675	-135.053	0.229	-0.036
-570.661	65.230	0.155	-0.208
-569.646	-51.855	0.684	-0.418
-568.631	-200.000	0.058	-0.396
-567.617	53.474	-0.143	-0.181
-566.602	-58.972	0.342	-0.194
-565.588	-118.153	0.513	-0.120
-564.573	-0.299	-0.129	0.121
-563.558	54.240	-0.347	0.441
-562.544	-200.000	-0.046	0.440
-561.529	213.541	0.344	0.718
-560.515	-127.450	0.106	-0.020
-559.500	428.522	0.016	0.046
-558.485	-11.869	0.105	-0.091
-557.471	-138.273	-0.304	-0.044
-556.456	-103.593	0.379	0.116
-555.442	800.000	0.049	-0.225
-554.427	40.678	-0.213	-0.253
-553.412	800.000	-0.070	-0.358
-552.398	-200.000	0.172	-0.001
-551.383	15.882	-0.235	0.244
-550.369	-133.758	0.178	-0.029
-549.354	-85.931	0.393	0.159
-548.339	14.755	0.183	0.188
-547.325	342.231	-0.035	-0.091
-546.310	-200.000	-0.004	0.579
-545.296	-41.200	0.239	-0.162
-544.281	1.002	-0.249	-0.235
-543.266	73.329	0.286	-0.395
-542.252	-92.051	0.438	0.162
-541.237	146.467	0.214	0.380
-540.223	-85.605	-0.723	0.295
-539.208	216.696	-0.149	-0.314
-538.193	-200.000	-0.073	0.540
-537.179	-125.523	0.073	0.014
-536.164	117.500	-0.206	0.334
-535.150	-200.000	-0.017	-0.170
-534.135	174.113	0.226	-0.431
-533.121	-186.498	-0.224	-0.004
-532.106	151.469	0.209	-0.376
-531.091	-200.000	-0.031	-0.367
-530.077	234.744	0.104	-0.226
-529.062	-200.000	0.013	0.402
-528.048	800.000	-0.091	-0.405
-527.033	180.076	0.282	0.545
-526.018	203.980	-0.106	0.218
-525.004	-25.803	-0.151	0.117
-523.989	-168.260	0.504	0.025
-522.975	37.519	0.128	-0.149
-521.960	800.000	0.059	0.310
-520.945	336.757	0.140	0.358
-519.931	-200.000	-0.002	0.405
-518.916	105.569	-0.138	-0.215
-517.902	-133.070	-0.467	0.077
-516.887	34.323	-0.164	-0.188
-515.872	10.830	0.199	0.200
-514.858	484.446	0.226	-0.681
-513.843	616.420	0.147	-0.489
-512.829	-54.457	-0.141	-0.084
-511.814	654.391	0.010	0.034
-510.799	226.401	-0.204	0.437
-509.785	240.701	-0.095	0.210
-508.770	767.623	-0.208	0.749
-507.756	-86.960	-0.104	-0.042
-506.741	-73.613	-0.285	-0.136
-505.726	-200.000	-0.004	0.472
-504.712	-67.079	0.398	0.206
-503.697	59.406	-0.118	-0.153
-502.683	145.283	0.279	0.492
-501.668	-146.342	0.365	0.042
-500.653	-142.737	0.438	-0.056
-499.639	-12.774	-0.377	0.322
-498.624	-200.000	-0.037	0.280
-497.610	-158.617	0.364	-0.027
-496.595	-57.561	0.254	-0.146
-495.581	141.939	-0.064	0.113
-494.566	-42.921	-0.243	-0.162
-493.551	305.194	-0.058	0.143
-492.537	83.757	-0.078	0.112
-491.522	800.000	0.044	0.212
-490.508	124.390	0.060	-0.099
-489.493	160.784	-0.197	0.363
-488.478	73.547	0.292	0.403
-487.464	-99.554	-0.422	0.139
-486.449	-84.408	0.088	-0.036
-485.435	-200.000	0.032	0.262
-484.420	367.809	-0.111	-0.296
-483.405	-70.501	0.074	0.037
-482.391	93.092	-0.239	-0.355
-481.376	-112.134	-0.263	-0.069
-480.362	-16.401	0.097	0.081
-479.347	-61.897	0.245	-0.134
-478.332	134.909	0.232	-0.396
-477.318	33.288	0.223	-0.254
-476.303	-200.000	0.018	-0.154
-475.289	57.009	0.106	-0.136
-474.274	-200.000	0.033	-0.289
-473.259	-72.458	-0.084	0.041
-472.245	26.278	-0.109	0.120
-471.230	-123.446	-0.219	0.045
-470.216	-59.975	-0.283	0.158
-469.201	-130.223	-0.064	0.011
-468.186	202.748	0.173	0.352
-467.172	-103.694	-0.474	0.145
-466.157	344.740	-0.126	0.327
-465.143	-14.745	-0.353	-0.297
-464.128	800.000	0.040	-0.158
-463.113	-12.610	-0.302	0.258
-462.099	49.363	0.448	0.553
-461.084	-42.210	0.280	-0.187
-460.070	-130.847	0.170	0.030
-459.055	800.000	-0.076	0.356
-458.040	-163.968	-0.189	0.011
-457.026	-173.047	0.360	-0.014
-456.011	-200.000	0.025	0.261
-454.997	800.000	0.163	0.659
-453.982	-200.000	-0.029	0.434
-452.968	-179.204	0.448	-0.013
-451.953	-139.848	-0.157	0.022
-450.938	-133.852	0.110	-0.018
-449.924	-108.349	-0.197	0.056
-448.909	53.963	-0.252	-0.318
-447.895	-85.812	0.266	-0.108
-446.880	712.388	-0.051	0.178
-445.865	-24.383	0.170	0.132
-444.851	19.217	-0.174	0.183
-443.836	-31.083	0.331	0.244
-442.822	113.797	0.125	0.200
-441.807	-17.905	0.230	0.189
-440.792	16.002	-0.195	0.201
-439.778	125.604	0.149	0.247
-438.763	-35.078	-0.471	0.336
-437.749	-97.094	-0.245	0.084
-436.734	444.842	-0.071	0.206
-435.719	94.576	0.216	-0.323
-434.705	376.696	0.102	0.274
-433.690	-142.860	-0.439	0.055
-432.676	-114.841	0.330	-0.082
-431.661	356.211	-0.104	0.272
-430.646	-77.261	0.153	-0.070
-429.632	-145.015	0.183	0.022
-428.617	22.791	0.250	-0.269
-427.603	-19.028	0.196	-0.160
-426.588	-85.564	0.585	-0.237
-425.573	195.768	-0.076	0.151
-424.559	-57.945	-0.351	-0.201
-423.544	184.406	-0.091	-0.178
-422.530	96.664	0.184	0.276
-421.515	234.363	-0.172	-0.373
-420.500	6.852	-0.407	-0.397
-419.486	-200.000	-0.082	-0.604
-418.471	800.000	0.017	0.070
-417.457	133.524	-0.234	0.398
-416.442	-51.016	0.501	0.307
-415.428	103.644	0.064	-0.099
-414.413	155.391	-0.027	0.048
-413.398	74.075	-0.116	-0.159
-412.384	129.593	0.031	0.052
-411.369	37.857	-0.299	-0.349
-410.355	-8.943	0.218	-0.191
-409.340	-105.728	-0.312	-0.092
-408.325	173.223	0.134	-0.255
-407.311	99.824	-0.282	-0.429
-406.296	12.431	0.135	0.137
-405.282	-163.063	-0.132	-0.008
-404.267	111.985	0.172	0.272
-403.252	-24.102	-0.287	-0.224
-402.238	-45.232	-0.269	0.174
-401.223	-9.853	0.160	0.139
-400.209	-58.649	0.043	0.024
-399.194	-106.687	-0.538	-0.155
-398.179	-200.000	-0.036	0.272
-397.165	192.096	0.168	0.334
-396.150	-74.163	-0.503	-0.237
-395.136	-16.989	0.171	0.141
-394.121	300.948	0.079	0.192
-393.106	118.122	0.048	-0.077
-392.092	-60.639	-0.452	-0.250
-391.077	9.772	0.192	-0.191
-390.063	800.000	0.108	-0.489
-389.048	-117.872	-0.219	0.051
-388.033	-169.985	-0.337	0.015
-387.019	-26.010	0.397	-0.305
-386.004	-89.851	-0.451	-0.172
-384.990	436.299	0.017	0.047
-383.975	-162.636	-0.166	0.011
-382.960	-113.739	0.354	-0.090
-381.946	195.657	-0.175	-0.349
-380.931	-106.553	-0.386	0.112
-379.917	-69.334	0.121	-0.061
-378.902	86.646	-0.286	0.414
-377.888	800.000	0.112	-0.565
-376.873	-200.000	-0.064	0.451
-375.858	-200.000	0.043	0.383
-374.844	356.395	-0.057	0.149
-373.829	800.000	-0.037	-0.166
-372.815	-21.283	-0.282	0.225
-371.800	-189.600	0.525	0.008
-370.785	-6.259	-0.607	0.542
-369.771	-50.836	0.212	0.130
-368.756	-62.381	-0.562	-0.305
-367.742	113.356	0.099	-0.158
-366.727	-11.944	0.235	0.201
-365.712	223.747	-0.204	-0.432
-364.698	51.567	0.099	-0.123
-363.683	-141.261	-0.218	-0.029
-362.669	207.000	-0.029	-0.060
-361.654	-125.768	0.121	0.024
-360.639	-156.489	0.127	0.010
-359.625	-105.188	0.160	-0.048
-358.610	-38.473	0.021	0.014
-357.596	-11.187	-0.174	-0.150
-356.581	-78.332	-0.192	-0.086
-355.566	-113.254	0.086	0.022
-354.552	-141.819	0.229	0.030
-353.537	-143.139	0.382	0.048
-352.523	511.344	0.029	0.087
-351.508	-117.761	0.172	-0.040
-350.493	-139.136	0.004	0.000
-349.479	-82.071	0.283	-0.120
-348.464	-5.510	0.207	0.185
-347.450	-200.000	-0.063	-0.434
-346.435	13.483	-0.114	0.116
-345.420	-4.665	-0.107	0.096
-344.406	-11.707	0.365	0.313
-343.391	-200.000	-0.053	-0.537
-342.377	-11.928	-0.204	0.174
-341.362	-114.050	0.504	0.127
-340.348	-96.473	0.220	-0.075
-339.333	762.352	0.030	0.106
-338.318	371.568	-0.103	-0.274
-337.304	-69.953	0.293	-0.145
-336.289	6.008	0.219	0.212
-335.275	-200.000	-0.002	0.591
-334.260	-200.000	-0.006	-0.263
-333.245	-97.987	-0.194	0.065
-332.231	-200.000	-0.010	0.070
-331.216	-54.649	-0.554	0.326
-330.202	-20.826	-0.078	0.063
-329.187	108.398	0.173	0.270
-328.172	41.111	-0.071	-0.084
-327.158	-200.000	-0.026	0.178
-326.143	-124.151	-0.104	-0.021
-325.129	-158.620	0.265	0.020
-324.114	-179.877	0.180	-0.005
-323.099	-118.313	-0.244	0.056
-322.085	43.321	0.177	-0.212
-321.070	58.945	-0.094	0.121
-320.056	-38.546	-0.423	0.291
-319.041	-130.049	-0.189	-0.033
-318.026	-31.048	0.254	-0.187
-317.012	19.555	0.303	-0.319
-315.997	-141.100	0.328	-0.043
-314.983	45.937	-0.364	-0.440
-313.968	83.843	-0.190	-0.272
-312.953	-45.134	-0.162	-0.105
-311.939	-168.358	-0.463	0.023
-310.924	-17.031	-0.165	-0.135
-309.910	-200.000	0.031	-0.517
-308.895	-200.000	-0.028	0.188
-307.880	800.000	-0.081	-0.441
-306.866	-74.347	0.475	-0.223
-305.851	-55.839	-0.486	0.283
-304.837	157.077	-0.320	-0.579
-303.822	13.601	0.173	0.175
-302.807	-108.884	-0.530	0.147
-301.793	22.458	-0.154	0.164
-300.778	-149.501	-0.153	0.016
-299.764	-200.000	0.005	-0.269
-298.749	35.274	0.275	-0.315
-297.735	-200.000	0.012	0.242
-296.720	-113.124	0.062	0.016
-295.705	-108.902	-0.151	0.042
-294.691	302.228	0.057	-0.139
-293.676	-104.820	-0.392	0.117
-292.662	800.000	-0.112	-0.442
-291.647	456.122	-0.093	0.270
-290.632	392.173	0.043	-0.116
-289.618	-123.838	0.242	0.049
-288.603	238.648	-0.159	0.346
-287.589	800.000	0.065	0.296
-286.574	517.024	0.217	0.667
-285.559	-77.040	0.379	0.172
-284.545	-40.180	-0.190	-0.129
-283.530	-36.256	0.147	-0.103
-282.516	-165.048	-0.282	-0.016
-281.501	28.258	-0.012	-0.014
-280.486	175.531	0.210	0.399
-279.472	96.701	-0.046	-0.069
-278.457	5.071	0.247	-0.237
-277.443	-114.269	0.313	-0.078
-276.428	-65.878	-0.568	-0.295
-275.413	-79.211	-0.273	-0.120
-274.399	-90.786	0.233	-0.087
-273.384	-14.187	0.069	0.058
-272.370	-108.627	0.238	0.066
-271.355	-200.000	0.046	-0.476
-270.340	261.268	0.187	-0.423
-269.326	-200.000	-0.020	-0.288
-268.311	726.202	0.144	0.505
-267.297	-14.417	0.095	0.080
-266.282	284.358	-0.151	-0.355
-265.267	-73.300	0.249	-0.118
-264.253	-123.641	-0.305	-0.062
-263.238	-200.000	-0.068	0.433
-262.224	32.129	0.207	-0.233
-261.209	-37.989	-0.375	0.259
-260.195	-160.749	0.242	-0.016
-259.180	-49.703	-0.266	-0.164
-258.165	-151.732	0.190	-0.018
-257.151	500.421	-0.107	-0.323
-256.136	-41.929	0.258	-0.172
-255.122	82.485	-0.142	-0.202
-254.107	-200.000	-0.044	0.532
-253.092	-10.431	0.356	-0.307
-252.078	-200.000	-0.002	0.154
-251.063	63.058	0.186	0.242
-250.049	-200.000	0.012	-0.117
-249.034	-146.930	0.287	-0.032
-248.019	-9.795	-0.324	-0.281
-247.005	-91.429	-0.428	0.158
-245.990	-92.607	-0.801	-0.291
-244.976	-200.000	-0.050	-0.294
-243.961	123.796	0.044	0.072
-242.946	-39.659	-0.347	-0.236
-241.932	310.200	0.053	0.130
-240.917	-200.000	-0.007	0.051
-239.903	120.794	-0.257	-0.417
-238.888	-200.000	0.085	0.536
-237.873	-40.775	0.513	0.345
-236.859	800.000	-0.124	0.680
-235.844	-142.442	-0.321	0.041
-234.830	175.254	0.215	0.406
-233.815	-200.000	0.072	0.441
-232.800	-95.425	-0.107	0.037
-231.786	-31.514	-0.102	-0.075
-230.771	17.324	-0.129	-0.133
-229.757	-83.558	-0.105	-0.043
-228.742	160.016	-0.111	0.202
-227.727	-17.679	0.264	-0.216
-226.713	405.919	-0.141	-0.390
-225.698	-200.000	-0.025	-0.172
-224.684	235.970	-0.117	0.252
-223.669	-41.332	0.394	0.264
-222.655	-200.000	-0.030	-0.247
-221.640	800.000	0.123	-0.459
-220.625	-141.575	0.451	0.058
-219.611	82.487	0.168	-0.237
-218.596	-50.769	-0.178	0.108
-217.582	-61.006	0.634	0.347
-216.567	-44.111	0.196	-0.127
-215.552	-168.903	-0.096	-0.005
-214.538	-143.414	0.277	0.034
-213.523	-136.813	-0.217	0.032
-212.509	-0.547	-0.202	0.186
-211.494	-17.507	0.172	0.140
-210.479	-38.504	0.100	-0.069
-209.465	-28.638	0.095	-0.071
-208.450	800.000	-0.053	0.231
-207.436	83.339	0.190	-0.270
-206.421	325.958	-0.093	-0.232
-205.406	376.050	-0.057	0.151
-204.392	-122.088	-0.285	-0.060
-203.377	87.570	-0.043	0.062
-202.363	-200.000	-0.047	0.506
-201.348	-126.707	0.160	0.030
-200.333	61.374	0.270	-0.349
-199.319	-58.833	0.184	-0.103
-198.304	215.825	-0.251	-0.520
-197.290	-122.396	-0.491	0.103
-196.275	92.189	-0.103	0.152
-195.260	-70.530	-0.063	0.031
-194.246	-200.000	0.023	0.358
-193.231	800.000	-0.090	0.351
-192.217	202.398	0.083	-0.167
-191.202	-60.717	-0.238	-0.131
-190.187	138.568	0.232	-0.396
-189.173	-80.085	-0.207	0.090
-188.158	800.000	0.021	-0.116
-187.144	-37.663	-0.299	0.206
-186.129	128.365	-0.182	-0.302
-185.114	-200.000	0.007	0.334
-184.100	-104.766	-0.214	-0.064
-183.085	-200.000	0.014	-0.220
-182.071	14.406	0.222	-0.224
-181.056	34.067	-0.401	0.454
-180.042	-126.594	-0.223	-0.042
-179.027	181.943	0.004	-0.009
-178.012	216.409	0.052	-0.109
-176.998	62.200	-0.135	-0.175
-175.983	-169.460	0.074	0.003
-174.969	210.877	-0.139	0.285
-173.954	-26.482	0.259	-0.196
-172.939	-64.225	-0.167	0.088
-171.925	-123.185	0.152	0.031
-170.910	717.029	0.124	-0.429
-169.896	-200.000	0.014	-0.332
-168.881	800.000	0.090	-0.383
-167.866	-137.335	0.550	-0.080
-166.852	-14.622	0.236	0.197
-165.837	141.488	-0.193	-0.332
-164.823	-200.000	0.004	0.029
-163.808	-200.000	-0.025	0.413
-162.793	-200.000	-0.024	0.221
-161.779	-200.000	0.090	-0.838
-160.764	-110.934	0.350	0.093
-159.750	-115.985	0.209	-0.050
-158.735	-30.381	0.161	0.118
-157.720	298.636	-0.129	0.308
-156.706	772.128	-0.084	-0.299
-155.691	45.285	0.304	0.364
-154.677	-135.011	0.311	-0.048
-153.662	108.815	-0.204	-0.317
-152.647	-200.000	0.002	0.092
-151.633	-58.878	-0.237	0.132
-150.618	-89.331	-0.317	-0.120
-149.604	800.000	0.053	0.297
-148.589	-200.000	-0.019	0.293
-147.574	133.770	0.066	0.112
-146.560	-15.931	0.144	-0.118
-145.545	-117.710	0.636	0.147
-144.531	-200.000	0.004	0.109
-143.516	630.305	0.189	0.623
-142.502	-113.077	0.693	-0.176
-141.487	-3.997	-0.161	-0.145
-140.472	-200.000	-0.033	0.200
-139.458	56.690	-0.276	-0.348
-138.443	-144.086	-0.504	0.061
-137.429	-58.092	0.148	0.084
-136.414	21.384	0.123	0.129
-135.399	-4.348	0.115	0.103
-134.385	-136.533	-0.318	-0.047
-133.370	-61.851	-0.386	0.209
-132.356	563.621	0.138	-0.435
-131.341	-200.000	0.026	-0.536
-130.326	114.714	-0.241	0.381
-129.312	-46.013	0.135	-0.086
-128.297	-100.084	0.318	-0.102
-127.283	800.000	-0.219	0.829
-126.268	164.962	0.042	-0.077
-125.253	508.833	0.140	0.422
-124.239	-17.449	-0.468	0.381
-123.224	7.160	0.164	0.158
-122.210	47.241	0.070	-0.084
