DTS Sentinel unit serial number:	SN409020Multiplexer serial number:	ORYXHardware model number:	OX4-SRSoftware version number:	ORYX F/W v3.00 Oryx Data Collector v3.7.2.0data status	okinstallation	HaddamTimeLapsedifferential loss correction	single-endedforward channel	channel 3reverse channel	N/Adate	2011/06/21time	23:46:16forward acquisition time	30.00reverse acquisition time	0.00gamma	498.7831k internal	0.1752k external	0.1752temperature offset calibration	1.0074default loss term (dB/km)	0.3790temperature slope calibration	1.3530multiplexer offset coefficient	1.0000multiplexer slope coefficient	1.0000fibre end	0.00T internal ref (°C)	23.06T ext. ref 1 (°C)	18.35T ext. ref 2 (°C)	0.05length (m)	temperature (°C)	Stokes	anti-Stokes-747.200	-147.115	0.234	-0.026
-746.185	-88.985	-0.441	0.172
-745.171	-170.824	-0.363	0.016
-744.156	30.567	0.082	-0.093
-743.142	-49.113	-0.059	0.037
-742.127	-118.233	0.278	0.065
-741.112	-200.000	-0.023	0.372
-740.098	-140.377	-0.203	0.028
-739.083	-96.610	0.240	0.083
-738.069	-168.173	0.079	-0.004
-737.054	111.329	0.133	-0.213
-736.039	407.382	-0.209	0.589
-735.025	97.231	-0.051	0.078
-734.010	32.467	-0.307	-0.353
-732.996	800.000	-0.143	-0.537
-731.981	267.855	-0.044	0.102
-730.966	-99.320	-0.222	-0.074
-729.952	-125.568	-0.289	0.058
-728.937	-100.812	-0.095	0.031
-727.923	800.000	-0.052	-0.238
-726.908	-200.000	-0.002	-0.144
-725.894	155.436	-0.152	-0.278
-724.879	44.151	0.186	0.227
-723.864	-118.720	-0.334	-0.077
-722.850	100.542	-0.252	0.388
-721.835	-43.559	0.211	-0.141
-720.821	-200.000	-0.021	0.131
-719.806	-34.212	-0.112	-0.081
-718.791	-100.545	-0.144	-0.047
-717.777	-54.399	-0.191	-0.115
-716.762	-120.867	0.295	-0.065
-715.748	800.000	-0.041	0.194
-714.733	27.217	-0.232	-0.258
-713.718	-73.428	-0.662	-0.319
-712.704	-120.780	0.608	0.135
-711.689	347.329	0.162	-0.425
-710.675	37.825	-0.348	-0.410
-709.660	-3.641	-0.332	-0.306
-708.645	-169.295	0.434	0.021
-707.631	-77.611	0.082	-0.037
-706.616	119.817	0.227	-0.374
-705.602	-73.731	-0.188	0.090
-704.587	800.000	0.117	-0.484
-703.572	800.000	0.016	0.070
-702.558	-22.601	-0.319	0.255
-701.543	-132.102	0.151	0.026
-700.529	-136.824	0.328	0.050
-699.514	-20.268	-0.409	-0.333
-698.499	-200.000	0.001	0.020
-697.485	4.477	-0.140	-0.136
-696.470	800.000	-0.050	-0.244
-695.456	215.450	-0.039	0.083
-694.441	-44.818	-0.457	0.301
-693.426	-51.207	-0.165	0.102
-692.412	225.036	-0.045	-0.096
-691.397	-9.660	-0.423	0.373
-690.383	349.484	0.062	-0.162
-689.368	-200.000	-0.018	-0.298
-688.354	-111.386	0.145	0.039
-687.339	38.227	0.240	0.283
-686.324	-60.952	0.313	-0.175
-685.310	-153.373	-0.235	0.021
-684.295	127.713	-0.305	0.515
-683.281	-98.854	-0.381	0.128
-682.266	64.136	-0.222	-0.296
-681.251	-114.118	-0.572	-0.145
-680.237	-168.048	0.202	-0.010
-679.222	-9.772	0.226	-0.199
-678.208	-50.818	0.541	0.336
-677.193	-132.580	-0.207	-0.035
-676.178	800.000	0.058	-0.296
-675.164	-200.000	-0.034	-0.267
-674.149	-140.952	-0.751	0.101
-673.135	-136.515	-0.859	0.131
-672.120	800.000	0.096	0.405
-671.105	7.095	0.386	0.381
-670.091	-136.747	-0.058	-0.009
-669.076	-157.154	0.202	-0.016
-668.062	227.652	-0.087	-0.189
-667.047	618.829	-0.083	-0.277
-666.032	148.795	0.098	-0.175
-665.018	-5.549	-0.365	-0.331
-664.003	63.240	-0.301	0.399
-662.989	139.318	-0.158	-0.275
-661.974	-151.852	-0.093	-0.009
-660.959	-98.759	0.229	0.077
-659.945	207.411	0.201	-0.417
-658.930	-120.238	-0.250	0.056
-657.916	-79.363	-0.193	0.086
-656.901	-86.558	-0.236	-0.095
-655.886	20.627	0.208	-0.223
-654.872	105.768	0.142	0.222
-653.857	33.904	-0.366	-0.421
-652.843	-189.297	0.499	-0.008
-651.828	-0.161	0.064	-0.060
-650.814	-63.320	-0.571	-0.310
-649.799	-200.000	0.062	-0.367
-648.784	-60.440	-0.104	-0.058
-647.770	-0.960	-0.352	0.330
-646.755	-200.000	0.005	0.088
-645.741	-183.542	0.400	-0.009
-644.726	257.002	0.057	0.129
-643.711	80.399	-0.297	-0.424
-642.697	36.160	0.234	-0.272
-641.682	-99.949	0.477	0.157
-640.668	-73.743	-0.478	-0.229
-639.653	271.160	0.218	-0.510
-638.638	-146.280	0.109	0.012
-637.624	-70.495	-0.378	0.188
-636.609	-9.441	-0.131	-0.115
-635.595	619.192	-0.059	0.197
-634.580	135.887	-0.049	0.085
-633.565	120.714	-0.273	0.449
-632.551	-76.424	-0.380	0.176
-631.536	-45.292	0.343	0.224
-630.522	-0.345	0.207	0.194
-629.507	-148.305	-0.434	-0.047
-628.492	105.780	0.124	0.194
-627.478	-86.975	0.046	0.019
-626.463	-12.118	0.094	-0.082
-625.449	-23.279	0.193	0.153
-624.434	-200.000	-0.017	0.100
-623.419	-13.370	0.372	-0.318
-622.405	60.700	-0.106	-0.139
-621.390	337.072	-0.146	0.377
-620.376	404.793	0.114	-0.319
-619.361	-72.710	0.215	0.104
-618.346	-112.780	-0.065	-0.017
-617.332	-104.344	0.164	-0.050
-616.317	100.480	0.235	0.361
-615.303	395.789	-0.050	-0.139
-614.288	57.677	0.063	-0.082
-613.273	-2.878	0.198	-0.183
-612.259	6.808	-0.062	-0.060
-611.244	14.871	0.163	0.168
-610.230	-117.810	0.386	0.091
-609.215	-73.064	0.313	0.151
-608.201	-93.890	-0.292	0.105
-607.186	-51.965	0.286	-0.175
-606.171	-51.031	0.079	0.049
-605.157	44.888	0.202	-0.246
-604.142	100.707	-0.054	-0.084
-603.128	173.462	-0.341	0.651
-602.113	800.000	-0.043	-0.189
-601.098	75.685	0.135	0.189
-600.084	312.869	0.258	0.643
-599.069	-149.797	0.131	-0.013
-598.055	-66.151	0.275	0.144
-597.040	-153.316	0.107	-0.010
-596.025	50.918	0.089	0.111
-595.011	-144.936	-0.261	-0.031
-593.996	-159.984	-0.159	0.011
-592.982	-200.000	-0.035	0.244
-591.967	-89.653	0.057	-0.022
-590.952	307.095	-0.022	0.055
-589.938	93.510	-0.159	0.237
-588.923	-22.290	0.284	-0.227
-587.909	800.000	0.050	0.240
-586.894	-200.000	-0.020	0.401
-585.879	-110.645	0.405	-0.110
-584.865	7.411	0.091	-0.089
-583.850	128.598	-0.104	0.176
-582.836	631.985	-0.094	-0.315
-581.821	-11.915	0.413	-0.357
-580.806	84.535	-0.062	0.090
-579.792	131.743	0.208	-0.353
-578.777	318.505	0.084	-0.211
-577.763	-107.478	-0.188	0.054
-576.748	-63.913	0.480	-0.258
-575.733	-44.301	-0.467	-0.308
-574.719	-34.187	0.257	-0.186
-573.704	-32.601	-0.305	0.223
-572.690	-72.648	-0.100	-0.048
-571.675	197.406	-0.082	0.165
-570.661	522.168	0.077	0.241
-569.646	108.260	-0.219	-0.346
-568.631	-200.000	0.007	-0.189
-567.617	-200.000	-0.008	-0.147
-566.602	-200.000	-0.043	0.335
-565.588	-200.000	-0.039	0.332
-564.573	-38.887	-0.440	-0.305
-563.558	-82.510	0.190	-0.081
-562.544	-166.166	-0.221	0.012
-561.529	-129.175	-0.239	0.044
-560.515	-37.629	0.106	0.074
-559.500	-200.000	0.015	-0.146
-558.485	-50.104	-0.244	0.152
-557.471	26.760	0.230	-0.254
-556.456	-72.970	-0.613	0.295
-555.442	-8.760	-0.500	0.441
-554.427	-125.929	0.071	-0.014
-553.412	24.886	0.368	-0.402
-552.398	124.733	-0.153	0.254
-551.383	210.208	0.191	0.396
-550.369	-200.000	-0.012	0.262
-549.354	-182.226	-0.254	-0.006
-548.339	574.837	-0.119	-0.383
-547.325	-76.846	-0.285	0.131
-546.310	3.621	-0.208	-0.200
-545.296	-106.844	0.411	-0.119
-544.281	-200.000	-0.017	0.348
-543.266	182.006	0.112	-0.218
-542.252	-99.822	-0.129	-0.042
-541.237	-93.392	-0.375	-0.136
-540.223	-171.212	0.448	0.020
-539.208	-124.473	0.369	0.075
-538.193	-200.000	-0.037	0.435
-537.179	800.000	0.060	-0.237
-536.164	-200.000	0.277	-0.000
-535.150	102.360	0.131	0.202
-534.135	-87.925	0.467	0.184
-533.121	200.477	-0.225	0.456
-532.106	38.363	-0.153	0.180
-531.091	65.513	-0.404	0.538
-530.077	-117.236	0.459	0.109
-529.062	-4.279	0.265	-0.241
-528.048	190.690	-0.133	0.263
-527.033	-191.959	0.174	-0.002
-526.018	260.954	0.096	-0.219
-525.004	-30.662	0.392	-0.292
-523.989	-118.898	-0.479	0.110
-522.975	-14.826	-0.084	0.071
-521.960	318.112	0.091	-0.227
-520.945	-147.407	0.226	0.025
-519.931	-104.580	0.689	-0.208
-518.916	-38.273	-0.176	-0.122
-517.902	-36.034	-0.131	0.093
-516.887	253.544	-0.095	-0.213
-515.872	790.257	0.107	0.391
-514.858	-22.181	0.098	-0.078
-513.843	-134.479	0.681	0.109
-512.829	-43.629	0.281	-0.186
-511.814	-118.248	-0.085	0.020
-510.799	-5.433	0.314	-0.284
-509.785	-163.989	0.386	-0.023
-508.770	88.135	-0.240	-0.351
-507.756	-129.651	-0.435	0.078
-506.741	67.587	-0.357	-0.480
-505.726	120.726	-0.116	-0.189
-504.712	-119.813	0.153	-0.034
-503.697	6.771	0.253	0.248
-502.683	643.472	0.111	-0.374
-501.668	-34.532	0.483	-0.347
-500.653	-21.588	-0.203	-0.162
-499.639	59.285	-0.078	0.101
-498.624	53.421	-0.196	-0.247
-497.610	-75.655	-0.438	-0.204
-496.595	800.000	-0.070	-0.307
-495.581	-76.943	0.302	-0.138
-494.566	-53.644	0.576	0.345
-493.551	-138.346	-0.351	-0.050
-492.537	83.659	-0.114	-0.164
-491.522	-17.416	0.279	-0.231
-490.508	385.962	0.116	0.317
-489.493	133.470	0.107	0.182
-488.478	-103.874	-0.297	0.091
-487.464	-65.786	0.354	-0.185
-486.449	-200.000	-0.007	-0.657
-485.435	-91.180	0.478	0.179
-484.420	800.000	-0.044	0.219
-483.405	69.555	-0.322	0.436
-482.391	-90.312	-0.190	0.072
-481.376	-66.005	0.420	0.220
-480.362	116.653	0.069	-0.112
-479.347	-52.784	-0.163	-0.098
-478.332	-148.845	-0.553	0.058
-477.318	54.069	-0.157	-0.198
-476.303	-200.000	-0.062	0.360
-475.289	-195.284	-0.176	-0.002
-474.274	-118.302	-0.758	0.176
-473.259	-131.402	-0.288	-0.049
-472.245	-108.363	-0.171	0.048
-471.230	286.425	-0.169	0.403
-470.216	-46.635	-0.225	0.145
-469.201	-108.978	0.476	-0.132
-468.186	-200.000	-0.013	0.333
-467.172	-124.919	-0.151	-0.030
-466.157	156.334	-0.116	0.210
-465.143	528.864	0.084	0.261
-464.128	352.649	0.208	-0.545
-463.113	-92.673	0.385	0.141
-462.099	84.709	0.134	-0.193
-461.084	800.000	-0.022	-0.121
-460.070	-200.000	0.043	0.317
-459.055	-200.000	-0.009	-0.101
-458.040	-114.919	-0.245	-0.061
-457.026	-200.000	0.029	-0.274
-456.011	-18.270	-0.336	-0.276
-454.997	-120.501	-0.133	-0.029
-453.982	-200.000	-0.054	0.391
-452.968	-58.970	-0.417	0.236
-451.953	54.496	-0.236	0.298
-450.938	-108.228	-0.313	-0.088
-449.924	-200.000	-0.030	0.353
-448.909	-105.475	0.339	0.100
-447.895	43.601	-0.027	-0.033
-446.880	-63.460	-0.207	0.111
-445.865	-140.282	-0.275	0.037
-444.851	-107.338	0.099	0.028
-443.836	-73.718	-0.289	0.137
-442.822	108.914	0.359	0.564
-441.807	254.529	-0.207	-0.467
-440.792	-4.648	-0.318	-0.288
-439.778	-46.566	-0.214	0.137
-438.763	-200.000	0.043	0.290
-437.749	800.000	-0.041	0.200
-436.734	-20.457	-0.515	0.415
-435.719	-89.763	-0.227	-0.087
-434.705	-48.249	0.224	-0.141
-433.690	358.068	0.187	0.492
-432.676	-200.000	0.048	0.316
-431.661	3.879	-0.189	0.181
-430.646	-32.159	0.224	0.164
-429.632	-200.000	0.026	-0.292
-428.617	-200.000	0.017	-0.241
-427.603	800.000	0.094	0.409
-426.588	32.965	-0.129	0.146
-425.573	42.687	0.403	0.482
-424.559	-200.000	0.014	0.164
-423.544	-79.018	0.442	0.196
-422.530	-115.423	0.302	-0.074
-421.515	-82.011	-0.470	-0.200
-420.500	-116.899	-0.016	0.004
-419.486	52.364	0.128	0.160
-418.471	-200.000	-0.069	-0.441
-417.457	510.880	0.045	0.139
-416.442	-135.022	-0.430	-0.067
-415.428	-6.827	0.323	0.287
-414.413	-56.113	0.168	0.097
-413.398	800.000	-0.047	-0.263
-412.384	163.957	-0.145	-0.268
-411.369	800.000	0.069	-0.336
-410.355	-34.644	0.061	0.043
-409.340	-128.853	0.278	-0.051
-408.325	-90.342	-0.314	-0.119
-407.311	24.385	-0.215	0.233
-406.296	-65.179	-0.044	-0.023
-405.282	86.137	-0.254	-0.367
-404.267	-200.000	0.075	-0.536
-403.252	-43.182	-0.446	0.295
-402.238	-32.970	-0.230	0.167
-401.223	-101.466	0.322	0.102
-400.209	180.788	0.062	0.121
-399.194	-200.000	0.023	-0.155
-398.179	-166.455	0.260	-0.014
-397.165	800.000	-0.076	-0.408
-396.150	316.603	-0.171	-0.424
-395.136	253.006	-0.064	-0.144
-394.121	-36.285	0.523	-0.368
-393.106	-181.697	-0.248	-0.006
-392.092	61.169	0.349	0.455
-391.077	-154.282	0.168	0.015
-390.063	150.217	-0.134	-0.238
-389.048	-200.000	0.013	-0.174
-388.033	800.000	0.084	0.344
-387.019	79.219	0.179	0.251
-386.004	-148.651	-0.384	-0.040
-384.990	-99.932	0.271	0.088
-383.975	58.082	-0.090	0.115
-382.960	-200.000	-0.050	0.305
-381.946	-172.550	0.035	0.001
-380.931	340.890	0.078	-0.200
-379.917	-200.000	-0.007	0.227
-378.902	138.330	0.040	-0.069
-377.888	240.862	0.228	-0.499
-376.873	-5.381	0.236	0.212
-375.858	-153.515	0.742	0.066
-374.844	-16.449	-0.041	-0.034
-373.829	-143.878	-0.231	0.028
-372.815	29.561	-0.282	-0.314
-371.800	-7.872	0.495	0.436
-370.785	-84.123	-0.132	0.054
-369.771	-17.694	-0.350	0.287
-368.756	316.831	0.030	0.075
-367.742	608.875	0.092	0.303
-366.727	-200.000	-0.001	0.312
-365.712	-157.449	-0.130	-0.010
-364.698	-56.554	-0.286	0.165
-363.683	286.185	-0.118	0.280
-362.669	75.537	0.122	-0.169
-361.654	404.456	-0.104	-0.288
-360.639	-101.032	-0.358	-0.114
-359.625	174.489	0.051	0.096
-358.610	86.708	0.183	-0.264
-357.596	86.488	-0.079	-0.115
-356.581	67.441	0.345	0.460
-355.566	-34.254	-0.279	-0.200
-354.552	-106.517	-0.091	0.026
-353.537	123.423	0.077	-0.127
-352.523	-21.334	0.361	0.288
-351.508	-200.000	-0.025	0.176
-350.493	81.814	-0.291	0.412
-349.479	252.945	0.084	0.189
-348.464	85.628	0.059	-0.085
-347.450	-70.278	0.418	0.207
-346.435	0.324	-0.138	0.129
-345.420	277.241	0.118	-0.276
-344.406	-200.000	-0.002	-0.050
-343.391	-91.257	-0.153	0.057
-342.377	-114.021	-0.317	-0.080
-341.362	-156.303	0.244	0.020
-340.348	-200.000	0.004	-0.360
-339.333	-107.031	-0.340	-0.098
-338.318	40.065	0.172	-0.202
-337.304	-200.000	-0.074	0.625
-336.289	275.586	-0.112	-0.262
-335.275	-150.419	0.416	-0.041
-334.260	43.060	0.236	0.282
-333.245	-200.000	-0.018	-0.335
-332.231	65.513	0.079	-0.104
-331.216	-102.608	-0.329	-0.102
-330.202	-93.597	0.382	-0.137
-329.187	800.000	-0.064	0.250
-328.172	-91.171	0.260	-0.097
-327.158	-200.000	0.002	-0.082
-326.143	-152.076	-0.281	0.026
-325.129	-200.000	0.009	-0.184
-324.114	43.507	0.136	0.163
-323.099	-91.018	-0.150	0.056
-322.085	59.025	0.198	0.254
-321.070	403.137	0.073	-0.200
-320.056	116.303	-0.091	-0.145
-319.041	264.002	-0.174	-0.396
-318.026	-200.000	-0.071	-0.537
-317.012	-151.457	-0.586	0.056
-315.997	-21.779	-0.186	0.148
-314.983	-115.086	-0.310	-0.076
-313.968	-10.464	-0.081	0.070
-312.953	-187.861	-0.384	0.006
-311.939	-96.212	-0.313	0.108
-310.924	263.239	-0.121	-0.275
-309.910	-119.184	0.876	-0.198
-308.895	-103.320	0.245	0.075
-307.880	-112.144	0.311	0.081
-306.866	69.013	-0.101	-0.135
-305.851	-49.249	0.203	0.126
-304.837	-126.758	-0.392	-0.075
-303.822	-66.996	-0.049	-0.025
-302.807	245.061	-0.205	-0.451
-301.793	800.000	-0.065	0.355
-300.778	-34.513	-0.183	-0.131
-299.764	-20.494	-0.227	-0.182
-298.749	-50.548	0.159	-0.098
-297.735	800.000	-0.037	0.148
-296.720	-13.061	-0.243	-0.205
-295.705	45.559	0.230	-0.277
-294.691	-24.656	0.214	-0.166
-293.676	79.919	0.073	0.102
-292.662	-114.797	-0.573	-0.142
-291.647	-153.957	0.397	0.035
-290.632	119.039	-0.177	0.285
-289.618	-152.907	-0.385	0.035
-288.603	268.354	0.192	0.441
-287.589	-120.647	0.295	-0.065
-286.574	24.290	0.269	-0.289
-285.559	-200.000	0.019	-0.145
-284.545	4.031	-0.207	-0.198
-283.530	231.548	-0.092	0.196
-282.516	-61.335	0.352	0.193
-281.501	111.474	0.047	-0.074
-280.486	364.193	-0.158	0.416
-279.472	204.171	0.049	-0.100
-278.457	51.321	0.207	-0.256
-277.443	5.550	-0.288	-0.277
-276.428	-87.904	0.033	0.013
-275.413	-24.109	0.153	-0.119
-274.399	534.142	0.121	-0.377
-273.384	230.869	-0.141	0.301
-272.370	131.396	-0.138	0.232
-271.355	-123.418	0.166	0.034
-270.340	291.497	-0.062	-0.148
-269.326	-194.055	-0.176	-0.002
-268.311	179.821	0.274	-0.525
-267.297	-15.506	0.364	0.303
-266.282	800.000	0.073	0.332
-265.267	58.534	-0.135	0.173
-264.253	209.465	0.027	0.056
-263.238	196.487	0.079	0.158
-262.224	-7.831	0.050	-0.044
-261.209	-5.297	0.105	0.094
-260.195	-69.006	0.311	-0.155
-259.180	19.603	-0.114	0.120
-258.165	-94.815	-0.641	-0.225
-257.151	214.949	0.071	-0.147
-256.136	-155.385	0.130	0.011
-255.122	43.273	-0.041	0.049
-254.107	-1.257	-0.342	-0.314
-253.092	-90.343	0.411	-0.155
-252.078	567.021	0.098	-0.312
-251.063	-109.077	0.166	0.046
-250.049	-36.452	0.311	-0.218
-249.034	-26.152	0.275	-0.210
-248.019	-200.000	0.013	-0.296
-247.005	-152.551	0.172	-0.016
-245.990	-90.277	-0.094	0.036
-244.976	-115.672	-0.313	0.076
-243.961	-200.000	-0.073	-0.430
-242.946	-39.492	0.053	-0.036
-241.932	-143.933	0.163	-0.020
-240.917	-45.966	0.434	-0.278
-239.903	30.854	0.177	0.197
-238.888	-139.765	0.170	-0.023
-237.873	124.756	-0.204	-0.335
-236.859	-134.864	-0.585	0.091
-235.844	-15.883	0.172	-0.142
-234.830	303.537	0.130	-0.316
-233.815	91.353	-0.154	0.225
-232.800	67.845	0.311	0.414
-231.786	-200.000	-0.038	0.295
-230.771	-153.718	-0.309	0.027
-229.757	-164.229	-0.401	0.024
-228.742	800.000	0.042	-0.153
-227.727	-200.000	0.017	-0.179
-226.713	-112.117	-0.335	0.087
-225.698	-200.000	-0.018	-0.104
-224.684	-200.000	0.048	-0.497
-223.669	-160.044	0.166	-0.012
-222.655	-94.229	-0.350	0.124
-221.640	-100.343	-0.189	-0.060
-220.625	-73.359	-0.156	-0.074
-219.611	-21.979	-0.320	0.253
-218.596	126.392	0.208	0.343
-217.582	50.445	0.245	0.301
-216.567	139.729	-0.051	-0.088
-215.552	-200.000	0.028	0.290
-214.538	-166.631	-0.188	0.010
-213.523	800.000	0.114	0.473
-212.509	-96.503	-0.067	0.023
-211.494	800.000	0.017	-0.082
-210.479	154.511	-0.063	0.113
-209.465	-134.427	0.216	0.034
-208.450	93.634	-0.229	-0.337
-207.436	-200.000	-0.052	0.322
-206.421	-120.540	0.572	-0.125
-205.406	-190.597	-0.516	0.007
-204.392	28.760	-0.101	0.112
-203.377	-104.866	-0.886	-0.263
-202.363	-103.382	0.156	-0.047
-201.348	147.037	0.158	-0.277
-200.333	183.640	0.145	-0.279
-199.319	243.372	-0.053	0.115
-198.304	168.303	-0.174	-0.323
-197.290	-148.480	-0.181	0.019
-196.275	-35.699	0.208	-0.146
-195.260	-82.062	0.386	-0.163
-194.246	296.193	-0.135	0.323
-193.231	-48.154	-0.176	0.110
-192.217	-123.174	0.278	0.057
-191.202	-200.000	-0.041	-0.648
-190.187	-122.219	0.473	-0.100
-189.173	-200.000	0.039	-0.349
-188.158	-77.148	0.439	-0.198
-187.144	238.696	-0.141	-0.305
-186.129	92.819	0.135	-0.198
-185.114	-200.000	0.003	-0.383
-184.100	121.920	-0.257	-0.417
-183.085	121.139	-0.171	0.277
-182.071	-102.048	-0.406	-0.126
-181.056	-200.000	-0.017	-0.178
-180.042	416.758	-0.013	0.035
-179.027	-119.981	-0.078	-0.017
-178.012	800.000	0.112	0.583
-176.998	-165.507	0.097	0.005
-175.983	-200.000	-0.015	-0.281
-174.969	58.648	0.190	-0.242
-173.954	-200.000	-0.005	0.166
-172.939	746.971	-0.149	0.522
-171.925	11.939	0.379	0.377
-170.910	-200.000	0.017	-0.201
-169.896	-161.134	-0.568	-0.038
-168.881	-71.948	0.192	0.092
-167.866	800.000	0.137	-0.512
-166.852	-150.755	-0.193	-0.019
-165.837	675.426	0.066	0.225
-164.823	-81.243	-0.333	-0.142
-163.808	63.694	0.173	-0.225
-162.793	-19.502	0.467	0.375
-161.779	649.843	-0.080	0.266
-160.764	-84.942	-0.352	0.143
-159.750	-77.225	-0.157	0.071
-158.735	-128.991	-0.120	0.022
-157.720	800.000	0.039	0.188
-156.706	-89.806	0.386	0.146
-155.691	223.234	0.115	-0.241
-154.677	88.339	0.098	0.141
-153.662	541.553	0.058	0.181
-152.647	-122.587	-0.125	0.026
-151.633	-135.457	-0.556	-0.085
-150.618	5.446	-0.197	0.188
-149.604	-105.448	0.196	0.057
-148.589	-10.824	0.228	-0.195
-147.574	244.756	0.192	-0.421
-146.560	521.571	-0.060	-0.182
-145.545	-200.000	-0.034	-0.394
-144.531	36.915	0.347	0.398
-143.516	-105.854	-0.458	-0.133
-142.502	-200.000	-0.020	-0.523
-141.487	-29.036	-0.118	-0.088
-140.472	-18.861	-0.024	0.020
-139.458	666.621	0.033	0.113
-138.443	-200.000	0.023	-0.419
-137.429	-97.091	-0.178	-0.060
-136.414	291.432	-0.117	-0.278
-135.399	-121.495	-0.420	-0.090
-134.385	-158.119	-0.719	-0.054
-133.370	800.000	-0.123	-0.667
-132.356	-128.903	-0.278	-0.050
-131.341	800.000	-0.160	-0.595
-130.326	-200.000	-0.016	0.192
-129.312	58.620	0.139	0.177
-128.297	-200.000	0.015	0.202
-127.283	-114.038	0.055	0.014
-126.268	-87.215	0.143	-0.056
-125.253	-79.837	-0.077	0.034
-124.239	-200.000	-0.043	0.280
-123.224	800.000	0.063	0.235
