DTS Sentinel unit serial number:	SN409020Multiplexer serial number:	ORYXHardware model number:	OX4-SRSoftware version number:	ORYX F/W v3.00 Oryx Data Collector v3.7.2.0data status	okinstallation	HaddamTimeLapsedifferential loss correction	single-endedforward channel	channel 3reverse channel	N/Adate	2011/06/21time	16:41:17forward acquisition time	30.00reverse acquisition time	0.00gamma	498.7831k internal	0.1785k external	0.1785temperature offset calibration	1.0074default loss term (dB/km)	0.3790temperature slope calibration	1.3530multiplexer offset coefficient	1.0000multiplexer slope coefficient	1.0000fibre end	0.00T internal ref (°C)	32.62T ext. ref 1 (°C)	27.15T ext. ref 2 (°C)	0.22length (m)	temperature (°C)	Stokes	anti-Stokes-747.200	-200.000	-0.003	-0.210
-746.185	-87.445	0.191	0.075
-745.171	-105.037	-0.698	-0.207
-744.156	2.168	0.252	0.237
-743.142	65.958	-0.035	-0.047
-742.127	-36.763	-0.430	0.300
-741.112	-183.739	-0.103	-0.002
-740.098	-106.915	-0.581	0.167
-739.083	20.985	0.291	0.308
-738.069	-21.016	-0.876	0.697
-737.054	-74.829	-0.404	-0.188
-736.039	-120.387	-0.516	-0.113
-735.025	-110.876	0.394	-0.105
-734.010	-200.000	-0.016	0.148
-732.996	40.181	-0.114	-0.133
-731.981	-165.095	0.284	0.016
-730.966	29.871	0.071	0.079
-729.952	234.140	0.041	-0.089
-728.937	369.685	-0.144	0.382
-727.923	-127.848	0.430	-0.080
-726.908	-59.795	0.306	-0.170
-725.894	-90.134	0.308	0.116
-724.879	137.926	0.022	-0.038
-723.864	-88.574	0.207	0.080
-722.850	-38.820	0.107	0.074
-721.835	-53.486	-0.647	-0.385
-720.821	800.000	-0.034	-0.161
-719.806	800.000	0.078	-0.366
-718.791	161.154	-0.231	-0.422
-717.777	465.042	-0.246	-0.721
-716.762	55.550	-0.299	-0.377
-715.748	-31.988	0.222	-0.162
-714.733	70.552	-0.242	-0.327
-713.718	57.921	-0.159	-0.203
-712.704	-61.262	0.397	-0.217
-711.689	-116.892	0.195	-0.046
-710.675	-64.535	0.460	0.242
-709.660	-200.000	-0.079	-0.473
-708.645	-85.881	-0.257	-0.103
-707.631	28.619	-0.391	-0.431
-706.616	-145.015	-0.272	0.032
-705.602	156.760	-0.094	-0.169
-704.587	-19.543	-0.024	0.019
-703.572	33.839	0.293	-0.332
-702.558	-200.000	0.051	-0.305
-701.543	-127.215	0.347	0.065
-700.529	-156.299	0.447	-0.036
-699.514	-40.105	-0.082	0.056
-698.499	-200.000	-0.007	0.175
-697.485	-77.370	0.244	0.110
-696.470	58.489	-0.447	0.570
-695.456	-47.254	-0.281	0.178
-694.441	46.849	0.116	-0.141
-693.426	45.866	-0.026	0.031
-692.412	-76.508	0.229	-0.104
-691.397	-36.875	-0.204	0.142
-690.383	46.450	-0.019	0.023
-689.368	374.491	0.084	-0.222
-688.354	-24.042	-0.531	-0.412
-687.339	-127.544	-0.125	-0.023
-686.324	558.733	-0.027	0.084
-685.310	56.701	0.091	0.115
-684.295	365.806	-0.166	-0.436
-683.281	-84.309	-0.265	-0.109
-682.266	-190.201	-0.078	-0.001
-681.251	-9.306	0.170	-0.148
-680.237	-71.907	-0.393	-0.189
-679.222	142.961	-0.032	-0.056
-678.208	-197.368	0.670	0.005
-677.193	-45.223	-0.068	-0.044
-676.178	800.000	0.055	-0.244
-675.164	12.441	0.056	0.056
-674.149	-134.946	-0.408	0.063
-673.135	-200.000	0.033	-0.224
-672.120	-128.996	-0.302	0.055
-671.105	800.000	0.033	-0.164
-670.091	114.380	0.152	0.241
-669.076	-42.245	-0.250	0.165
-668.062	133.016	0.243	0.408
-667.047	-200.000	0.003	-0.253
-666.032	-173.742	0.127	0.005
-665.018	-2.592	-0.131	0.119
-664.003	-23.134	0.351	0.274
-662.989	159.495	0.070	0.128
-661.974	-23.200	-0.239	-0.186
-660.959	641.866	0.109	0.363
-659.945	25.082	0.137	0.147
-658.930	114.391	-0.168	-0.266
-657.916	-23.393	0.230	-0.179
-656.901	-133.192	0.090	-0.015
-655.886	361.923	0.125	-0.327
-654.872	-39.859	-0.294	-0.199
-653.857	800.000	0.139	-0.772
-652.843	187.176	-0.200	-0.389
-651.828	-19.047	0.183	-0.147
-650.814	-23.460	-0.505	-0.393
-649.799	168.241	-0.102	0.189
-648.784	-154.965	-0.212	0.018
-647.770	-200.000	-0.023	0.271
-646.755	-126.819	0.687	0.130
-645.741	-109.928	0.471	-0.127
-644.726	800.000	0.083	-0.450
-643.711	-126.025	-0.401	0.077
-642.697	290.760	0.088	0.209
-641.682	-200.000	-0.015	0.276
-640.668	-163.099	-0.312	-0.019
-639.653	-44.009	0.256	0.166
-638.638	-124.772	0.271	-0.054
-637.624	-142.044	0.159	-0.020
-636.609	92.936	-0.065	0.096
-635.595	-108.811	-0.310	0.086
-634.580	800.000	-0.092	-0.383
-633.565	-103.694	-0.494	-0.149
-632.551	-8.353	-0.294	0.256
-631.536	43.877	0.222	-0.264
-630.522	113.533	-0.231	0.365
-629.507	125.943	-0.094	-0.155
-628.492	137.636	-0.272	0.463
-627.478	700.348	-0.017	0.057
-626.463	-143.897	0.591	-0.071
-625.449	800.000	0.038	0.161
-624.434	56.973	-0.223	0.282
-623.419	-8.982	-0.022	0.019
-622.405	-138.581	-0.288	0.041
-621.390	139.100	0.026	0.044
-620.376	29.003	-0.202	-0.222
-619.361	131.516	-0.217	-0.362
-618.346	-95.433	0.639	-0.221
-617.332	-99.086	0.258	0.084
-616.317	-1.712	0.215	0.196
-615.303	-200.000	0.050	-0.374
-614.288	-133.766	0.431	-0.069
-613.273	-129.149	0.585	0.105
-612.259	-66.194	0.339	0.174
-611.244	-115.091	-0.368	0.090
-610.230	-115.755	-0.128	-0.031
-609.215	-81.437	-0.411	0.174
-608.201	-114.161	-0.336	0.084
-607.186	13.645	0.206	-0.207
-606.171	-71.518	-0.175	-0.084
-605.157	-200.000	0.023	-0.468
-604.142	-71.496	-0.405	0.196
-603.128	-43.706	-0.475	0.309
-602.113	40.595	-0.240	0.280
-601.098	361.315	-0.106	-0.277
-600.084	-114.664	-0.382	-0.094
-599.069	-49.243	0.262	-0.162
-598.055	-200.000	0.044	-0.260
-597.040	-200.000	0.006	-0.083
-596.025	493.270	0.104	-0.312
-595.011	800.000	-0.020	-0.099
-593.996	-12.370	0.074	0.063
-592.982	187.559	-0.092	0.178
-591.967	141.710	0.090	0.155
-590.952	73.782	-0.300	0.408
-589.938	-91.227	-0.317	-0.117
-588.923	800.000	0.119	-0.449
-587.909	-140.344	0.466	-0.062
-586.894	-35.828	-0.300	-0.210
-585.879	800.000	-0.040	0.198
-584.865	-81.732	-0.317	0.134
-583.850	-138.121	-0.380	-0.054
-582.836	206.842	-0.022	-0.045
-581.821	219.436	-0.050	0.103
-580.806	-2.929	0.284	0.257
-579.792	131.215	-0.131	-0.219
-578.777	-84.468	0.288	0.117
-577.763	-57.428	0.304	0.172
-576.748	-153.053	-0.333	-0.030
-575.733	-124.612	-0.186	0.037
-574.719	-135.351	-0.247	-0.038
-573.704	-200.000	0.031	0.645
-572.690	200.631	-0.116	-0.233
-571.675	58.706	-0.045	0.058
-570.661	-69.855	0.431	-0.212
-569.646	98.436	-0.118	-0.177
-568.631	-172.876	0.207	-0.008
-567.617	0.825	-0.282	-0.261
-566.602	-129.039	0.711	-0.128
-565.588	-77.400	-0.114	0.051
-564.573	422.844	0.100	-0.280
-563.558	-139.835	0.302	-0.041
-562.544	322.472	0.174	-0.431
-561.529	-91.858	-0.418	0.153
-560.515	92.487	-0.281	0.411
-559.500	159.279	0.303	0.546
-558.485	-25.729	0.365	0.278
-557.471	269.321	-0.111	0.254
-556.456	-118.069	-0.373	-0.085
-555.442	727.850	-0.084	0.291
-554.427	-45.476	-0.235	0.150
-553.412	10.071	0.112	-0.110
-552.398	-200.000	0.007	-0.200
-551.383	-181.956	-0.228	0.005
-550.369	43.606	-0.108	0.128
-549.354	-103.075	-0.678	-0.206
-548.339	191.687	0.106	0.207
-547.325	286.368	0.176	-0.412
-546.310	-90.482	0.291	0.108
-545.296	-200.000	-0.015	0.119
-544.281	13.843	0.125	-0.126
-543.266	159.381	0.159	0.287
-542.252	38.610	-0.079	-0.091
-541.237	-168.331	-0.374	0.018
-540.223	10.976	-0.192	0.190
-539.208	800.000	0.143	0.747
-538.193	-146.328	-0.430	0.048
-537.179	-63.507	0.163	-0.086
-536.164	-142.804	-0.403	-0.050
-535.150	-4.595	0.220	-0.196
-534.135	123.649	0.025	0.041
-533.121	-44.311	-0.281	-0.181
-532.106	-60.931	0.317	-0.173
-531.091	195.729	-0.170	-0.335
-530.077	-85.073	-0.552	0.222
-529.062	-200.000	0.010	-0.250
-528.048	-93.150	-0.147	-0.053
-527.033	125.721	-0.123	0.201
-526.018	-51.163	0.148	-0.089
-525.004	42.555	-0.334	-0.393
-523.989	310.205	0.128	0.310
-522.975	-200.000	-0.053	-0.382
-521.960	-200.000	0.076	0.456
-520.945	-200.000	-0.000	-0.084
-519.931	127.014	-0.357	0.586
-518.916	83.367	0.126	-0.178
-517.902	-200.000	-0.060	0.651
-516.887	-89.401	0.078	-0.029
-515.872	314.693	-0.129	0.315
-514.858	-110.461	0.157	0.042
-513.843	17.406	-0.243	-0.249
-512.829	-51.258	0.135	-0.081
-511.814	280.056	-0.107	0.247
-510.799	-40.611	-0.205	0.137
-509.785	800.000	0.093	0.438
-508.770	800.000	-0.131	-0.576
-507.756	543.903	-0.053	0.165
-506.741	-200.000	0.003	-0.166
-505.726	-159.692	-0.226	-0.016
-504.712	86.848	-0.187	-0.268
-503.697	139.268	0.149	-0.254
-502.683	565.953	-0.167	-0.524
-501.668	800.000	0.106	-0.391
-500.653	-68.388	-0.287	0.143
-499.639	-13.790	0.233	-0.194
-498.624	75.451	0.281	-0.383
-497.610	4.926	-0.305	0.289
-496.595	46.465	0.234	-0.280
-495.581	-103.510	0.506	-0.152
-494.566	-106.243	0.488	-0.140
-493.551	43.999	0.187	0.221
-492.537	-200.000	-0.047	0.294
-491.522	-153.050	-0.370	0.033
-490.508	381.664	-0.193	0.513
-489.493	92.270	0.113	-0.165
-488.478	-58.185	-0.321	-0.180
-487.464	5.144	-0.349	-0.331
-486.449	15.680	0.274	-0.278
-485.435	-200.000	0.025	-0.319
-484.420	-135.072	-0.075	-0.011
-483.405	116.029	-0.237	0.376
-482.391	47.469	0.209	0.251
-481.376	-174.631	0.463	0.017
-480.362	800.000	-0.064	-0.232
-479.347	-124.079	0.257	0.052
-478.332	-93.089	0.103	-0.037
-477.318	-193.091	0.200	-0.002
-476.303	307.672	0.174	0.419
-475.289	-75.286	0.490	0.224
-474.274	-200.000	0.038	0.348
-473.259	-78.490	-0.062	-0.027
-472.245	-29.411	-0.356	0.262
-471.230	-200.000	0.066	0.393
-470.216	-104.450	0.471	-0.140
-469.201	-54.486	0.311	0.181
-468.186	-69.564	0.238	-0.117
-467.172	-74.606	0.313	-0.145
-466.157	-154.831	-0.355	0.030
-465.143	-86.322	-0.184	-0.072
-464.128	-122.527	-0.544	0.113
-463.113	800.000	0.050	-0.253
-462.099	315.271	0.108	-0.262
-461.084	-19.725	-0.251	0.200
-460.070	389.656	0.145	-0.390
-459.055	-200.000	-0.054	-0.408
-458.040	29.082	0.164	-0.179
-457.026	-101.148	-0.169	-0.053
-456.011	-71.261	0.465	-0.224
-454.997	36.518	-0.139	0.159
-453.982	-102.165	0.027	-0.008
-452.968	-200.000	0.009	-0.115
-451.953	-62.718	0.225	0.120
-450.938	15.419	-0.596	0.602
-449.924	800.000	0.091	0.456
-448.909	-26.798	0.250	0.188
-447.895	-92.531	0.180	-0.065
-446.880	-141.452	0.276	0.036
-445.865	629.309	0.125	0.410
-444.851	-107.155	0.299	0.084
-443.836	-148.569	-0.356	0.037
-442.822	-127.139	0.430	-0.080
-441.807	101.267	0.312	-0.469
-440.792	-200.000	-0.022	-0.239
-439.778	-69.438	-0.349	0.172
-438.763	800.000	-0.070	-0.354
-437.749	62.673	-0.088	0.114
-436.734	42.340	-0.047	0.056
-435.719	107.206	-0.154	0.235
-434.705	256.362	0.074	0.164
-433.690	-200.000	0.014	-0.481
-432.676	800.000	0.035	0.136
-431.661	65.344	0.306	0.399
-430.646	-109.200	-0.213	-0.058
-429.632	741.044	-0.120	-0.419
-428.617	-200.000	0.055	0.365
-427.603	41.224	-0.230	-0.267
-426.588	277.871	-0.174	-0.400
-425.573	-135.172	0.371	-0.057
-424.559	-129.489	-0.255	-0.045
-423.544	-23.765	0.434	0.334
-422.530	-122.205	-0.634	0.132
-421.515	-67.240	-0.115	0.058
-420.500	-83.313	0.062	-0.025
-419.486	65.479	-0.085	0.111
-418.471	-24.255	-0.115	-0.088
-417.457	800.000	-0.021	-0.089
-416.442	-158.807	0.314	0.023
-415.428	681.967	0.106	-0.359
-414.413	15.829	0.299	0.302
-413.398	-47.625	-0.164	0.102
-412.384	-177.397	-0.654	0.020
-411.369	3.360	-0.377	-0.353
-410.355	-120.967	-0.079	0.017
-409.340	-85.345	0.389	0.155
-408.325	-161.424	0.253	-0.017
-407.311	-138.784	0.489	0.068
-406.296	235.456	-0.128	-0.273
-405.282	507.481	-0.027	-0.081
-404.267	57.298	0.130	-0.163
-403.252	38.801	-0.115	0.132
-402.238	-112.172	-0.512	0.131
-401.223	-30.682	0.013	-0.009
-400.209	47.481	-0.234	-0.281
-399.194	-155.094	-0.472	0.039
-398.179	-73.985	-0.296	0.138
-397.165	236.864	0.074	-0.158
-396.150	-105.312	-0.380	-0.110
-395.136	-103.285	-0.053	-0.016
-394.121	-200.000	0.111	-0.000
-393.106	30.306	0.365	0.400
-392.092	227.886	-0.167	0.350
-391.077	55.591	0.177	0.220
-390.063	-109.980	0.431	-0.115
-389.048	-84.310	-0.372	0.151
-388.033	-32.382	0.511	0.366
-387.019	-89.905	0.357	-0.133
-386.004	128.152	-0.201	-0.329
-384.990	85.895	-0.195	-0.276
-383.975	-150.107	-0.205	-0.020
-382.960	273.683	0.074	0.170
-381.946	-153.603	-0.223	-0.020
-380.931	-24.842	0.123	0.093
-379.917	374.095	-0.060	0.157
-378.902	-27.319	0.229	0.171
-377.888	-91.416	0.154	0.056
-376.873	-154.912	-0.113	0.009
-375.858	-200.000	-0.003	0.150
-374.844	113.120	-0.208	-0.324
-373.829	638.342	0.015	-0.050
-372.815	-34.566	0.170	0.119
-371.800	-33.758	0.375	0.265
-370.785	-83.710	0.531	0.217
-369.771	-200.000	-0.053	-0.554
-368.756	-126.305	-0.267	0.051
-367.742	-48.366	-0.248	-0.153
-366.727	575.278	0.071	-0.224
-365.712	-84.150	-0.484	-0.196
-364.698	-200.000	0.006	-0.381
-363.683	-200.000	-0.082	-0.554
-362.669	-8.542	-0.389	-0.335
-361.654	800.000	0.030	0.154
-360.639	-64.339	0.272	-0.142
-359.625	-102.506	-0.239	0.073
-358.610	-73.004	-0.158	-0.074
-357.596	-177.775	0.110	0.003
-356.581	-88.914	0.649	0.246
-355.566	-5.987	-0.493	-0.432
-354.552	-104.280	0.186	-0.055
-353.537	-133.397	0.322	-0.051
-352.523	-43.421	-0.271	-0.175
-351.508	-81.271	0.640	-0.270
-350.493	103.752	-0.175	0.264
-349.479	-24.510	0.292	-0.223
-348.464	75.476	0.059	-0.080
-347.450	-98.600	0.518	0.169
-346.435	235.082	-0.214	0.456
-345.420	-165.920	-0.340	-0.018
-344.406	800.000	0.105	0.501
-343.391	-200.000	0.014	-0.367
-342.377	-95.200	-0.368	0.126
-341.362	284.366	-0.034	-0.080
-340.348	800.000	0.087	0.414
-339.333	800.000	0.104	0.372
-338.318	-56.062	-0.291	0.166
-337.304	-37.643	-0.385	0.263
-336.289	-86.252	-0.262	-0.103
-335.275	-146.343	0.617	0.068
-334.260	-200.000	0.018	0.111
-333.245	-186.089	0.164	0.003
-332.231	572.954	-0.151	-0.475
-331.216	411.716	0.132	0.361
-330.202	41.799	0.204	-0.238
-329.187	479.121	0.166	0.486
-328.172	88.892	-0.111	-0.159
-327.158	-46.480	0.115	-0.072
-326.143	-200.000	-0.006	-0.371
-325.129	-121.379	0.276	0.059
-324.114	-61.121	0.346	0.187
-323.099	54.145	0.211	-0.260
-322.085	477.162	-0.056	0.164
-321.070	178.994	-0.190	-0.356
-320.056	63.012	-0.374	-0.481
-319.041	330.919	-0.170	-0.420
-318.026	226.602	0.089	-0.186
-317.012	-75.280	-0.271	-0.123
-315.997	-39.255	0.269	-0.181
-314.983	-2.883	0.234	-0.210
-313.968	-152.583	-0.139	0.013
-312.953	-86.653	-0.148	-0.058
-311.939	-183.736	-0.356	0.008
-310.924	-69.395	0.246	0.120
-309.910	-116.626	-0.591	-0.138
-308.895	-110.044	0.107	0.029
-307.880	-200.000	-0.085	-0.492
-306.866	85.078	0.153	-0.215
-305.851	28.483	-0.448	-0.485
-304.837	24.559	-0.469	-0.497
-303.822	-88.003	0.333	-0.127
-302.807	-9.999	0.072	0.061
-301.793	227.411	-0.183	0.383
-300.778	-58.651	-0.493	0.273
-299.764	24.296	-0.210	0.222
-298.749	-117.775	0.379	-0.087
-297.735	-120.357	0.274	0.059
-296.720	-133.815	0.264	0.042
-295.705	12.604	-0.229	0.226
-294.691	-97.623	0.318	-0.105
-293.676	-32.299	0.087	-0.062
-292.662	-62.592	0.376	0.199
-291.647	664.517	0.038	0.125
-290.632	-123.750	-0.681	-0.137
-289.618	-123.714	0.105	-0.021
-288.603	-71.787	0.371	0.176
-287.589	95.995	0.338	0.495
-286.574	102.224	0.540	0.808
-285.559	569.925	-0.143	-0.447
-284.545	-161.148	-0.117	-0.008
-283.530	-27.463	0.215	0.160
-282.516	-69.966	0.283	0.137
-281.501	-198.646	0.430	0.003
-280.486	73.665	-0.034	0.045
-279.472	-37.991	0.158	-0.107
-278.457	-23.629	-0.248	0.190
-277.443	-60.972	0.305	-0.164
-276.428	-140.074	-0.420	-0.056
-275.413	505.544	-0.110	0.328
-274.399	17.927	0.126	0.129
-273.384	-165.387	0.368	0.020
-272.370	32.503	0.154	0.170
-271.355	800.000	0.027	-0.103
-270.340	67.339	-0.114	-0.149
-269.326	-99.689	-0.057	-0.018
-268.311	73.916	-0.142	-0.191
-267.297	-133.392	0.303	0.048
-266.282	-91.313	-0.424	-0.154
-265.267	-142.790	-0.049	-0.006
-264.253	800.000	-0.077	-0.373
-263.238	-200.000	0.061	-0.453
-262.224	-25.306	-0.062	0.047
-261.209	-137.701	0.373	-0.053
-260.195	244.333	-0.148	-0.318
-259.180	261.746	-0.220	0.489
-258.165	-107.606	0.098	-0.027
-257.151	-95.099	-0.207	-0.071
-256.136	119.955	0.295	-0.468
-255.122	-164.791	0.203	-0.011
-254.107	-63.134	0.349	0.183
-253.092	51.876	0.262	-0.319
-252.078	800.000	-0.037	0.182
-251.063	-200.000	-0.071	0.480
-250.049	-97.633	0.126	-0.042
-249.034	400.166	-0.149	0.401
-248.019	-54.638	-0.241	-0.139
-247.005	15.718	-0.124	-0.125
-245.990	-43.850	-0.135	0.087
-244.976	-59.969	-0.215	0.117
-243.961	-200.000	0.015	-0.137
-242.946	288.622	-0.224	-0.521
-241.932	-113.520	0.463	0.115
-240.917	-200.000	-0.014	-0.215
-239.903	-110.097	-0.157	0.042
-238.888	-200.000	0.009	0.284
-237.873	-200.000	0.068	0.542
-236.859	-46.524	-0.185	0.116
-235.844	800.000	0.030	0.157
-234.830	-51.433	-0.386	-0.230
-233.815	-166.383	0.139	-0.007
-232.800	-20.022	0.166	0.131
-231.786	96.422	-0.228	-0.334
-230.771	-38.419	0.295	0.199
-229.757	-111.645	-0.218	-0.056
-228.742	275.785	0.214	-0.487
-227.727	14.651	-0.549	-0.548
-226.713	-135.955	-0.121	0.018
-225.698	413.642	-0.138	-0.377
-224.684	800.000	0.113	0.501
-223.669	62.304	0.281	0.359
-222.655	-200.000	-0.012	-0.288
-221.640	197.310	-0.132	-0.259
-220.625	184.985	0.121	-0.229
-219.611	-200.000	-0.096	-0.542
-218.596	-200.000	-0.006	0.396
-217.582	-72.354	-0.116	0.054
-216.567	800.000	0.075	-0.273
-215.552	43.736	0.305	0.356
-214.538	-200.000	0.021	0.486
-213.523	-57.284	0.203	0.114
-212.509	-105.862	0.273	-0.078
-211.494	-67.248	-0.438	0.219
-210.479	-130.326	0.341	-0.059
-209.465	19.758	0.172	0.177
-208.450	-87.091	-0.389	0.150
-207.436	602.387	-0.074	-0.235
-206.421	-40.121	-0.145	-0.096
-205.406	-88.260	0.178	0.067
-204.392	-71.772	-0.225	-0.106
-203.377	-15.840	0.478	-0.388
-202.363	70.814	0.214	-0.283
-201.348	109.129	-0.290	-0.444
-200.333	-33.679	-0.212	-0.149
-199.319	28.646	-0.149	0.161
-198.304	-19.934	0.336	0.264
-197.290	-59.736	0.053	-0.029
-196.275	-119.544	0.578	0.127
-195.260	-64.431	0.324	-0.168
-194.246	474.268	0.084	0.242
-193.231	-156.263	0.310	-0.024
-192.217	95.318	-0.106	-0.155
-191.202	-89.369	0.222	0.083
-190.187	-55.705	-0.002	0.001
-189.173	-200.000	-0.018	0.300
-188.158	144.096	-0.311	-0.530
-187.144	-92.378	0.206	0.073
-186.129	-53.206	-0.281	0.164
-185.114	-30.683	0.124	-0.090
-184.100	-80.761	-0.298	-0.126
-183.085	118.460	-0.206	0.325
-182.071	278.506	-0.098	-0.224
-181.056	-58.912	0.407	0.224
-180.042	472.241	0.118	-0.341
-179.027	-104.865	0.284	-0.082
-178.012	495.034	-0.125	0.367
-176.998	215.877	0.231	0.470
-175.983	150.606	0.289	0.502
-174.969	61.319	-0.139	0.176
-173.954	119.700	0.123	0.194
-172.939	-59.363	-0.250	-0.136
-171.925	-200.000	0.016	0.289
-170.910	-90.946	0.219	0.080
-169.896	174.962	0.052	0.096
-168.881	75.176	-0.164	-0.220
-167.866	92.607	-0.129	0.186
-166.852	-84.638	-0.361	0.144
-165.837	86.971	0.308	-0.434
-164.823	343.272	-0.120	-0.300
-163.808	279.647	-0.187	0.428
-162.793	57.431	0.039	0.049
-161.779	105.096	-0.097	0.147
-160.764	215.248	-0.261	0.530
-159.750	-3.333	-0.289	-0.256
-158.735	-126.381	0.380	-0.071
-157.720	-77.600	-0.120	0.053
-156.706	300.872	-0.087	-0.205
-155.691	-200.000	0.046	0.425
-154.677	798.571	0.067	-0.238
-153.662	-181.859	0.340	0.008
-152.647	-169.496	-0.178	0.008
-151.633	-58.652	0.087	0.048
-150.618	251.416	-0.207	-0.451
-149.604	111.661	0.095	-0.146
-148.589	192.847	0.136	0.261
-147.574	-35.377	-0.118	0.082
-146.560	-109.798	0.087	-0.023
-145.545	-9.514	0.219	-0.186
-144.531	128.547	0.196	0.318
-143.516	691.175	0.103	-0.346
-142.502	-22.553	0.365	-0.281
-141.487	-200.000	0.036	-0.212
-140.472	-28.208	0.070	0.051
-139.458	25.184	-0.199	-0.210
-138.443	147.693	0.069	-0.118
-137.429	311.735	0.078	-0.186
-136.414	22.012	-0.428	0.444
-135.399	-35.805	0.182	0.125
-134.385	-200.000	0.024	0.138
-133.370	34.903	0.080	-0.089
-132.356	770.398	0.192	0.671
-131.341	-100.099	-0.659	0.208
-130.326	-189.992	0.134	0.002
-129.312	582.753	-0.110	0.344
-128.297	-34.850	0.108	-0.075
-127.283	-80.439	0.370	-0.156
-126.268	-66.432	0.538	-0.271
-125.253	160.390	-0.333	0.593
-124.239	-64.024	-0.066	-0.034
-123.224	-200.000	-0.000	0.114
-122.210	52.335	0.084	-0.103
