DTS Sentinel unit serial number:	SN409020Multiplexer serial number:	ORYXHardware model number:	OX4-SRSoftware version number:	ORYX F/W v3.00 Oryx Data Collector v3.7.2.0data status	okinstallation	HaddamTimeLapsedifferential loss correction	single-endedforward channel	channel 3reverse channel	N/Adate	2011/06/21time	14:21:17forward acquisition time	30.00reverse acquisition time	0.00gamma	498.7831k internal	0.1834k external	0.1834temperature offset calibration	1.0074default loss term (dB/km)	0.3790temperature slope calibration	1.3530multiplexer offset coefficient	1.0000multiplexer slope coefficient	1.0000fibre end	0.00T internal ref (°C)	38.75T ext. ref 1 (°C)	29.94T ext. ref 2 (°C)	0.25length (m)	temperature (°C)	Stokes	anti-Stokes-747.200	-131.825	0.448	0.074
-746.185	-97.170	-0.111	-0.037
-745.171	-200.000	0.024	0.185
-744.156	46.659	0.042	0.050
-743.142	24.443	-0.508	-0.533
-742.127	-103.691	0.119	0.035
-741.112	800.000	-0.064	-0.240
-740.098	424.731	-0.217	0.595
-739.083	-200.000	0.054	-0.514
-738.069	26.106	0.268	0.283
-737.054	-86.758	0.214	-0.082
-736.039	312.406	-0.097	-0.231
-735.025	-75.557	0.158	0.071
-734.010	-6.318	0.163	-0.141
-732.996	630.583	0.232	-0.747
-731.981	-129.472	0.427	-0.074
-730.966	-59.372	0.383	0.208
-729.952	-134.016	-0.596	-0.093
-728.937	-63.813	-0.357	-0.185
-727.923	215.748	-0.164	-0.332
-726.908	503.744	0.086	-0.255
-725.894	-4.431	0.736	-0.645
-724.879	400.754	0.113	-0.301
-723.864	-70.273	-0.204	0.098
-722.850	-23.670	-0.272	-0.207
-721.835	82.041	-0.086	-0.118
-720.821	-200.000	-0.033	-0.381
-719.806	-65.851	0.323	0.163
-718.791	-200.000	0.026	-0.436
-717.777	185.181	-0.032	0.061
-716.762	81.816	0.220	-0.303
-715.748	206.118	0.241	0.477
-714.733	320.599	-0.125	0.302
-713.718	-200.000	-0.010	0.157
-712.704	800.000	0.090	-0.490
-711.689	-87.344	0.234	-0.089
-710.675	66.605	0.324	-0.418
-709.660	-200.000	0.023	-0.386
-708.645	-132.491	0.501	-0.081
-707.631	-56.719	-0.155	-0.087
-706.616	-36.707	-0.232	-0.158
-705.602	-20.327	-0.046	0.036
-704.587	-3.434	-0.223	-0.196
-703.572	-27.532	0.289	-0.212
-702.558	800.000	-0.075	0.331
-701.543	-52.791	-0.051	-0.030
-700.529	800.000	-0.122	0.439
-699.514	24.793	0.100	-0.105
-698.499	-5.121	-0.426	-0.370
-697.485	-171.168	-0.511	-0.021
-696.470	-200.000	0.007	-0.110
-695.456	243.582	0.285	0.606
-694.441	-33.403	-0.299	0.209
-693.426	-38.913	-0.208	0.138
-692.412	-26.097	0.184	0.136
-691.397	-152.854	-0.319	-0.028
-690.383	-200.000	-0.065	-0.528
-689.368	85.094	0.253	-0.352
-688.354	363.816	0.158	0.403
-687.339	295.485	0.052	-0.121
-686.324	800.000	0.018	-0.063
-685.310	-65.866	-0.266	0.134
-684.295	-125.777	-0.338	0.064
-683.281	-120.168	0.282	0.061
-682.266	17.444	-0.223	-0.225
-681.251	186.895	-0.171	-0.324
-680.237	251.676	-0.193	-0.418
-679.222	-86.252	-0.186	0.072
-678.208	-200.000	0.032	0.207
-677.193	16.084	0.300	-0.299
-676.178	-200.000	-0.024	-0.435
-675.164	-13.093	-0.080	0.066
-674.149	-112.217	-0.288	-0.073
-673.135	86.065	0.238	0.331
-672.120	-20.199	-0.106	-0.083
-671.105	-25.260	-0.570	0.426
-670.091	8.682	0.189	-0.180
-669.076	190.232	0.188	-0.358
-668.062	-137.049	-0.211	-0.030
-667.047	-52.086	0.041	-0.024
-666.032	-21.710	-0.309	-0.237
-665.018	-140.537	-0.480	0.062
-664.003	-51.526	-0.246	-0.145
-662.989	-200.000	0.015	-0.342
-661.974	215.101	0.127	0.255
-660.959	-9.236	-0.344	0.291
-659.945	-22.749	-0.123	-0.094
-658.930	2.693	-0.435	-0.399
-657.916	-77.019	-0.397	-0.174
-656.901	174.145	0.122	-0.223
-655.886	-200.000	0.077	-0.489
-654.872	29.259	-0.088	0.094
-653.857	134.501	-0.073	0.120
-652.843	27.287	0.168	-0.178
-651.828	87.104	0.185	-0.258
-650.814	-200.000	-0.081	0.544
-649.799	57.443	-0.198	0.245
-648.784	12.326	0.406	-0.395
-647.770	-71.210	0.302	0.143
-646.755	100.555	0.161	-0.237
-645.741	-20.131	-0.077	0.060
-644.726	-147.736	-0.076	-0.008
-643.711	-200.000	0.010	0.315
-642.697	-200.000	0.025	-0.206
-641.682	40.305	0.174	0.198
-640.668	800.000	0.099	-0.377
-639.653	-200.000	-0.034	-0.337
-638.638	800.000	0.060	-0.258
-637.624	-117.728	0.324	0.073
-636.609	-115.390	-0.396	-0.094
-635.595	-28.646	-0.454	-0.329
-634.580	-110.343	-0.197	0.051
-633.565	-76.660	0.241	0.106
-632.551	800.000	0.152	0.632
-631.536	-161.170	0.227	-0.015
-630.522	247.663	-0.047	-0.101
-629.507	129.885	0.326	0.527
-628.492	-75.074	-0.148	-0.067
-627.478	99.727	-0.063	0.092
-626.463	-200.000	-0.001	-0.051
-625.449	21.231	0.212	0.217
-624.434	-167.435	-0.471	-0.023
-623.419	-66.830	-0.305	-0.152
-622.405	-76.885	-0.320	-0.141
-621.390	800.000	-0.010	-0.048
-620.376	-82.237	0.138	0.057
-619.361	158.275	0.129	0.227
-618.346	-76.733	-0.096	0.042
-617.332	-35.250	0.127	0.087
-616.317	-127.728	0.642	0.116
-615.303	23.527	-0.305	0.317
-614.288	74.893	0.349	0.465
-613.273	-171.076	0.330	-0.014
-612.259	52.410	0.241	-0.290
-611.244	800.000	-0.010	-0.058
-610.230	-58.791	-0.405	0.220
-609.215	-99.298	-0.343	-0.109
-608.201	-200.000	-0.043	0.689
-607.186	800.000	0.057	0.269
-606.171	-126.144	-0.222	-0.042
-605.157	-176.928	-0.329	-0.010
-604.142	-33.873	-0.314	0.218
-603.128	-123.378	0.353	0.070
-602.113	-200.000	0.002	0.145
-601.098	-200.000	-0.050	-0.461
-600.084	-51.076	0.562	0.332
-599.069	-164.881	-0.416	0.023
-598.055	-99.795	-0.280	0.088
-597.040	92.973	-0.204	-0.291
-596.025	36.013	-0.255	-0.284
-595.011	679.700	0.098	-0.324
-593.996	-178.177	-0.420	0.012
-592.982	419.055	0.111	-0.300
-591.967	232.498	0.182	-0.379
-590.952	-143.512	-0.307	0.036
-589.938	-200.000	-0.020	0.740
-588.923	-51.354	-0.120	-0.071
-587.909	800.000	0.039	0.201
-586.894	-132.130	-0.366	0.059
-585.879	9.529	-0.438	0.418
-584.865	-85.562	-0.142	0.055
-583.850	800.000	-0.069	0.291
-582.836	-154.785	-0.103	0.008
-581.821	-200.000	-0.017	0.186
-580.806	-96.906	0.176	-0.058
-579.792	22.502	-0.070	-0.072
-578.777	-178.085	-0.283	-0.008
-577.763	277.829	0.154	0.346
-576.748	-132.708	-0.182	-0.029
-575.733	104.082	-0.191	-0.284
-574.719	-29.154	-0.065	-0.047
-573.704	-171.821	-0.120	-0.005
-572.690	800.000	-0.040	-0.153
-571.675	-85.054	-0.363	-0.142
-570.661	209.071	0.237	-0.469
-569.646	359.006	-0.118	-0.297
-568.631	-200.000	-0.014	0.253
-567.617	-200.000	-0.024	0.482
-566.602	-127.614	-0.110	0.020
-565.588	458.708	-0.104	-0.294
-564.573	-34.922	-0.236	-0.162
-563.558	-135.114	0.336	0.050
-562.544	-200.000	-0.027	0.277
-561.529	-148.280	-0.515	-0.053
-560.515	-7.669	0.376	0.320
-559.500	25.462	-0.153	0.161
-558.485	800.000	0.109	-0.530
-557.471	800.000	0.072	-0.324
-556.456	86.767	-0.139	0.193
-555.442	-200.000	0.021	0.190
-554.427	302.063	0.095	0.222
-553.412	447.887	-0.060	0.167
-552.398	-96.374	0.462	0.153
-551.383	-56.629	0.631	0.351
-550.369	-168.951	0.477	-0.022
-549.354	-99.952	0.353	0.110
-548.339	-167.626	0.517	0.025
-547.325	800.000	-0.037	0.144
-546.310	-19.208	-0.287	-0.224
-545.296	127.573	-0.063	0.102
-544.281	-200.000	0.005	0.290
-543.266	-175.455	0.276	0.009
-542.252	177.790	-0.068	-0.125
-541.237	-89.901	-0.360	0.132
-540.223	-51.751	0.484	-0.283
-539.208	-47.116	0.008	-0.005
-538.193	453.167	-0.077	-0.214
-537.179	16.010	-0.357	-0.353
-536.164	-200.000	0.088	-0.504
-535.150	632.220	0.138	0.443
-534.135	224.267	-0.075	0.153
-533.121	60.302	-0.348	-0.433
-532.106	317.086	0.152	-0.364
-531.091	-88.138	-0.279	-0.105
-530.077	-200.000	0.000	0.148
-529.062	-25.580	-0.314	0.233
-528.048	-34.014	-0.125	0.086
-527.033	154.055	0.189	0.327
-526.018	-160.771	-0.380	0.025
-525.004	800.000	-0.046	0.233
-523.989	-117.754	0.072	0.016
-522.975	87.128	-0.304	-0.424
-521.960	123.116	0.321	-0.506
-520.945	-92.272	-0.497	-0.175
-519.931	216.823	0.168	-0.338
-518.916	-90.834	-0.283	-0.102
-517.902	-83.916	-0.301	0.120
-516.887	-65.831	-0.500	0.251
-515.872	192.229	0.061	0.115
-514.858	-35.820	0.405	0.275
-513.843	-29.113	-0.353	0.254
-512.829	-59.788	0.103	0.055
-511.814	72.519	-0.171	-0.224
-510.799	9.542	0.126	-0.120
-509.785	265.910	0.135	0.298
-508.770	265.449	0.140	-0.309
-507.756	15.406	-0.122	-0.120
-506.741	-200.000	-0.045	0.421
-505.726	-149.618	-0.115	0.011
-504.712	-200.000	0.074	0.437
-503.697	217.067	0.176	0.353
-502.683	567.567	0.133	0.407
-501.668	-200.000	0.050	-0.522
-500.653	26.995	-0.083	-0.087
-499.639	-114.588	0.229	-0.055
-498.624	-200.000	-0.009	-0.127
-497.610	800.000	-0.044	0.158
-496.595	-178.984	-0.578	0.016
-495.581	-134.884	-0.508	-0.076
-494.566	-84.876	0.446	-0.175
-493.551	58.279	-0.312	-0.385
-492.537	-19.586	-0.110	-0.086
-491.522	-12.784	0.344	-0.281
-490.508	-138.883	0.455	-0.062
-489.493	-116.531	-0.511	0.117
-488.478	157.192	-0.112	-0.195
-487.464	7.297	0.312	0.292
-486.449	-200.000	-0.006	0.539
-485.435	-197.608	-0.360	-0.003
-484.420	-77.201	0.359	0.156
-483.405	-200.000	-0.013	0.108
-482.391	-143.276	0.346	-0.041
-481.376	-200.000	-0.026	0.306
-480.362	-200.000	-0.010	0.126
-479.347	34.398	0.196	-0.215
-478.332	113.747	0.074	-0.112
-477.318	-114.475	0.408	0.098
-476.303	-200.000	0.022	-0.398
-475.289	-72.902	0.198	0.091
-474.274	144.907	-0.100	-0.168
-473.259	124.208	0.143	0.226
-472.245	-117.967	-0.260	0.058
-471.230	-200.000	0.003	0.467
-470.216	616.859	0.110	0.347
-469.201	-53.660	0.034	-0.020
-468.186	-200.000	0.028	-0.183
-467.172	-83.551	-0.207	0.083
-466.157	25.683	0.294	-0.307
-465.143	303.242	0.174	-0.405
-464.128	-200.000	-0.028	-0.166
-463.113	-0.427	0.306	0.273
-462.099	-118.184	0.074	-0.016
-461.084	643.947	-0.194	-0.625
-460.070	-186.196	0.060	0.001
-459.055	-120.241	0.319	-0.068
-458.040	-85.937	-0.079	-0.031
-457.026	133.800	-0.092	-0.150
-456.011	-82.727	0.099	0.040
-454.997	-20.095	0.210	-0.162
-453.982	635.145	-0.187	-0.597
-452.968	188.494	0.259	-0.488
-451.953	800.000	0.016	-0.087
-450.938	-2.228	-0.168	0.148
-449.924	-158.564	0.378	-0.027
-448.909	-161.756	0.459	-0.029
-447.895	-28.924	0.231	-0.166
-446.880	-19.593	0.262	0.203
-445.865	-155.321	-0.323	-0.026
-444.851	159.830	-0.099	0.174
-443.836	800.000	-0.036	0.172
-442.822	-138.834	-0.530	0.072
-441.807	197.880	-0.099	0.191
-440.792	80.109	-0.089	0.120
-439.778	-13.055	-0.219	0.178
-438.763	270.945	0.076	0.168
-437.749	194.607	0.203	0.386
-436.734	174.951	0.100	0.181
-435.719	-88.769	0.383	0.142
-434.705	349.943	-0.134	-0.334
-433.690	-194.065	-0.465	0.005
-432.676	191.925	0.138	0.261
-431.661	236.074	0.117	-0.243
-430.646	160.686	0.122	0.214
-429.632	104.287	-0.269	-0.397
-428.617	-27.749	-0.171	-0.124
-427.603	-113.900	-0.051	0.012
-426.588	800.000	-0.019	-0.076
-425.573	800.000	-0.159	-0.599
-424.559	533.151	-0.118	-0.353
-423.544	800.000	-0.027	0.133
-422.530	-200.000	-0.020	-0.220
-421.515	43.772	-0.233	-0.267
-420.500	800.000	-0.127	-0.533
-419.486	120.449	0.145	0.226
-418.471	-200.000	-0.080	0.444
-417.457	1.968	0.184	-0.166
-416.442	171.037	0.139	-0.250
-415.428	-75.556	0.636	0.282
-414.413	55.228	0.198	-0.240
-413.398	-131.881	-0.258	0.042
-412.384	800.000	-0.111	-0.503
-411.369	800.000	-0.096	-0.416
-410.355	-90.308	0.198	-0.072
-409.340	-200.000	0.006	-0.339
-408.325	-76.599	-0.415	0.181
-407.311	544.174	0.058	0.175
-406.296	-93.803	-0.657	-0.225
-405.282	194.935	0.108	-0.205
-404.267	16.372	0.562	0.555
-403.252	21.007	-0.277	0.281
-402.238	357.191	0.068	0.169
-401.223	171.002	0.362	0.652
-400.209	-169.660	-0.234	0.010
-399.194	-162.965	0.362	0.022
-398.179	449.972	-0.037	0.103
-397.165	46.086	0.296	-0.343
-396.150	-200.000	-0.020	0.203
-395.136	-40.642	-0.410	0.265
-394.121	29.409	-0.129	0.137
-393.106	287.395	0.022	-0.049
-392.092	-70.091	-0.232	-0.110
-391.077	-150.018	-0.805	0.077
-390.063	800.000	-0.018	-0.088
-389.048	-146.532	0.500	-0.054
-388.033	-52.151	-0.317	0.183
-387.019	45.065	-0.374	0.431
-386.004	-98.914	0.133	0.042
-384.990	-122.436	-0.018	-0.004
-383.975	-58.876	-0.322	0.174
-382.960	-154.645	-0.063	-0.005
-381.946	497.515	0.064	-0.185
-380.931	-101.760	0.667	-0.201
-379.917	-135.207	0.137	0.020
-378.902	-111.028	-0.379	0.097
-377.888	211.043	-0.078	0.153
-376.873	-78.365	-0.399	-0.170
-375.858	-42.525	0.284	-0.180
-374.844	-190.085	0.550	-0.007
-373.829	67.458	0.422	0.539
-372.815	388.886	0.125	-0.325
-371.800	-25.279	-0.532	0.393
-370.785	444.991	0.074	0.203
-369.771	-75.499	0.734	0.325
-368.756	-200.000	0.044	0.412
-367.742	-55.274	0.308	-0.173
-366.727	178.784	0.040	0.073
-365.712	6.007	-0.201	0.186
-364.698	-99.012	-0.248	-0.078
-363.683	100.093	-0.114	-0.166
-362.669	800.000	-0.030	-0.163
-361.654	60.519	0.366	-0.453
-360.639	-110.810	-0.177	-0.045
-359.625	758.466	-0.064	-0.219
-358.610	37.250	-0.258	-0.286
-357.596	43.066	-0.405	-0.461
-356.581	55.098	-0.068	-0.082
-355.566	362.255	0.129	-0.324
-354.552	33.202	-0.191	0.207
-353.537	115.080	0.105	-0.160
-352.523	800.000	0.094	-0.400
-351.508	-64.472	-0.493	-0.249
-350.493	-200.000	-0.065	-0.597
-349.479	28.098	0.406	0.428
-348.464	-161.271	-0.450	-0.029
-347.450	-78.931	-0.272	-0.115
-346.435	-41.864	-0.371	0.237
-345.420	-197.877	-0.596	-0.004
-344.406	-134.922	0.289	0.043
-343.391	590.834	0.057	-0.175
-342.377	-200.000	-0.040	-0.262
-341.362	-41.739	0.195	-0.125
-340.348	-84.311	-0.202	-0.079
-339.333	-3.680	-0.323	0.280
-338.318	187.770	0.055	0.103
-337.304	-200.000	0.016	0.090
-336.289	-182.448	-0.617	-0.014
-335.275	-200.000	-0.010	0.215
-334.260	4.582	-0.359	-0.329
-333.245	-20.389	-0.314	-0.241
-332.231	-200.000	0.010	0.478
-331.216	52.273	-0.170	0.202
-330.202	-136.608	0.633	0.091
-329.187	-125.563	0.620	0.117
-328.172	800.000	0.067	-0.289
-327.158	154.434	-0.037	-0.064
-326.143	243.017	0.091	-0.191
-325.129	-3.096	0.063	-0.055
-324.114	13.220	0.137	0.132
-323.099	800.000	-0.028	-0.129
-322.085	-13.473	-0.229	-0.185
-321.070	245.102	0.165	0.347
-320.056	-31.576	-0.110	0.077
-319.041	-127.457	-0.516	0.093
-318.026	-14.314	0.310	0.248
-317.012	800.000	0.118	0.438
-315.997	306.244	0.173	0.402
-314.983	800.000	0.068	-0.267
-313.968	235.069	-0.139	0.288
-312.953	-43.138	-0.276	0.174
-311.939	-200.000	-0.006	-0.431
-310.924	115.041	0.094	0.143
-309.910	162.123	0.077	0.135
-308.895	-61.295	-0.422	0.221
-307.880	-57.879	-0.213	-0.116
-306.866	-200.000	0.008	0.242
-305.851	800.000	0.122	0.452
-304.837	-56.249	-0.358	-0.198
-303.822	366.351	0.023	0.058
-302.807	124.070	-0.094	0.148
-301.793	16.708	-0.069	-0.068
-300.778	-47.782	-0.452	0.272
-299.764	94.936	0.182	0.259
-298.749	-23.917	-0.132	-0.099
-297.735	-98.333	-0.409	-0.130
-296.720	2.750	-0.534	0.483
-295.705	-114.821	0.756	0.178
-294.691	-179.350	0.430	0.012
-293.676	-115.443	-0.382	0.089
-292.662	32.443	-0.219	0.235
-291.647	291.215	0.221	-0.504
-290.632	-95.760	0.367	-0.122
-289.618	-200.000	0.010	0.080
-288.603	800.000	0.050	-0.222
-287.589	-90.287	-0.381	0.137
-286.574	-57.371	-0.453	-0.247
-285.559	-107.034	0.127	-0.035
-284.545	35.825	0.346	0.379
-283.530	-200.000	0.006	-0.127
-282.516	-35.135	0.288	-0.195
-281.501	178.286	0.085	0.154
-280.486	5.658	0.146	0.134
-279.472	-64.958	0.303	-0.152
-278.457	800.000	-0.070	-0.294
-277.443	-102.629	-0.328	-0.097
-276.428	-131.091	0.658	0.108
-275.413	-78.731	0.329	-0.139
-274.399	-200.000	-0.044	0.272
-273.384	-85.082	-0.588	0.228
-272.370	204.188	0.197	0.381
-271.355	-14.884	-0.249	0.199
-270.340	90.648	0.223	-0.311
-269.326	-189.201	0.211	0.003
-268.311	800.000	0.106	-0.386
-267.297	-200.000	0.020	0.542
-266.282	-136.798	0.291	0.041
-265.267	800.000	-0.043	-0.204
-264.253	146.430	-0.199	-0.333
-263.238	-200.000	-0.013	0.376
-262.224	65.050	-0.114	-0.143
-261.209	26.945	0.181	0.189
-260.195	82.712	0.151	-0.204
-259.180	5.081	0.376	-0.344
-258.165	-94.573	-0.269	0.091
-257.151	-200.000	0.028	0.211
-256.136	-38.380	-0.271	-0.178
-255.122	-200.000	0.022	0.122
-254.107	96.269	0.040	-0.056
-253.092	72.397	-0.189	-0.245
-252.078	45.089	-0.319	0.366
-251.063	25.645	0.469	0.486
-250.049	800.000	0.072	-0.303
-249.034	-135.475	0.515	0.076
-248.019	242.591	0.100	-0.210
-247.005	-200.000	0.005	0.041
-245.990	-42.422	-0.133	-0.084
-244.976	4.419	0.108	0.098
-243.961	-41.837	0.535	0.340
-242.946	-37.774	-0.170	-0.112
-241.932	-200.000	-0.038	0.238
-240.917	67.056	0.215	0.272
-239.903	-200.000	0.022	0.129
-238.888	800.000	-0.053	0.293
-237.873	800.000	0.007	-0.033
-236.859	131.958	0.268	-0.430
-235.844	264.427	-0.113	0.246
-234.830	102.314	0.066	-0.096
-233.815	176.135	-0.276	-0.501
-232.800	-15.017	-0.295	-0.235
-231.786	-200.000	-0.014	-0.177
-230.771	-82.267	0.429	-0.173
-229.757	20.599	0.180	-0.181
-228.742	-52.660	-0.260	0.149
-227.727	5.390	0.284	-0.260
-226.713	163.686	-0.569	-0.997
-225.698	-200.000	0.003	-0.028
-224.684	590.477	0.069	-0.213
-223.669	-199.370	0.169	0.001
-222.655	280.590	0.175	-0.390
-221.640	-149.348	0.151	0.015
-220.625	-31.725	0.493	0.343
-219.611	-101.369	-0.248	-0.075
-218.596	-36.792	0.287	-0.191
-217.582	-200.000	-0.021	-0.198
-216.567	-26.042	0.233	0.170
-215.552	-200.000	0.045	-0.708
-214.538	800.000	0.023	-0.103
-213.523	45.549	-0.167	0.191
-212.509	-11.467	-0.178	-0.146
-211.494	555.770	0.164	0.494
-210.479	-137.683	-0.060	0.008
-209.465	-15.951	0.126	0.099
-208.450	344.697	0.133	-0.325
-207.436	-94.407	0.247	0.083
-206.421	41.327	0.229	0.257
-205.406	40.694	-0.182	0.204
-204.392	-103.598	-0.519	-0.150
-203.377	184.986	0.051	0.094
-202.363	117.386	0.124	0.189
-201.348	10.861	0.371	-0.352
-200.333	-109.572	-0.194	0.050
-199.319	29.107	-0.254	-0.268
-198.304	189.229	0.115	-0.214
-197.290	247.157	0.160	0.337
-196.275	14.261	0.324	-0.314
-195.260	-67.601	-0.433	0.210
-194.246	-4.124	-0.194	-0.167
-193.231	452.302	-0.067	-0.184
-192.217	19.373	-0.109	0.109
-191.202	800.000	0.068	-0.263
-190.187	9.488	0.114	0.107
-189.173	-142.465	0.309	0.037
-188.158	34.255	0.311	-0.336
-187.144	-200.000	-0.032	0.283
-186.129	55.140	0.307	-0.369
-185.114	-137.211	0.074	0.010
-184.100	-10.552	-0.085	0.070
-183.085	-64.053	0.220	0.111
-182.071	-200.000	0.047	0.378
-181.056	800.000	0.141	0.494
-180.042	-95.252	0.147	-0.049
-179.027	-118.135	-0.185	0.041
-178.012	800.000	-0.134	-0.491
-176.998	381.819	0.064	0.164
-175.983	-124.143	-0.147	-0.028
-174.969	120.159	0.290	0.447
-173.954	-200.000	-0.083	-0.458
-172.939	163.701	-0.395	-0.691
-171.925	190.063	-0.174	-0.326
-170.910	800.000	-0.041	0.178
-169.896	583.458	-0.046	-0.140
-168.881	-100.657	0.535	-0.163
-167.866	-142.592	0.345	0.041
-166.852	-166.531	-0.273	-0.014
-165.837	-53.236	0.320	0.182
-164.823	-33.785	0.072	0.049
-163.808	-150.325	0.182	-0.017
-162.793	127.282	-0.142	0.225
-161.779	800.000	0.121	0.455
-160.764	57.709	-0.168	0.204
-159.750	-56.092	0.327	-0.180
-158.735	204.689	-0.158	0.304
-157.720	-151.257	0.390	0.036
-156.706	-119.798	-0.227	0.048
-155.691	14.530	-0.212	0.205
-154.677	-200.000	-0.001	-0.073
-153.662	-120.611	0.265	0.055
-152.647	-51.451	0.386	-0.223
-151.633	-63.362	-0.369	-0.188
-150.618	-112.099	-0.139	0.034
-149.604	260.590	0.071	-0.153
-148.589	-183.069	0.317	0.007
-147.574	-133.182	0.135	-0.021
-146.560	2.015	-0.205	0.183
-145.545	507.395	0.027	-0.079
-144.531	209.303	-0.278	0.542
-143.516	217.401	0.142	-0.282
-142.502	499.521	0.062	0.177
-141.487	470.323	0.162	0.455
-140.472	247.549	-0.103	-0.216
-139.458	315.171	0.200	0.468
-138.443	-99.061	0.045	0.014
-137.429	138.402	-0.134	0.219
-136.414	-18.351	-0.303	0.234
-135.399	-192.454	-0.313	0.004
-134.385	464.411	0.047	0.132
-133.370	-115.487	-0.255	-0.059
-132.356	-83.859	0.054	-0.021
-131.341	126.513	0.125	-0.197
-130.326	-111.774	-0.262	0.065
-129.312	-200.000	0.002	-0.230
-128.297	58.960	-0.164	0.200
-127.283	88.167	-0.249	-0.343
-126.268	-22.479	-0.088	0.066
-125.253	4.502	-0.251	0.228
-124.239	-200.000	0.032	0.278
-123.224	-27.089	-0.256	-0.184
-122.210	114.472	0.214	-0.323
-121.195	-8.587	-0.214	-0.177
