DTS Sentinel unit serial number:	SN409020Multiplexer serial number:	ORYXHardware model number:	OX4-SRSoftware version number:	ORYX F/W v3.00 Oryx Data Collector v3.7.2.0data status	okinstallation	HaddamTimeLapsedifferential loss correction	single-endedforward channel	channel 3reverse channel	N/Adate	2011/06/21time	16:56:17forward acquisition time	30.00reverse acquisition time	0.00gamma	498.7831k internal	0.1786k external	0.1786temperature offset calibration	1.0074default loss term (dB/km)	0.3790temperature slope calibration	1.3530multiplexer offset coefficient	1.0000multiplexer slope coefficient	1.0000fibre end	0.00T internal ref (°C)	32.37T ext. ref 1 (°C)	27.48T ext. ref 2 (°C)	0.24length (m)	temperature (°C)	Stokes	anti-Stokes-747.200	67.745	-0.101	0.135
-746.185	-135.547	-0.634	-0.097
-745.171	-79.405	-0.169	-0.074
-744.156	158.174	-0.227	0.411
-743.142	441.082	0.126	0.361
-742.127	-13.850	0.103	-0.086
-741.112	-200.000	0.084	-0.511
-740.098	168.297	0.144	0.267
-739.083	-121.105	-0.406	-0.088
-738.069	-135.216	-0.274	0.042
-737.054	-56.270	0.369	0.213
-736.039	-200.000	-0.053	0.456
-735.025	198.138	0.079	-0.157
-734.010	-49.806	0.286	0.177
-732.996	71.141	0.036	-0.048
-731.981	-136.019	-0.180	0.027
-730.966	27.956	0.166	0.182
-729.952	80.648	-0.105	0.148
-728.937	-28.624	-0.320	0.239
-727.923	298.160	-0.145	0.348
-726.908	-46.086	0.042	-0.027
-725.894	-71.339	-0.238	-0.116
-724.879	2.140	-0.550	-0.517
-723.864	-106.995	0.494	-0.141
-722.850	-200.000	0.034	-0.399
-721.835	574.604	-0.051	-0.162
-720.821	-21.010	-0.156	-0.124
-719.806	-101.216	-0.128	-0.040
-718.791	455.709	0.103	0.298
-717.777	11.724	0.031	-0.031
-716.762	674.786	0.051	-0.173
-715.748	800.000	0.043	-0.178
-714.733	-86.857	-0.292	0.115
-713.718	-98.817	-0.491	-0.162
-712.704	-29.365	-0.356	-0.264
-711.689	-164.415	0.473	-0.028
-710.675	258.349	-0.068	-0.153
-709.660	-200.000	-0.032	-0.207
-708.645	-110.566	0.291	-0.078
-707.631	-195.941	-0.108	0.001
-706.616	69.352	0.111	-0.149
-705.602	-15.217	-0.361	0.300
-704.587	0.846	-0.195	0.182
-703.572	-42.291	-0.273	-0.181
-702.558	-68.267	0.530	-0.267
-701.543	800.000	-0.108	-0.599
-700.529	164.889	0.229	-0.421
-699.514	800.000	-0.048	0.209
-698.499	711.684	0.064	-0.223
-697.485	-156.050	-0.221	0.018
-696.470	-101.671	0.266	-0.083
-695.456	-151.062	0.147	-0.014
-694.441	-200.000	-0.015	0.364
-693.426	-200.000	-0.009	-0.229
-692.412	146.303	0.135	-0.236
-691.397	33.464	0.215	0.243
-690.383	-57.330	-0.147	-0.083
-689.368	32.986	-0.227	-0.255
-688.354	-137.544	-0.380	0.055
-687.339	-59.027	-0.434	0.243
-686.324	-163.991	0.401	-0.024
-685.310	-108.056	-0.289	0.081
-684.295	800.000	-0.113	-0.549
-683.281	-120.001	0.209	0.046
-682.266	-200.000	0.022	-0.243
-681.251	15.121	-0.125	0.128
-680.237	-79.252	0.176	-0.077
-679.222	708.508	-0.073	0.252
-678.208	-38.858	-0.294	0.200
-677.193	126.485	0.066	-0.109
-676.178	-56.809	0.335	-0.192
-675.164	-70.303	-0.708	-0.348
-674.149	-140.131	0.397	0.054
-673.135	-200.000	-0.080	-0.485
-672.120	35.245	0.314	-0.357
-671.105	800.000	-0.027	-0.148
-670.091	100.170	0.211	0.319
-669.076	-126.476	0.302	0.058
-668.062	89.196	0.182	-0.263
-667.047	37.277	-0.042	0.048
-666.032	-74.252	0.345	-0.161
-665.018	333.357	0.077	0.195
-664.003	-41.824	-0.234	-0.155
-662.989	198.500	-0.197	-0.393
-661.974	600.060	-0.111	-0.358
-660.959	-22.463	-0.293	-0.230
-659.945	-101.913	0.073	-0.023
-658.930	-23.414	0.197	0.154
-657.916	80.031	-0.198	0.277
-656.901	99.976	-0.261	0.393
-655.886	-165.496	-0.535	0.030
-654.872	-127.130	-0.210	-0.040
-653.857	501.745	0.123	-0.369
-652.843	181.470	-0.062	-0.118
-651.828	-115.528	-0.295	0.071
-650.814	800.000	-0.044	0.244
-649.799	90.339	0.298	0.433
-648.784	122.287	-0.288	-0.467
-647.770	800.000	0.058	0.294
-646.755	32.818	0.161	0.181
-645.741	-68.153	-0.366	0.184
-644.726	-10.992	-0.304	0.260
-643.711	-133.419	-0.405	0.065
-642.697	800.000	-0.095	-0.425
-641.682	-8.245	-0.261	-0.227
-640.668	-127.719	0.318	-0.059
-639.653	19.592	0.261	0.272
-638.638	-200.000	0.011	-0.100
-637.624	-16.840	0.218	0.178
-636.609	83.794	0.152	0.216
-635.595	-71.587	0.443	-0.214
-634.580	-70.037	-0.202	-0.099
-633.565	-150.467	0.412	0.041
-632.551	-9.322	-0.355	0.307
-631.536	71.147	0.265	0.357
-630.522	395.282	-0.074	0.200
-629.507	-102.750	0.277	-0.085
-628.492	605.148	0.031	-0.099
-627.478	-51.536	-0.153	0.092
-626.463	129.843	-0.055	0.092
-625.449	-24.743	-0.258	0.198
-624.434	205.522	0.048	0.097
-623.419	223.303	0.135	0.282
-622.405	-3.542	-0.251	0.226
-621.390	-200.000	0.013	0.090
-620.376	19.079	-0.048	0.050
-619.361	316.950	-0.089	0.219
-618.346	-6.281	0.424	0.374
-617.332	-31.356	-0.540	-0.393
-616.317	-105.009	-0.578	-0.170
-615.303	-19.305	0.067	-0.054
-614.288	800.000	0.080	-0.338
-613.273	333.805	-0.137	-0.345
-612.259	800.000	-0.055	0.201
-611.244	-130.720	-0.220	-0.038
-610.230	120.034	-0.269	0.433
-609.215	81.711	-0.332	0.466
-608.201	-54.791	0.245	-0.143
-607.186	-36.307	0.292	-0.203
-606.171	-200.000	-0.036	-0.304
-605.157	-141.847	-0.250	-0.032
-604.142	-200.000	-0.023	-0.227
-603.128	-171.513	0.346	-0.015
-602.113	-200.000	-0.007	-0.242
-601.098	-71.465	-0.678	-0.327
-600.084	117.528	-0.281	0.449
-599.069	-112.380	0.229	-0.059
-598.055	-77.469	0.254	0.114
-597.040	-135.275	0.369	-0.057
-596.025	-16.749	0.246	-0.201
-595.011	34.906	0.184	-0.209
-593.996	26.499	-0.275	0.298
-592.982	129.069	0.413	-0.684
-591.967	-160.208	-0.157	0.011
-590.952	-200.000	-0.072	-0.467
-589.938	-122.965	0.586	0.121
-588.923	-200.000	0.059	0.359
-587.909	184.212	0.112	-0.214
-586.894	-2.546	-0.108	0.098
-585.879	-68.749	-0.174	-0.086
-584.865	75.249	-0.069	0.094
-583.850	-200.000	-0.038	-0.250
-582.836	232.946	-0.039	-0.082
-581.821	21.178	0.451	-0.473
-580.806	-20.764	-0.234	-0.185
-579.792	14.427	-0.223	-0.225
-578.777	-92.779	-0.225	0.081
-577.763	22.755	-0.308	-0.326
-576.748	-110.455	-0.404	0.108
-575.733	263.875	-0.186	-0.420
-574.719	14.585	-0.294	0.297
-573.704	404.576	-0.060	-0.165
-572.690	-66.031	0.650	0.334
-571.675	-124.962	0.417	0.082
-570.661	-119.045	0.356	-0.080
-569.646	-200.000	-0.022	0.225
-568.631	67.442	0.329	0.434
-567.617	-199.575	-0.225	0.001
-566.602	-200.000	-0.009	0.057
-565.588	-87.127	0.146	0.057
-564.573	173.043	-0.112	-0.210
-563.558	-50.658	-0.221	0.134
-562.544	-200.000	-0.040	0.596
-561.529	47.758	-0.351	0.424
-560.515	-113.301	0.233	0.059
-559.500	-125.441	0.183	-0.036
-558.485	-176.866	-0.631	0.020
-557.471	402.794	-0.064	0.174
-556.456	-42.327	-0.390	-0.257
-555.442	170.690	0.054	0.100
-554.427	-103.891	0.113	0.034
-553.412	-152.291	-0.318	0.029
-552.398	48.878	-0.197	0.239
-551.383	758.880	0.102	-0.358
-550.369	219.395	-0.173	-0.359
-549.354	-7.764	-0.263	0.230
-548.339	125.744	-0.228	-0.374
-547.325	134.557	0.422	-0.709
-546.310	272.119	0.067	0.153
-545.296	-151.489	0.294	-0.028
-544.281	-200.000	-0.025	-0.181
-543.266	-41.323	0.184	-0.122
-542.252	-169.501	-0.107	0.005
-541.237	287.196	-0.188	0.442
-540.223	-41.648	0.454	0.300
-539.208	800.000	-0.028	-0.129
-538.193	-200.000	-0.015	-0.561
-537.179	216.469	0.154	-0.318
-536.164	-41.271	0.393	0.261
-535.150	-140.863	0.501	0.066
-534.135	-115.172	0.157	0.038
-533.121	-31.262	0.204	-0.148
-532.106	-200.000	-0.020	0.365
-531.091	-43.865	-0.250	0.162
-530.077	-90.112	0.267	-0.100
-529.062	-143.696	-0.254	0.031
-528.048	-200.000	-0.025	0.783
-527.033	24.441	0.131	-0.139
-526.018	20.920	-0.226	-0.236
-525.004	800.000	-0.014	0.063
-523.989	-117.582	-0.432	0.100
-522.975	123.788	-0.123	-0.199
-521.960	547.356	-0.149	-0.463
-520.945	-11.520	0.171	-0.145
-519.931	-100.614	-0.363	-0.115
-518.916	140.654	-0.060	0.102
-517.902	-70.578	-0.066	0.032
-516.887	800.000	-0.021	0.084
-515.872	-56.297	0.073	-0.042
-514.858	456.931	-0.078	0.225
-513.843	-177.898	-0.261	0.008
-512.829	112.630	-0.193	0.302
-511.814	-90.493	0.417	-0.155
-510.799	-124.433	0.231	-0.046
-509.785	-74.025	-0.571	0.266
-508.770	36.716	-0.275	0.314
-507.756	-129.197	0.674	-0.120
-506.741	-16.966	0.404	0.328
-505.726	252.384	-0.267	0.589
-504.712	122.303	-0.268	-0.433
-503.697	-200.000	-0.006	0.058
-502.683	-13.585	0.175	0.146
-501.668	117.646	0.348	-0.554
-500.653	800.000	0.062	-0.235
-499.639	67.465	0.411	-0.542
-498.624	-118.091	-0.368	0.084
-497.610	313.538	0.254	-0.619
-496.595	33.271	0.367	-0.411
-495.581	428.797	-0.116	-0.325
-494.566	-200.000	-0.006	0.170
-493.551	199.070	0.224	-0.444
-492.537	205.325	0.145	-0.292
-491.522	-55.942	-0.243	-0.139
-490.508	107.492	0.159	0.245
-489.493	22.007	0.273	0.287
-488.478	-148.304	0.365	-0.038
-487.464	-149.181	0.173	-0.018
-486.449	18.455	0.383	-0.394
-485.435	-157.539	-0.247	0.019
-484.420	800.000	0.018	-0.090
-483.405	-56.561	0.201	0.114
-482.391	-35.906	-0.144	0.100
-481.376	-200.000	0.033	-0.207
-480.362	-142.073	0.216	-0.027
-479.347	-28.827	-0.196	-0.145
-478.332	32.024	-0.097	-0.108
-477.318	-52.653	-0.424	0.251
-476.303	-200.000	-0.012	0.200
-475.289	38.378	-0.132	-0.151
-474.274	-56.489	0.262	-0.149
-473.259	-200.000	0.036	0.333
-472.245	-22.211	0.212	-0.165
-471.230	139.111	0.049	0.084
-470.216	-18.193	-0.255	0.205
-469.201	192.539	-0.109	-0.212
-468.186	162.100	-0.048	0.087
-467.172	14.350	0.200	0.201
-466.157	-124.318	-0.186	-0.037
-465.143	800.000	-0.032	0.179
-464.128	199.569	0.116	-0.229
-463.113	-200.000	-0.056	-0.567
-462.099	-112.990	-0.415	0.105
-461.084	-86.788	-0.468	-0.183
-460.070	-86.980	0.061	0.024
-459.055	-200.000	-0.005	-0.139
-458.040	-109.241	-0.246	0.067
-457.026	95.239	-0.330	0.485
-456.011	-1.613	0.200	0.181
-454.997	800.000	-0.099	0.363
-453.982	21.692	-0.200	0.209
-452.968	-8.091	0.377	-0.326
-451.953	37.283	0.227	-0.259
-450.938	-200.000	0.008	0.340
-449.924	-98.934	-0.266	-0.086
-448.909	-132.683	0.189	-0.031
-447.895	350.812	-0.216	0.551
-446.880	-50.700	0.280	0.169
-445.865	-196.567	-0.431	-0.004
-444.851	-83.462	0.691	0.283
-443.836	-77.894	-0.505	0.223
-442.822	-200.000	0.041	-0.392
-441.807	800.000	-0.123	-0.506
-440.792	13.431	-0.302	0.302
-439.778	18.722	0.352	0.362
-438.763	-200.000	-0.028	-0.289
-437.749	122.015	-0.186	-0.299
-436.734	-200.000	0.015	-0.272
-435.719	-129.783	-0.520	-0.091
-434.705	800.000	0.028	0.154
-433.690	-39.107	0.364	-0.246
-432.676	163.288	-0.074	0.135
-431.661	56.068	0.174	-0.217
-430.646	-104.039	-0.522	-0.155
-429.632	800.000	-0.102	0.534
-428.617	44.349	-0.074	0.088
-427.603	800.000	-0.070	-0.384
-426.588	-151.508	-0.266	0.025
-425.573	-110.256	0.222	-0.059
-424.559	-136.627	0.545	0.080
-423.544	-57.267	0.234	-0.132
-422.530	-102.961	-0.150	-0.046
-421.515	366.121	0.161	-0.419
-420.500	15.183	-0.259	0.261
-419.486	-70.585	-0.281	-0.136
-418.471	-108.679	0.133	-0.036
-417.457	-200.000	0.011	-0.142
-416.442	61.845	-0.126	-0.162
-415.428	-200.000	-0.043	-0.433
-414.413	451.473	0.148	-0.421
-413.398	800.000	0.082	-0.398
-412.384	-107.668	0.516	-0.144
-411.369	215.999	0.309	0.633
-410.355	180.210	0.268	0.507
-409.340	-200.000	0.017	0.288
-408.325	344.678	0.059	0.151
-407.311	241.548	-0.195	-0.421
-406.296	800.000	0.036	-0.206
-405.282	-110.468	-0.210	0.056
-404.267	-56.699	0.319	0.181
-403.252	157.889	0.129	-0.230
-402.238	-111.687	-0.437	-0.113
-401.223	329.251	0.158	0.392
-400.209	-137.819	0.288	-0.041
-399.194	241.991	-0.267	0.575
-398.179	711.571	0.040	0.137
-397.165	283.221	0.119	-0.276
-396.150	800.000	-0.060	-0.300
-395.136	-124.683	-0.183	0.036
-394.121	184.051	0.070	-0.134
-393.106	-116.729	-0.258	0.060
-392.092	386.584	0.059	-0.158
-391.077	510.652	0.202	-0.608
-390.063	-25.794	-0.353	-0.266
-389.048	739.094	-0.050	-0.173
-388.033	800.000	-0.029	0.125
-387.019	700.566	0.099	0.335
-386.004	-110.917	-0.653	-0.171
-384.990	-89.789	-0.062	-0.023
-383.975	800.000	0.039	0.208
-382.960	-140.516	0.157	0.021
-381.946	800.000	-0.043	0.167
-380.931	-200.000	0.012	-0.157
-379.917	421.056	0.081	-0.223
-378.902	-173.301	0.244	0.009
-377.888	-21.864	0.139	-0.108
-376.873	-76.948	0.344	0.153
-375.858	-65.355	-0.108	0.056
-374.844	108.618	0.205	0.315
-373.829	-60.853	0.270	0.146
-372.815	151.449	-0.322	0.564
-371.800	-129.650	0.133	0.023
-370.785	38.196	0.330	0.378
-369.771	190.286	-0.159	-0.307
-368.756	-142.408	0.278	0.035
-367.742	23.362	-0.268	0.283
-366.727	241.156	0.090	0.194
-365.712	-138.461	0.221	0.031
-364.698	-194.573	0.201	-0.002
-363.683	1.669	0.128	0.118
-362.669	-200.000	-0.028	0.507
-361.654	-154.097	0.448	-0.039
-360.639	174.218	-0.120	-0.224
-359.625	241.895	-0.097	0.209
-358.610	-45.769	0.083	0.053
-357.596	-84.552	-0.263	0.106
-356.581	-173.276	0.617	0.024
-355.566	-162.888	0.415	0.026
-354.552	293.509	-0.118	0.277
-353.537	-0.834	0.431	0.392
-352.523	-200.000	-0.027	0.273
-351.508	200.649	-0.078	-0.154
-350.493	-84.144	0.291	-0.118
-349.479	188.036	0.081	-0.156
-348.464	-27.570	0.099	0.074
-347.450	-109.515	-0.250	-0.067
-346.435	-72.373	-0.290	0.137
-345.420	-200.000	0.030	-0.213
-344.406	-72.452	0.143	0.068
-343.391	-47.321	-0.361	-0.225
-342.377	-10.709	-0.265	-0.225
-341.362	21.677	-0.382	-0.398
-340.348	-70.293	-0.249	0.121
-339.333	-53.314	0.412	-0.242
-338.318	367.615	0.031	0.080
-337.304	-200.000	0.039	-0.445
-336.289	-67.344	-0.365	0.183
-335.275	800.000	0.040	-0.155
-334.260	-113.092	-0.243	0.061
-333.245	163.063	0.207	-0.373
-332.231	-4.250	0.056	0.049
-331.216	-200.000	0.018	-0.614
-330.202	-78.476	-0.077	-0.034
-329.187	-18.748	0.132	-0.105
-328.172	-54.259	0.252	-0.146
-327.158	-200.000	0.001	0.050
-326.143	244.498	0.076	-0.165
-325.129	-124.727	-0.711	-0.140
-324.114	-58.941	-0.373	0.206
-323.099	-16.686	0.345	0.279
-322.085	164.146	0.072	-0.131
-321.070	800.000	0.066	0.249
-320.056	61.690	-0.136	-0.174
-319.041	-200.000	-0.028	-0.320
-318.026	84.554	-0.321	0.450
-317.012	-63.494	-0.395	-0.207
-315.997	800.000	-0.073	-0.393
-314.983	-104.356	0.167	0.049
-313.968	34.008	0.149	-0.166
-312.953	390.033	0.144	0.385
-311.939	49.182	-0.017	0.021
-310.924	-43.705	0.278	-0.179
-309.910	-54.993	-0.226	0.130
-308.895	19.384	0.466	0.479
-307.880	-90.669	-0.533	0.196
-306.866	258.024	-0.096	-0.212
-305.851	-200.000	0.010	-0.133
-304.837	-121.008	-0.542	-0.116
-303.822	460.840	-0.319	0.916
-302.807	-80.401	-0.289	0.123
-301.793	302.082	0.124	0.294
-300.778	42.431	0.110	-0.128
-299.764	-200.000	0.029	0.225
-298.749	-200.000	-0.000	-0.286
-297.735	526.500	0.089	-0.271
-296.720	800.000	-0.079	-0.324
-295.705	-30.091	0.180	0.131
-294.691	71.995	0.113	0.151
-293.676	-44.634	-0.575	-0.366
-292.662	-52.201	-0.463	-0.274
-291.647	-200.000	-0.056	0.649
-290.632	-200.000	-0.063	0.403
-289.618	369.553	-0.059	-0.155
-288.603	-200.000	0.001	0.323
-287.589	-123.444	0.134	-0.027
-286.574	-7.027	-0.466	0.405
-285.559	177.014	-0.245	-0.456
-284.545	-37.087	-0.247	0.169
-283.530	-200.000	-0.010	0.464
-282.516	-3.892	-0.500	0.443
-281.501	800.000	0.084	0.345
-280.486	-52.909	0.126	-0.074
-279.472	485.025	0.204	-0.597
-278.457	45.872	0.054	0.064
-277.443	-200.000	-0.001	-0.331
-276.428	-1.600	0.213	-0.192
-275.413	-28.805	-0.239	0.175
-274.399	-200.000	-0.006	0.192
-273.384	-110.156	-0.232	0.062
-272.370	-46.748	0.218	-0.136
-271.355	-200.000	0.031	-0.311
-270.340	-133.604	-0.254	0.040
-269.326	60.484	-0.389	-0.492
-268.311	-166.709	-0.139	0.007
-267.297	14.496	0.149	-0.148
-266.282	504.614	-0.244	-0.725
-265.267	-55.045	-0.299	-0.171
-264.253	159.168	-0.051	-0.091
-263.238	-200.000	-0.035	0.384
-262.224	128.232	-0.261	0.426
-261.209	800.000	0.123	0.652
-260.195	37.027	0.257	0.291
-259.180	-43.480	0.266	-0.171
-258.165	-7.886	-0.355	0.306
-257.151	-70.235	-0.942	0.455
-256.136	-200.000	-0.004	0.388
-255.122	-61.120	0.279	-0.150
-254.107	800.000	0.136	-0.705
-253.092	-60.084	0.329	-0.179
-252.078	800.000	0.071	0.370
-251.063	484.239	0.111	0.323
-250.049	-38.038	-0.321	0.217
-249.034	164.461	-0.143	-0.259
-248.019	-115.431	-0.524	-0.125
-247.005	83.290	0.239	0.333
-245.990	747.771	-0.115	0.399
-244.976	-200.000	-0.049	-0.555
-243.961	-91.114	-0.180	0.066
-242.946	-72.647	-0.136	-0.064
-241.932	100.365	0.178	-0.264
-240.917	-186.908	0.502	0.009
-239.903	-72.419	0.400	0.188
-238.888	41.427	0.020	0.023
-237.873	800.000	0.119	-0.670
-236.859	10.547	0.307	-0.299
-235.844	-156.854	-0.096	-0.007
-234.830	-75.624	-0.256	-0.115
-233.815	-75.142	0.375	-0.170
-232.800	53.885	0.488	0.599
-231.786	324.165	0.235	-0.574
-230.771	127.918	0.080	0.130
-229.757	197.087	-0.256	-0.501
-228.742	-47.747	0.198	-0.122
-227.727	-10.095	-0.324	-0.274
-226.713	-200.000	0.020	-0.126
-225.698	137.459	-0.021	-0.035
-224.684	-200.000	-0.006	0.250
-223.669	-107.861	0.195	0.054
-222.655	-200.000	-0.010	0.094
-221.640	800.000	-0.043	0.189
-220.625	-106.920	0.286	0.080
-219.611	800.000	-0.120	-0.674
-218.596	-34.850	-0.376	-0.261
-217.582	-200.000	-0.057	0.398
-216.567	155.076	0.076	-0.133
-215.552	-200.000	0.024	0.586
-214.538	77.179	-0.196	-0.266
-213.523	-46.220	0.236	0.148
-212.509	6.629	0.289	0.274
-211.494	-200.000	-0.005	0.154
-210.479	468.911	-0.105	0.302
-209.465	0.969	0.236	0.215
-208.450	150.883	-0.161	0.280
-207.436	-51.569	-0.239	-0.142
-206.421	-79.188	0.548	0.236
-205.406	-200.000	0.092	0.635
-204.392	-108.787	0.202	0.055
-203.377	800.000	0.058	-0.260
-202.363	140.909	0.128	0.216
-201.348	-52.102	0.488	0.288
-200.333	335.755	0.022	0.055
-199.319	655.431	-0.130	0.427
-198.304	-169.260	0.238	0.011
-197.290	370.576	0.067	0.175
-196.275	-37.870	0.459	-0.310
-195.260	372.373	-0.116	0.301
-194.246	-53.422	-0.541	0.315
-193.231	46.001	0.114	0.134
-192.217	-200.000	-0.004	-0.038
-191.202	-92.366	0.237	0.085
-190.187	-200.000	0.096	0.669
-189.173	33.465	-0.264	-0.293
-188.158	590.686	-0.040	0.127
-187.144	-56.080	-0.176	0.100
-186.129	-97.311	-0.344	-0.114
-185.114	-46.566	0.060	-0.038
-184.100	271.466	-0.203	-0.457
-183.085	155.991	0.268	-0.472
-182.071	-200.000	-0.069	-0.642
-181.056	196.280	0.008	0.015
-180.042	78.490	0.139	-0.189
-179.027	120.274	0.288	0.456
-178.012	208.829	-0.203	0.406
-176.998	-36.005	-0.101	-0.069
-175.983	484.749	0.222	-0.648
-174.969	270.018	0.257	0.578
-173.954	-88.067	0.266	0.101
-172.939	39.187	-0.271	0.309
-171.925	178.918	-0.242	-0.451
-170.910	-200.000	0.008	-0.096
-169.896	-140.147	-0.289	0.038
-168.881	-65.709	0.104	0.053
-167.866	-200.000	-0.010	-0.152
-166.852	-68.917	0.444	0.217
-165.837	251.840	0.169	-0.367
-164.823	-96.887	0.223	-0.074
-163.808	-46.800	0.038	0.023
-162.793	-200.000	-0.042	-0.600
-161.779	-115.176	0.454	-0.109
-160.764	-86.569	0.138	-0.054
-159.750	-200.000	0.016	0.180
-158.735	-77.953	-0.297	0.130
-157.720	-19.850	0.148	0.116
-156.706	332.880	0.087	-0.215
-155.691	-200.000	0.037	0.409
-154.677	800.000	-0.092	0.393
-153.662	185.782	0.220	-0.417
-152.647	-123.499	0.424	-0.085
-151.633	-200.000	-0.027	-0.501
-150.618	-21.626	-0.192	0.148
-149.604	-200.000	0.067	-0.568
-148.589	-98.963	0.333	0.107
-147.574	-25.003	-0.336	0.253
-146.560	477.920	-0.021	-0.062
-145.545	-113.794	0.605	-0.149
-144.531	800.000	-0.115	0.461
-143.516	-25.135	-0.137	0.103
-142.502	-140.661	0.266	0.035
-141.487	-22.761	-0.311	0.239
-140.472	110.108	0.300	0.458
-139.458	800.000	-0.059	0.228
-138.443	-13.460	0.120	0.099
-137.429	-70.961	0.396	-0.189
-136.414	46.805	-0.281	0.332
-135.399	-200.000	-0.012	0.110
-134.385	800.000	0.013	0.059
-133.370	283.119	0.073	0.167
-132.356	-141.724	-0.458	-0.058
-131.341	359.469	-0.125	0.320
-130.326	358.087	-0.086	-0.220
-129.312	-119.203	-0.496	-0.109
-128.297	-200.000	0.047	-0.412
-127.283	109.109	0.179	0.273
-126.268	-23.194	-0.156	0.119
-125.253	106.398	0.200	-0.302
-124.239	-59.279	0.487	0.266
-123.224	14.935	-0.279	-0.277
-122.210	548.101	-0.015	0.046
