DTS Sentinel unit serial number:	SN409020Multiplexer serial number:	ORYXHardware model number:	OX4-SRSoftware version number:	ORYX F/W v3.00 Oryx Data Collector v3.7.2.0data status	okinstallation	HaddamTimeLapsedifferential loss correction	single-endedforward channel	channel 3reverse channel	N/Adate	2011/06/22time	03:26:17forward acquisition time	30.00reverse acquisition time	0.00gamma	498.7831k internal	0.1751k external	0.1751temperature offset calibration	1.0074default loss term (dB/km)	0.3790temperature slope calibration	1.3530multiplexer offset coefficient	1.0000multiplexer slope coefficient	1.0000fibre end	0.00T internal ref (°C)	22.31T ext. ref 1 (°C)	17.85T ext. ref 2 (°C)	0.08length (m)	temperature (°C)	Stokes	anti-Stokes-747.200	-90.368	0.178	0.068
-746.185	111.397	0.136	0.218
-745.171	298.779	-0.103	-0.253
-744.156	-98.049	-0.056	0.019
-743.142	-73.023	-0.159	0.077
-742.127	-200.000	-0.011	-0.097
-741.112	-89.354	-0.380	0.148
-740.098	226.564	-0.076	0.164
-739.083	-89.765	-0.170	0.066
-738.069	-185.192	-0.678	-0.014
-737.054	800.000	0.049	-0.228
-736.039	22.371	-0.246	0.267
-735.025	-94.865	0.504	0.180
-734.010	115.289	0.223	0.363
-732.996	-35.501	0.274	-0.197
-731.981	-75.773	-0.393	0.184
-730.966	-119.204	-0.168	-0.039
-729.952	-43.840	-0.136	0.090
-728.937	613.532	-0.027	-0.090
-727.923	65.077	-0.200	0.268
-726.908	41.896	-0.181	-0.218
-725.894	-52.377	-0.499	0.305
-724.879	-58.324	-0.199	-0.114
-723.864	-80.292	0.160	-0.071
-722.850	-69.780	0.396	0.200
-721.835	-115.924	-0.053	0.013
-720.821	-76.039	-0.292	-0.136
-719.806	245.256	0.184	-0.413
-718.791	-200.000	0.018	-0.418
-717.777	-200.000	-0.016	0.215
-716.762	800.000	0.126	-0.547
-715.748	800.000	0.094	0.494
-714.733	289.682	0.051	0.124
-713.718	-70.246	0.294	-0.148
-712.704	-200.000	0.024	0.145
-711.689	-200.000	0.067	0.754
-710.675	205.712	0.055	-0.115
-709.660	-25.243	-0.629	-0.493
-708.645	-152.643	-0.262	-0.025
-707.631	-136.075	-0.188	0.029
-706.616	-76.260	0.132	-0.061
-705.602	-92.653	-0.166	0.061
-704.587	-10.106	0.146	0.129
-703.572	-172.631	-0.270	-0.011
-702.558	-6.724	-0.171	-0.154
-701.543	103.010	0.116	-0.180
-700.529	-72.414	0.310	0.152
-699.514	62.577	-0.196	-0.260
-698.499	22.421	0.105	0.114
-697.485	-200.000	-0.061	-0.391
-696.470	-177.658	0.239	-0.008
-695.456	37.084	0.181	-0.213
-694.441	-72.627	0.173	-0.084
-693.426	-85.552	0.245	0.100
-692.412	-176.772	-0.153	-0.005
-691.397	800.000	-0.077	0.320
-690.383	-69.093	0.133	0.068
-689.368	42.818	-0.176	-0.213
-688.354	-17.680	0.230	0.191
-687.339	287.869	-0.253	-0.608
-686.324	-108.167	0.400	-0.114
-685.310	138.543	-0.046	0.080
-684.295	48.321	-0.076	-0.095
-683.281	-88.192	-0.247	-0.097
-682.266	-168.773	0.488	-0.024
-681.251	267.992	-0.105	0.246
-680.237	800.000	0.029	0.169
-679.222	-116.314	-0.171	-0.042
-678.208	-135.374	0.312	-0.049
-677.193	75.126	-0.160	-0.224
-676.178	800.000	0.053	0.196
-675.164	-53.044	0.231	-0.140
-674.149	277.841	0.209	0.496
-673.135	-63.552	-0.363	-0.197
-672.120	-200.000	0.020	-0.142
-671.105	-83.278	0.290	-0.123
-670.091	-200.000	-0.003	-0.604
-669.076	-200.000	-0.030	-0.590
-668.062	-76.751	-0.183	0.085
-667.047	121.987	0.140	0.232
-666.032	-200.000	-0.016	-0.423
-665.018	-19.958	0.507	-0.414
-664.003	523.143	0.149	0.465
-662.989	-146.218	-0.141	0.016
-661.974	-146.478	0.357	0.041
-660.959	-17.514	-0.283	-0.235
-659.945	-49.737	-0.352	-0.221
-658.930	-26.267	0.341	0.265
-657.916	-112.752	0.426	-0.111
-656.901	-109.406	0.449	0.125
-655.886	-89.325	0.402	-0.156
-654.872	154.955	-0.185	-0.338
-653.857	-59.475	-0.296	0.168
-652.843	-49.454	0.587	0.370
-651.828	-200.000	-0.008	-0.303
-650.814	146.953	-0.088	-0.157
-649.799	-49.840	0.125	-0.079
-648.784	-197.486	0.211	-0.002
-647.770	104.503	-0.150	0.234
-646.755	-109.361	-0.141	-0.039
-645.741	58.882	-0.339	-0.441
-644.726	181.502	-0.174	-0.339
-643.711	-123.349	-0.353	0.074
-642.697	206.834	-0.200	0.413
-641.682	-122.835	0.179	-0.038
-640.668	-200.000	0.012	-0.319
-639.653	-160.245	-0.616	-0.043
-638.638	-127.631	0.337	0.064
-637.624	-72.016	-0.085	-0.042
-636.609	-140.760	0.203	-0.027
-635.595	-98.761	0.140	-0.047
-634.580	23.536	-0.246	-0.268
-633.565	800.000	-0.017	0.086
-632.551	-126.038	-0.234	0.046
-631.536	74.444	0.274	0.382
-630.522	-67.834	0.395	0.204
-629.507	-188.418	0.144	0.002
-628.492	188.854	-0.226	0.448
-627.478	800.000	-0.047	-0.264
-626.463	190.251	0.169	-0.336
-625.449	-100.443	-0.138	-0.045
-624.434	-200.000	-0.015	0.186
-623.419	-115.838	0.058	-0.014
-622.405	271.879	-0.152	-0.355
-621.390	800.000	0.046	0.183
-620.376	-135.693	-0.136	0.021
-619.361	-85.409	-0.304	-0.125
-618.346	298.921	0.126	-0.309
-617.332	-34.482	0.486	0.351
-616.317	269.148	-0.063	0.147
-615.303	800.000	0.050	-0.263
-614.288	726.978	-0.125	0.442
-613.273	-20.012	0.215	-0.175
-612.259	-18.220	0.095	0.078
-611.244	-41.781	-0.112	-0.076
-610.230	376.212	0.156	-0.424
-609.215	204.753	0.232	0.477
-608.201	800.000	0.076	-0.292
-607.186	-200.000	0.035	0.237
-606.171	183.011	-0.065	-0.127
-605.157	-11.722	0.226	0.196
-604.142	647.929	0.159	0.541
-603.128	-82.003	-0.563	0.242
-602.113	-200.000	-0.018	0.288
-601.098	67.349	-0.249	0.337
-600.084	800.000	0.142	0.599
-599.069	427.572	-0.184	-0.528
-598.055	47.160	0.101	-0.125
-597.040	38.968	0.240	0.283
-596.025	-169.281	0.246	0.012
-595.011	115.865	-0.043	0.069
-593.996	-200.000	0.007	0.081
-592.982	40.523	0.343	0.408
-591.967	14.688	0.223	0.230
-590.952	-12.451	0.375	-0.323
-589.938	800.000	-0.056	-0.256
-588.923	-122.154	-0.630	0.135
-587.909	33.546	-0.122	-0.140
-586.894	-196.177	-0.372	0.003
-585.879	-96.096	0.228	0.080
-584.865	4.558	0.413	0.400
-583.850	406.904	0.106	-0.296
-582.836	172.617	-0.229	0.437
-581.821	-100.451	-0.125	-0.041
-580.806	579.480	0.091	0.295
-579.792	-89.215	-0.462	0.179
-578.777	-200.000	-0.035	0.234
-577.763	-79.732	0.084	0.037
-576.748	-200.000	-0.019	0.157
-575.733	292.950	0.137	0.331
-574.719	-139.983	0.724	0.100
-573.704	522.225	-0.115	-0.359
-572.690	378.883	0.099	-0.269
-571.675	624.426	-0.216	-0.722
-570.661	209.983	-0.029	0.061
-569.646	-75.596	0.240	-0.112
-568.631	107.473	-0.249	-0.392
-567.617	6.085	0.152	0.149
-566.602	-63.356	0.277	-0.150
-565.588	-72.745	-0.567	-0.274
-564.573	-200.000	0.010	0.196
-563.558	-168.243	-0.178	-0.009
-562.544	-66.572	0.410	-0.214
-561.529	158.542	0.210	-0.385
-560.515	20.120	-0.289	-0.308
-559.500	-67.648	-0.345	-0.178
-558.485	800.000	0.058	0.268
-557.471	-21.416	0.104	0.084
-556.456	-200.000	0.020	0.268
-555.442	-186.023	-0.110	0.002
-554.427	-200.000	0.007	0.448
-553.412	-111.126	0.141	-0.038
-552.398	-168.250	-0.142	0.007
-551.383	-200.000	-0.018	0.147
-550.369	-53.517	-0.123	-0.074
-549.354	8.823	0.104	0.103
-548.339	215.316	-0.073	0.153
-547.325	-43.072	-0.368	0.245
-546.310	53.432	0.252	-0.319
-545.296	23.368	-0.213	-0.231
-544.281	-85.122	-0.210	0.086
-543.266	73.243	-0.103	0.143
-542.252	40.134	0.201	0.239
-541.237	800.000	-0.057	0.226
-540.223	-109.736	0.406	-0.112
-539.208	-16.658	-0.283	-0.236
-538.193	-130.766	0.303	0.053
-537.179	-200.000	-0.122	0.889
-536.164	-88.572	-0.144	0.056
-535.150	-18.617	-0.225	-0.185
-534.135	268.082	-0.324	-0.750
-533.121	420.463	-0.102	-0.290
-532.106	-154.115	-0.279	0.025
-531.091	-125.423	-0.404	-0.080
-530.077	172.114	-0.156	0.296
-529.062	-102.368	0.537	-0.169
-528.048	-3.676	0.107	0.098
-527.033	-75.913	-0.348	0.161
-526.018	115.136	0.139	-0.224
-525.004	-122.390	0.434	0.092
-523.989	-176.504	-0.105	0.003
-522.975	15.561	-0.230	-0.238
-521.960	228.557	-0.028	0.059
-520.945	-70.948	0.126	0.062
-519.931	-200.000	-0.053	0.409
-518.916	-2.388	0.313	-0.288
-517.902	-200.000	-0.026	-0.274
-516.887	-200.000	0.022	-0.231
-515.872	237.702	0.086	-0.189
-514.858	11.289	-0.023	-0.024
-513.843	50.357	0.115	-0.143
-512.829	-135.877	0.212	-0.033
-511.814	-97.882	0.459	-0.155
-510.799	-7.846	-0.221	0.196
-509.785	124.964	-0.113	0.188
-508.770	-106.340	0.168	-0.049
-507.756	-200.000	0.002	0.072
-506.741	-200.000	-0.026	-0.285
-505.726	-200.000	-0.016	-0.335
-504.712	-18.755	-0.033	-0.027
-503.697	319.411	0.122	0.305
-502.683	-200.000	0.016	-0.281
-501.668	-200.000	0.022	-0.482
-500.653	126.521	-0.283	-0.473
-499.639	-120.064	-0.278	-0.062
-498.624	-64.362	0.073	0.039
-497.610	124.849	-0.117	-0.194
-496.595	-53.355	-0.056	0.033
-495.581	180.211	0.155	0.301
-494.566	-120.364	0.064	0.014
-493.551	49.063	-0.092	-0.113
-492.537	-200.000	-0.046	-0.431
-491.522	124.892	-0.111	0.185
-490.508	341.996	-0.121	0.313
-489.493	-51.864	0.428	0.261
-488.478	-139.418	0.153	-0.021
-487.464	-134.224	-0.316	-0.051
-486.449	-62.378	0.300	0.163
-485.435	-164.925	0.619	-0.036
-484.420	-125.169	-0.347	0.069
-483.405	15.495	0.031	-0.032
-482.391	83.400	0.098	-0.141
-481.376	-200.000	-0.008	-0.376
-480.362	-153.459	0.286	-0.026
-479.347	-104.640	0.202	-0.061
-478.332	711.225	0.011	-0.037
-477.318	-11.776	0.156	0.134
-476.303	-175.086	-0.650	0.023
-475.289	210.007	-0.203	-0.420
-474.274	51.763	0.275	-0.345
-473.259	142.492	-0.075	-0.132
-472.245	389.582	0.156	0.426
-471.230	-200.000	0.565	0.002
-470.216	-90.791	-0.578	-0.218
-469.201	266.094	-0.163	0.375
-468.186	49.281	-0.426	0.527
-467.172	24.928	-0.180	0.196
-466.157	-112.122	-0.295	-0.077
-465.143	-153.466	-0.657	-0.059
-464.128	29.367	-0.173	0.193
-463.113	800.000	-0.008	-0.032
-462.099	88.407	0.113	-0.165
-461.084	-59.323	-0.424	-0.239
-460.070	-158.549	0.262	0.020
-459.055	55.586	0.149	0.189
-458.040	-47.966	-0.344	0.218
-457.026	-127.410	-0.526	-0.100
-456.011	-164.896	-0.301	0.017
-454.997	34.425	0.310	0.355
-453.982	-166.207	-0.216	0.012
-452.968	-171.601	-0.136	0.006
-451.953	20.836	-0.251	0.267
-450.938	-103.380	0.287	0.088
-449.924	137.808	-0.027	0.046
-448.909	239.882	-0.184	0.403
-447.895	-132.895	0.220	-0.036
-446.880	-98.494	0.082	-0.027
-445.865	108.267	-0.198	-0.311
-444.851	-69.577	-0.021	0.010
-443.836	-50.407	0.346	-0.214
-442.822	-199.574	0.169	-0.001
-441.807	-113.624	0.232	-0.059
-440.792	-53.315	0.382	0.229
-439.778	-21.499	0.521	0.417
-438.763	-186.786	0.090	-0.002
-437.749	-200.000	0.515	0.002
-436.734	-47.588	0.103	-0.065
-435.719	-200.000	0.038	0.000
-434.705	-200.000	0.018	0.293
-433.690	-21.213	-0.023	0.018
-432.676	-63.815	0.375	-0.201
-431.661	202.704	-0.113	-0.230
-430.646	115.068	0.275	-0.442
-429.632	-25.447	0.552	-0.427
-428.617	-150.516	0.490	0.049
-427.603	-200.000	-0.027	0.219
-426.588	43.209	0.257	0.308
-425.573	-200.000	-0.038	0.278
-424.559	-6.178	0.169	0.151
-423.544	-200.000	-0.002	0.103
-422.530	-88.425	-0.419	0.163
-421.515	-62.973	-0.090	0.049
-420.500	-186.837	-0.480	0.009
-419.486	-141.734	-0.137	-0.018
-418.471	-180.030	-0.480	-0.013
-417.457	595.042	0.151	-0.492
-416.442	189.051	-0.020	-0.040
-415.428	-170.030	-0.325	0.015
-414.413	800.000	0.007	0.036
-413.398	-156.671	-0.217	-0.017
-412.384	-66.943	-0.068	0.035
-411.369	-200.000	0.074	0.632
-410.355	-86.721	-0.287	-0.115
-409.340	618.602	-0.071	-0.235
-408.325	51.502	0.100	0.125
-407.311	800.000	-0.028	-0.115
-406.296	-155.970	0.293	0.024
-405.282	-39.577	-0.101	-0.069
-404.267	-174.003	-0.217	-0.008
-403.252	299.094	-0.099	0.241
-402.238	-200.000	-0.007	-0.060
-401.223	-163.409	-0.477	-0.029
-400.209	-200.000	-0.060	-0.417
-399.194	-110.412	0.161	0.043
-398.179	145.742	0.224	-0.394
-397.165	800.000	-0.065	-0.251
-396.150	177.674	-0.247	-0.474
-395.136	-179.664	0.202	-0.006
-394.121	-55.393	-0.409	-0.239
-393.106	27.992	-0.221	-0.244
-392.092	-86.576	-0.753	0.301
-391.077	-200.000	-0.040	0.312
-390.063	-75.506	0.320	0.149
-389.048	-76.216	-0.049	0.023
-388.033	-200.000	0.105	-0.650
-387.019	101.282	-0.220	0.336
-386.004	-200.000	0.087	0.504
-384.990	-20.884	-0.012	-0.010
-383.975	595.794	-0.102	0.333
-382.960	800.000	-0.036	-0.168
-381.946	-134.244	0.279	0.045
-380.931	-61.262	0.209	0.115
-379.917	800.000	-0.064	0.264
-378.902	48.946	0.187	-0.230
-377.888	27.340	0.201	0.221
-376.873	-65.217	0.246	0.129
-375.858	-111.238	-0.296	0.079
-374.844	-117.052	-0.086	-0.020
-373.829	31.596	0.268	-0.301
-372.815	304.740	-0.226	0.551
-371.800	35.464	-0.134	-0.154
-370.785	33.815	0.384	0.437
-369.771	800.000	-0.095	0.473
-368.756	302.296	0.050	0.122
-367.742	-77.346	0.244	0.110
-366.727	800.000	-0.031	0.152
-365.712	48.080	0.184	0.225
-364.698	-105.326	0.276	0.082
-363.683	-59.582	-0.222	0.124
-362.669	-99.061	0.218	-0.072
-361.654	157.090	-0.139	0.252
-360.639	133.428	0.109	-0.184
-359.625	-154.418	0.223	0.019
-358.610	-196.554	0.416	0.004
-357.596	10.403	-0.139	-0.138
-356.581	431.897	0.106	0.303
-355.566	800.000	0.127	-0.623
-354.552	696.756	0.076	0.262
-353.537	5.200	0.239	-0.230
-352.523	-82.227	0.134	0.057
-351.508	800.000	0.022	-0.082
-350.493	33.021	-0.100	0.114
-349.479	-50.918	0.090	-0.055
-348.464	175.475	0.133	-0.253
-347.450	-200.000	-0.023	-0.511
-346.435	152.781	-0.099	0.177
-345.420	-38.305	-0.339	0.234
-344.406	-200.000	-0.010	-0.146
-343.391	-64.436	0.182	-0.097
-342.377	-90.694	-0.229	0.086
-341.362	0.320	-0.241	-0.225
-340.348	-103.506	-0.288	0.088
-339.333	-105.112	0.340	0.101
-338.318	-77.035	-0.588	0.267
-337.304	-131.445	0.306	-0.052
-336.289	87.431	0.304	-0.441
-335.275	-200.000	-0.067	-0.476
-334.260	174.219	0.138	-0.262
-333.245	-133.419	-0.563	-0.092
-332.231	160.418	-0.167	0.305
-331.216	-134.601	-0.300	-0.047
-330.202	-200.000	-0.026	0.291
-329.187	-83.203	-0.557	0.233
-328.172	-58.754	0.276	-0.156
-327.158	-57.573	-0.293	0.167
-326.143	-121.383	0.076	0.016
-325.129	-75.812	0.457	0.211
-324.114	562.078	0.126	-0.401
-323.099	-145.131	0.062	0.007
-322.085	800.000	0.078	-0.434
-321.070	-50.114	-0.252	0.156
-320.056	-42.635	0.093	0.061
-319.041	-139.837	-0.211	0.029
-318.026	54.783	0.125	-0.158
-317.012	-79.111	0.455	-0.201
-315.997	-17.008	0.279	-0.230
-314.983	800.000	0.061	0.281
-313.968	-52.615	0.165	-0.100
-312.953	-50.112	0.137	0.084
-311.939	-200.000	-0.017	0.121
-310.924	-109.515	-0.149	0.041
-309.910	-152.115	0.284	-0.027
-308.895	-9.462	-0.066	0.058
-307.880	-50.822	-0.283	-0.173
-306.866	-25.055	-0.133	0.103
-305.851	430.633	-0.094	0.268
-304.837	-16.568	0.287	-0.237
-303.822	-200.000	-0.017	-0.543
-302.807	18.634	-0.308	0.322
-301.793	184.758	-0.134	0.261
-300.778	-104.502	-0.567	-0.170
-299.764	-27.527	-0.301	0.228
-298.749	-200.000	-0.017	0.479
-297.735	20.885	0.474	-0.501
-296.720	-58.323	-0.028	-0.016
-295.705	-200.000	0.024	0.288
-294.691	-130.553	0.465	-0.081
-293.676	443.059	-0.039	0.113
-292.662	-117.715	-0.204	-0.048
-291.647	-24.727	-0.240	0.186
-290.632	-174.517	0.421	-0.015
-289.618	-100.673	0.294	0.094
-288.603	124.754	0.129	0.212
-287.589	-76.285	-0.239	-0.109
-286.574	57.033	-0.200	-0.255
-285.559	800.000	0.048	0.235
-284.545	789.150	0.106	0.382
-283.530	44.726	0.224	0.269
-282.516	800.000	-0.051	-0.210
-281.501	-55.991	-0.348	-0.202
-280.486	-200.000	0.015	-0.101
-279.472	57.607	-0.103	0.132
-278.457	-72.447	-0.116	0.056
-277.443	-141.997	0.360	-0.046
-276.428	241.257	0.100	-0.219
-275.413	-98.343	-0.333	0.111
-274.399	-143.410	0.167	-0.021
-273.384	185.325	0.333	-0.647
-272.370	7.952	-0.088	0.086
-271.355	-200.000	0.045	0.413
-270.340	143.956	-0.052	-0.090
-269.326	-57.246	-0.425	0.243
-268.311	-118.343	-0.426	-0.098
-267.297	-38.262	0.217	0.150
-266.282	30.389	0.234	0.261
-265.267	-200.000	0.037	0.311
-264.253	-36.943	0.251	-0.175
-263.238	157.546	-0.250	-0.453
-262.224	-30.997	0.226	-0.166
-261.209	-195.682	-0.138	0.001
-260.195	-142.793	-0.271	-0.034
-259.180	800.000	-0.080	0.405
-258.165	-106.908	0.356	0.102
-257.151	-109.684	-0.153	0.042
-256.136	-97.831	0.068	0.023
-255.122	-64.455	0.183	0.096
-254.107	20.676	-0.307	0.323
-253.092	-66.548	0.402	0.207
-252.078	236.826	0.127	0.275
-251.063	-166.183	-0.545	0.030
-250.049	248.373	0.106	-0.235
-249.034	73.301	-0.140	0.191
-248.019	11.771	0.181	-0.181
-247.005	-98.311	-0.278	0.092
-245.990	-200.000	0.049	0.315
-244.976	-105.586	0.429	-0.126
-243.961	90.258	0.077	0.112
-242.946	-7.327	0.169	-0.149
-241.932	203.441	-0.247	-0.500
-240.917	154.949	0.286	-0.514
-239.903	48.050	-0.381	0.464
-238.888	-145.702	-0.231	-0.027
-237.873	346.544	0.021	-0.054
-236.859	58.257	-0.185	0.236
-235.844	291.783	0.174	0.415
-234.830	-53.650	-0.238	-0.141
-233.815	123.037	0.148	-0.241
-232.800	-113.866	-0.155	0.039
-231.786	-18.919	0.051	0.042
-230.771	8.195	-0.247	-0.241
-229.757	635.575	-0.073	0.241
-228.742	-179.052	-0.314	0.009
-227.727	-200.000	0.006	-0.316
-226.713	-20.254	0.088	0.070
-225.698	-170.930	-0.282	-0.012
-224.684	266.494	0.105	0.239
-223.669	-200.000	0.004	-0.115
-222.655	125.439	0.140	-0.231
-221.640	-126.160	-0.055	0.011
-220.625	800.000	0.087	0.355
-219.611	521.515	-0.065	-0.201
-218.596	-58.429	-0.129	0.072
-217.582	102.626	-0.199	-0.304
-216.567	142.516	0.317	-0.549
-215.552	-60.017	0.308	0.171
-214.538	141.791	-0.252	-0.435
-213.523	800.000	0.072	-0.351
-212.509	733.470	0.070	0.246
-211.494	82.146	0.113	-0.159
-210.479	-58.691	-0.127	0.071
-209.465	-74.115	0.217	-0.102
-208.450	-40.441	0.136	0.092
-207.436	-114.977	-0.252	0.062
-206.421	-133.100	-0.547	0.089
-205.406	-200.000	0.032	-0.311
-204.392	-85.216	0.562	-0.228
-203.377	-187.972	0.178	-0.003
-202.363	-84.375	0.092	-0.038
-201.348	-8.455	-0.117	0.102
-200.333	-64.812	-0.192	0.101
-199.319	-76.462	0.255	-0.116
-198.304	-132.296	-0.363	-0.060
-197.290	154.308	-0.176	-0.314
-196.275	-200.000	0.003	0.134
-195.260	800.000	-0.106	-0.432
-194.246	-200.000	-0.038	-0.223
-193.231	-117.741	-0.246	0.057
-192.217	-64.073	0.263	-0.139
-191.202	-2.288	-0.118	-0.107
-190.187	425.584	0.089	-0.252
-189.173	-100.967	0.140	-0.044
-188.158	-114.839	0.327	-0.080
-187.144	-81.153	0.327	0.140
-186.129	-200.000	0.016	-0.402
-185.114	-33.893	-0.366	0.261
-184.100	800.000	-0.068	0.354
-183.085	-141.785	0.196	0.025
-182.071	263.945	-0.118	0.268
-181.056	-113.219	-0.356	-0.090
-180.042	513.110	-0.162	-0.494
-179.027	800.000	0.053	-0.241
-178.012	-87.969	0.069	-0.027
-176.998	-73.025	0.089	-0.042
-175.983	-70.151	-0.153	0.075
-174.969	-87.171	-0.491	0.193
-173.954	-200.000	0.065	0.420
-172.939	-39.703	-0.113	-0.076
-171.925	-160.555	0.245	0.017
-170.910	-200.000	-0.051	-0.570
-169.896	299.086	-0.083	-0.199
-168.881	-152.076	0.149	0.014
-167.866	-24.155	0.280	-0.217
-166.852	106.173	-0.086	-0.132
-165.837	-1.821	-0.171	-0.156
-164.823	28.940	0.460	-0.506
-163.808	-200.000	-0.019	0.142
-162.793	800.000	-0.034	0.140
-161.779	-34.544	0.242	-0.172
-160.764	-156.326	-0.425	0.034
-159.750	157.044	0.222	0.400
-158.735	49.097	0.291	0.355
-157.720	-63.172	0.498	0.266
-156.706	-63.853	0.538	-0.285
-155.691	-85.092	0.126	0.051
-154.677	-191.859	-0.249	-0.003
-153.662	-157.828	0.376	-0.029
-152.647	-43.427	0.295	0.193
-151.633	318.713	0.143	0.353
-150.618	-93.899	0.438	-0.156
-149.604	-114.131	0.415	0.103
-148.589	34.579	0.191	0.216
-147.574	203.740	-0.121	0.244
-146.560	-85.969	0.262	-0.105
-145.545	-200.000	-0.011	0.131
-144.531	-200.000	0.043	0.329
-143.516	-200.000	0.011	0.166
-142.502	800.000	0.057	0.288
-141.487	-145.854	-0.489	-0.056
-140.472	407.523	-0.010	-0.028
-139.458	-200.000	-0.017	0.179
-138.443	-84.673	0.042	-0.017
-137.429	-121.144	0.189	-0.041
-136.414	-150.216	-0.280	-0.028
-135.399	-124.155	0.608	0.123
-134.385	-200.000	-0.083	-0.952
-133.370	-31.668	0.208	-0.151
-132.356	-136.171	0.427	0.064
-131.341	-119.095	0.255	0.057
-130.326	319.980	-0.103	-0.254
-129.312	-43.371	-0.161	0.105
-128.297	-91.284	0.307	0.113
-127.283	-200.000	-0.019	0.201
-126.268	367.387	0.230	-0.606
-125.253	-122.794	-0.342	-0.071
-124.239	111.902	-0.195	0.307
-123.224	345.776	0.212	0.542
