DTS Sentinel unit serial number:	SN409020Multiplexer serial number:	ORYXHardware model number:	OX4-SRSoftware version number:	ORYX F/W v3.00 Oryx Data Collector v3.7.2.0data status	okinstallation	HaddamTimeLapsedifferential loss correction	single-endedforward channel	channel 3reverse channel	N/Adate	2011/06/22time	09:16:16forward acquisition time	30.00reverse acquisition time	0.00gamma	498.7831k internal	0.1795k external	0.1795temperature offset calibration	1.0074default loss term (dB/km)	0.3790temperature slope calibration	1.3530multiplexer offset coefficient	1.0000multiplexer slope coefficient	1.0000fibre end	0.00T internal ref (°C)	27.78T ext. ref 1 (°C)	23.30T ext. ref 2 (°C)	0.17length (m)	temperature (°C)	Stokes	anti-Stokes-747.200	-60.560	-0.330	-0.181
-746.185	800.000	-0.037	0.150
-745.171	7.038	-0.210	0.203
-744.156	-200.000	-0.035	0.249
-743.142	-0.355	-0.076	-0.070
-742.127	800.000	-0.115	0.421
-741.112	-200.000	-0.009	-0.136
-740.098	-152.169	0.547	0.051
-739.083	49.689	-0.281	-0.343
-738.069	599.122	0.074	0.238
-737.054	-12.480	-0.290	0.245
-736.039	-190.956	-0.595	-0.008
-735.025	-103.735	0.462	0.139
-734.010	294.826	0.182	-0.432
-732.996	-109.281	-0.158	-0.043
-731.981	-200.000	0.040	0.260
-730.966	-38.894	0.545	0.371
-729.952	-83.512	0.338	0.139
-728.937	-193.652	-0.312	-0.003
-727.923	43.563	0.080	-0.094
-726.908	58.123	-0.139	-0.177
-725.894	-100.351	-0.496	-0.158
-724.879	800.000	-0.045	-0.256
-723.864	162.564	-0.285	0.519
-722.850	135.472	-0.229	0.386
-721.835	-118.533	-0.666	0.151
-720.821	19.938	0.110	0.115
-719.806	-106.741	0.436	-0.124
-718.791	65.876	-0.188	0.247
-717.777	114.934	-0.315	0.498
-716.762	213.882	-0.209	0.428
-715.748	132.479	0.280	0.468
-714.733	4.306	0.205	0.194
-713.718	-93.192	-0.459	0.164
-712.704	-200.000	-0.026	0.232
-711.689	-83.433	-0.186	-0.077
-710.675	62.587	0.123	-0.160
-709.660	540.404	-0.086	-0.267
-708.645	64.740	-0.147	0.192
-707.631	146.234	-0.177	0.308
-706.616	-12.318	0.068	-0.058
-705.602	-200.000	-0.023	-0.590
-704.587	160.455	-0.185	-0.335
-703.572	-116.681	0.254	0.060
-702.558	36.195	-0.199	0.227
-701.543	-94.804	0.476	0.166
-700.529	-200.000	0.079	0.783
-699.514	50.204	0.336	0.411
-698.499	-200.000	0.074	0.540
-697.485	-76.833	-0.366	0.165
-696.470	-21.380	-0.138	0.108
-695.456	-97.766	0.467	0.155
-694.441	-31.137	0.485	-0.353
-693.426	-104.757	0.304	0.090
-692.412	-200.000	-0.017	-0.378
-691.397	-124.307	-0.073	-0.015
-690.383	-169.664	-0.231	0.011
-689.368	260.366	-0.170	0.381
-688.354	-109.884	-0.453	0.122
-687.339	-110.531	0.170	0.045
-686.324	164.295	-0.189	-0.345
-685.310	413.785	-0.039	-0.108
-684.295	-5.659	-0.158	-0.140
-683.281	154.944	-0.040	0.071
-682.266	-11.580	-0.244	0.207
-681.251	-91.055	0.438	-0.162
-680.237	-58.080	-0.291	0.164
-679.222	-20.051	-0.450	-0.358
-678.208	113.091	-0.081	-0.127
-677.193	121.996	-0.079	0.128
-676.178	-54.649	-0.370	0.215
-675.164	-74.281	0.314	0.146
-674.149	-20.865	-0.224	-0.177
-673.135	-29.268	-0.070	-0.052
-672.120	-31.309	-0.154	-0.112
-671.105	-133.300	-0.147	-0.024
-670.091	-29.694	-0.317	0.234
-669.076	-7.374	-0.328	0.286
-668.062	702.753	-0.073	0.250
-667.047	-101.294	-0.243	-0.076
-666.032	85.771	0.039	0.055
-665.018	-170.924	-0.274	0.012
-664.003	-84.007	-0.161	0.066
-662.989	701.473	-0.133	0.456
-661.974	54.567	-0.301	-0.375
-660.959	-66.352	-0.600	-0.307
-659.945	14.303	-0.198	-0.199
-658.930	800.000	-0.036	-0.173
-657.916	723.415	-0.132	-0.455
-656.901	28.540	-0.104	-0.113
-655.886	-200.000	0.035	-0.314
-654.872	-63.309	-0.428	0.227
-653.857	-200.000	-0.011	0.087
-652.843	800.000	0.097	0.393
-651.828	-94.530	-0.178	-0.062
-650.814	128.737	-0.213	0.352
-649.799	-99.493	-0.071	0.023
-648.784	800.000	0.058	-0.299
-647.770	47.575	0.405	0.488
-646.755	52.682	-0.132	-0.163
-645.741	-65.018	0.147	0.076
-644.726	-65.800	0.044	0.023
-643.711	103.617	-0.145	-0.221
-642.697	413.062	-0.102	-0.280
-641.682	622.660	0.064	-0.210
-640.668	-132.770	0.406	-0.066
-639.653	254.335	-0.306	0.677
-638.638	182.690	0.050	0.096
-637.624	800.000	0.110	-0.484
-636.609	-39.542	-0.476	-0.321
-635.595	748.738	-0.079	-0.278
-634.580	-200.000	-0.029	-0.355
-633.565	-200.000	0.001	-0.127
-632.551	800.000	0.027	0.118
-631.536	-200.000	0.025	-0.524
-630.522	561.412	-0.240	-0.751
-629.507	800.000	0.141	0.576
-628.492	-85.567	0.359	0.143
-627.478	800.000	0.120	-0.459
-626.463	371.305	-0.102	-0.267
-625.449	48.841	-0.227	-0.275
-624.434	-70.459	-0.472	-0.230
-623.419	54.970	-0.142	-0.177
-622.405	800.000	-0.043	-0.202
-621.390	800.000	-0.070	-0.348
-620.376	324.218	-0.077	0.190
-619.361	662.176	0.080	0.267
-618.346	69.008	0.208	0.276
-617.332	0.626	0.215	-0.198
-616.317	-200.000	-0.024	0.211
-615.303	-113.448	-0.224	-0.056
-614.288	291.788	-0.139	-0.329
-613.273	-81.726	0.396	0.166
-612.259	48.735	-0.094	-0.114
-611.244	2.167	-0.138	0.128
-610.230	-96.021	0.483	-0.165
-609.215	58.181	0.275	0.348
-608.201	-1.715	0.248	0.225
-607.186	-200.000	0.007	0.086
-606.171	51.304	0.148	-0.181
-605.157	81.245	0.180	-0.252
-604.142	286.355	-0.098	0.228
-603.128	-89.424	-0.344	0.130
-602.113	635.252	-0.091	0.299
-601.098	-179.707	-0.190	0.005
-600.084	-84.768	0.101	0.041
-599.069	-115.249	0.108	0.026
-598.055	-147.002	-0.279	0.030
-597.040	-200.000	-0.061	0.443
-596.025	-81.580	-0.233	0.098
-595.011	800.000	0.070	-0.350
-593.996	-56.446	-0.637	-0.363
-592.982	30.283	-0.263	-0.290
-591.967	-151.281	0.205	0.019
-590.952	-98.897	-0.492	0.160
-589.938	-85.384	0.303	-0.121
-588.923	30.247	0.187	0.205
-587.909	-108.681	-0.372	0.102
-586.894	45.242	0.055	0.065
-585.879	22.878	0.397	0.419
-584.865	52.353	0.135	-0.166
-583.850	330.100	-0.109	-0.271
-582.836	72.769	0.257	-0.345
-581.821	-17.225	-0.205	-0.166
-580.806	252.110	-0.039	-0.086
-579.792	-97.036	0.892	-0.299
-578.777	-23.902	-0.582	-0.448
-577.763	-101.138	-0.201	-0.063
-576.748	180.810	-0.083	-0.158
-575.733	-138.416	-0.158	-0.022
-574.719	-200.000	-0.012	-0.067
-573.704	-10.215	0.250	0.213
-572.690	-39.846	0.117	0.078
-571.675	-19.044	-0.464	0.371
-570.661	-62.456	-0.034	0.018
-569.646	-94.401	-0.093	-0.033
-568.631	-41.129	-0.255	-0.169
-567.617	-128.688	-0.173	0.031
-566.602	-105.373	-0.521	-0.151
-565.588	105.687	-0.132	-0.202
-564.573	137.401	0.161	0.271
-563.558	79.029	0.516	0.712
-562.544	28.024	-0.222	0.241
-561.529	95.193	0.080	0.117
-560.515	-72.235	-0.149	0.071
-559.500	70.690	0.246	0.328
-558.485	26.127	0.140	0.151
-557.471	-44.429	0.227	-0.146
-556.456	194.022	-0.208	-0.406
-555.442	104.538	-0.092	0.140
-554.427	-76.598	0.230	0.103
-553.412	-154.702	0.289	0.024
-552.398	-112.661	-0.019	0.005
-551.383	-60.525	0.452	-0.246
-550.369	4.508	-0.242	-0.228
-549.354	615.709	0.007	0.024
-548.339	693.139	0.131	0.443
-547.325	-69.499	-0.288	0.141
-546.310	163.515	-0.140	0.253
-545.296	-200.000	0.023	-0.151
-544.281	-185.887	-0.445	0.008
-543.266	-83.475	0.338	-0.138
-542.252	-55.605	0.167	0.096
-541.237	-29.989	-0.596	-0.435
-540.223	235.073	0.203	-0.432
-539.208	93.523	-0.242	0.352
-538.193	-156.762	0.176	0.014
-537.179	-1.098	-0.180	0.163
-536.164	-127.927	-0.471	-0.086
-535.150	-41.789	-0.158	-0.104
-534.135	140.335	0.185	-0.314
-533.121	-63.273	-0.359	0.189
-532.106	-173.486	-0.447	-0.017
-531.091	709.025	-0.145	-0.496
-530.077	-89.363	-0.333	0.125
-529.062	237.136	0.084	-0.180
-528.048	-64.180	-0.596	0.311
-527.033	-168.421	0.466	0.023
-526.018	645.194	-0.125	0.412
-525.004	-1.643	-0.233	0.211
-523.989	441.151	-0.185	0.523
-522.975	-110.894	0.208	0.055
-521.960	226.457	0.149	0.312
-520.945	5.853	-0.131	-0.124
-519.931	800.000	0.047	0.210
-518.916	112.558	-0.017	0.026
-517.902	183.763	0.194	-0.370
-516.887	67.329	0.199	0.260
-515.872	-124.362	-0.551	-0.109
-514.858	-137.536	-0.451	-0.065
-513.843	-70.327	-0.355	-0.172
-512.829	-77.309	0.209	-0.093
-511.814	-115.018	0.104	-0.025
-510.799	166.547	-0.093	0.170
-509.785	-78.536	0.177	0.077
-508.770	679.811	0.105	-0.354
-507.756	800.000	0.055	0.216
-506.741	-34.394	0.256	0.180
-505.726	-81.078	0.329	-0.139
-504.712	-7.399	-0.150	-0.130
-503.697	-11.963	0.240	0.202
-502.683	-200.000	-0.013	0.547
-501.668	-83.393	0.569	0.233
-500.653	-62.783	0.177	0.094
-499.639	368.702	-0.127	0.331
-498.624	216.896	-0.027	0.055
-497.610	53.344	0.254	-0.312
-496.595	411.470	0.069	-0.190
-495.581	800.000	0.053	-0.236
-494.566	-200.000	0.275	-0.001
-493.551	-93.836	0.114	0.040
-492.537	-84.699	-0.591	0.237
-491.522	189.151	0.170	-0.328
-490.508	-22.259	0.228	-0.177
-489.493	-85.970	-0.231	0.091
-488.478	321.120	-0.040	0.097
-487.464	800.000	0.132	-0.472
-486.449	192.028	0.035	0.068
-485.435	-200.000	-0.010	0.077
-484.420	60.923	-0.161	-0.205
-483.405	-49.886	0.187	0.113
-482.391	-195.430	0.264	-0.002
-481.376	-7.409	-0.169	0.147
-480.362	-81.687	-0.511	0.214
-479.347	-104.152	-0.213	-0.063
-478.332	-58.472	0.296	0.164
-477.318	422.460	0.136	-0.376
-476.303	-25.001	-0.124	0.094
-475.289	342.822	0.107	0.271
-474.274	220.310	0.069	-0.141
-473.259	-96.337	0.378	0.127
-472.245	-155.891	0.163	-0.013
-471.230	-95.429	0.035	-0.012
-470.216	-96.419	0.427	-0.144
-469.201	-87.500	0.242	-0.093
-468.186	-126.784	0.331	0.062
-467.172	-78.860	0.581	-0.252
-466.157	681.365	0.072	0.241
-465.143	-138.061	-0.156	0.022
-464.128	-200.000	0.023	-0.154
-463.113	-141.752	-0.252	0.032
-462.099	325.072	-0.013	0.033
-461.084	79.500	0.354	0.487
-460.070	98.054	-0.169	0.250
-459.055	-108.223	0.282	0.078
-458.040	-27.257	-0.252	-0.188
-457.026	10.147	-0.150	-0.146
-456.011	-36.878	-0.412	-0.282
-454.997	64.186	-0.165	-0.214
-453.982	-23.898	-0.181	-0.138
-452.968	-49.395	0.210	-0.128
-451.953	-159.272	0.406	-0.029
-450.938	-142.531	-0.329	-0.041
-449.924	800.000	0.094	0.359
-448.909	243.898	0.073	0.157
-447.895	-71.800	0.107	0.051
-446.880	-152.733	0.307	-0.028
-445.865	-95.816	0.236	0.080
-444.851	120.856	-0.184	0.293
-443.836	4.376	-0.215	-0.202
-442.822	-79.437	-0.537	-0.231
-441.807	30.633	-0.186	-0.204
-440.792	28.484	0.169	0.183
-439.778	800.000	-0.136	-0.552
-438.763	3.763	-0.333	-0.311
-437.749	-200.000	-0.005	-0.582
-436.734	170.514	0.169	-0.311
-435.719	-174.219	-0.235	0.009
-434.705	-62.826	0.185	-0.098
-433.690	-47.103	0.408	0.254
-432.676	-87.475	0.544	0.210
-431.661	800.000	-0.032	-0.132
-430.646	-71.498	-0.585	-0.279
-429.632	-8.339	-0.246	0.212
-428.617	-48.658	-0.156	0.096
-427.603	800.000	-0.078	-0.389
-426.588	111.866	-0.216	0.334
-425.573	-200.000	-0.030	0.305
-424.559	-200.000	0.001	-0.071
-423.544	4.887	0.219	0.206
-422.530	-39.013	-0.361	0.242
-421.515	63.722	0.185	-0.238
-420.500	-32.905	0.432	-0.306
-419.486	62.365	0.304	0.388
-418.471	-133.202	0.169	0.027
-417.457	-95.368	0.237	-0.081
-416.442	-100.519	0.369	0.116
-415.428	10.920	-0.441	0.431
-414.413	96.404	-0.405	-0.594
-413.398	-150.145	-0.115	0.011
-412.384	71.420	-0.151	-0.201
-411.369	800.000	0.016	0.081
-410.355	-122.618	-0.454	0.093
-409.340	53.341	-0.146	-0.179
-408.325	15.809	0.247	-0.249
-407.311	14.886	-0.172	-0.172
-406.296	-67.595	0.198	-0.099
-405.282	366.456	0.091	-0.235
-404.267	342.705	0.047	0.119
-403.252	-77.850	-0.309	0.136
-402.238	-54.253	0.226	0.131
-401.223	136.438	0.202	-0.338
-400.209	-98.398	-0.367	0.119
-399.194	-107.816	0.274	-0.076
-398.179	-200.000	-0.032	0.535
-397.165	295.289	-0.068	0.160
-396.150	11.326	0.268	-0.263
-395.136	-190.423	-0.325	-0.004
-394.121	74.392	-0.354	0.476
-393.106	-200.000	0.066	-0.611
-392.092	-131.985	0.081	-0.013
-391.077	37.083	-0.148	-0.168
-390.063	317.157	-0.007	-0.017
-389.048	269.079	0.135	-0.304
-388.033	-54.744	0.288	0.165
-387.019	182.517	-0.129	-0.244
-386.004	800.000	-0.152	0.794
-384.990	108.691	0.126	0.193
-383.975	-69.063	0.231	0.113
-382.960	-72.334	-0.039	-0.019
-381.946	147.097	-0.057	0.099
-380.931	226.955	-0.073	-0.153
-379.917	-107.944	-0.273	0.075
-378.902	16.609	0.549	0.554
-377.888	-26.611	0.278	0.208
-376.873	-157.246	0.356	-0.027
-375.858	800.000	0.033	0.161
-374.844	-200.000	-0.041	0.390
-373.829	366.519	0.107	-0.276
-372.815	-200.000	0.120	-0.700
-371.800	456.194	-0.005	0.014
-370.785	174.233	-0.279	0.517
-369.771	13.215	0.294	0.291
-368.756	-135.651	-0.185	-0.028
-367.742	-200.000	0.016	0.382
-366.727	-104.398	0.306	0.090
-365.712	800.000	-0.152	-0.543
-364.698	269.435	0.046	-0.104
-363.683	94.554	-0.229	-0.333
-362.669	48.800	-0.129	0.155
-361.654	360.993	-0.132	-0.339
-360.639	-17.467	0.171	-0.137
-359.625	-41.990	0.422	0.275
-358.610	-107.534	0.112	0.031
-357.596	286.408	-0.187	-0.431
-356.581	-200.000	0.005	-0.087
-355.566	-123.890	-0.510	-0.102
-354.552	-4.061	-0.216	0.191
-353.537	-165.253	-0.105	-0.006
-352.523	800.000	-0.082	-0.341
-351.508	-189.577	-0.646	0.009
-350.493	-200.000	-0.065	-0.422
-349.479	-122.971	-0.190	-0.039
-348.464	-127.315	0.220	-0.041
-347.450	-48.006	0.333	0.205
-346.435	-163.998	0.609	-0.036
-345.420	-200.000	-0.001	-0.091
-344.406	131.805	0.104	0.171
-343.391	64.486	0.118	0.151
-342.377	-200.000	-0.051	-0.306
-341.362	-53.282	-0.332	-0.194
-340.348	-71.389	0.339	-0.161
-339.333	25.551	0.161	-0.171
-338.318	-106.363	0.292	-0.083
-337.304	283.293	-0.141	0.324
-336.289	4.699	-0.545	0.510
-335.275	29.043	-0.178	0.192
-334.260	-200.000	0.050	0.525
-333.245	255.229	0.331	0.726
-332.231	330.318	0.231	0.569
-331.216	-36.743	0.028	0.019
-330.202	800.000	0.046	0.257
-329.187	-125.543	0.459	-0.088
-328.172	800.000	0.175	0.648
-327.158	-69.274	-0.255	-0.124
-326.143	172.538	-0.055	0.102
-325.129	-134.279	0.465	0.072
-324.114	184.882	-0.215	0.408
-323.099	800.000	0.126	0.471
-322.085	-200.000	0.023	-0.157
-321.070	342.012	-0.176	-0.441
-320.056	-33.454	0.164	-0.115
-319.041	-140.833	0.455	-0.059
-318.026	386.162	-0.095	-0.251
-317.012	4.103	0.199	-0.185
-315.997	-200.000	-0.022	0.160
-314.983	-154.723	0.492	-0.041
-313.968	-57.641	0.103	0.058
-312.953	360.390	-0.016	0.041
-311.939	-141.495	-0.351	-0.045
-310.924	467.075	0.192	0.551
-309.910	-134.069	-0.384	0.060
-308.895	91.296	-0.029	0.042
-307.880	-117.267	0.346	-0.080
-306.866	277.819	0.088	-0.201
-305.851	-200.000	-0.280	0.000
-304.837	448.177	0.227	-0.641
-303.822	-200.000	0.007	0.686
-302.807	70.277	-0.232	-0.306
-301.793	-131.481	-0.079	0.013
-300.778	-6.823	0.337	-0.291
-299.764	800.000	0.055	-0.217
-298.749	-88.047	0.312	-0.119
-297.735	-103.889	0.142	-0.042
-296.720	308.601	0.179	-0.428
-295.705	800.000	-0.052	-0.253
-294.691	-50.081	-0.200	0.120
-293.676	113.798	0.159	0.246
-292.662	-126.634	-0.176	0.033
-291.647	-200.000	-0.006	0.115
-290.632	104.432	-0.174	0.261
-289.618	-193.518	0.556	0.006
-288.603	344.610	0.062	-0.156
-287.589	-200.000	-0.038	-0.339
-286.574	-200.000	-0.008	0.409
-285.559	-54.097	0.515	0.297
-284.545	-70.156	0.122	-0.059
-283.530	417.406	-0.176	0.480
-282.516	31.816	-0.241	0.264
-281.501	87.765	-0.099	0.139
-280.486	178.363	-0.310	0.577
-279.472	-78.489	-0.569	0.247
-278.457	500.394	0.125	0.369
-277.443	-115.810	0.321	0.076
-276.428	18.017	0.332	0.336
-275.413	-16.043	-0.241	0.195
-274.399	-47.741	0.409	0.252
-273.384	-130.356	0.304	0.052
-272.370	553.611	0.155	0.476
-271.355	144.877	0.136	-0.231
-270.340	-200.000	-0.008	0.295
-269.326	75.511	0.216	0.290
-268.311	-29.493	-0.269	-0.195
-267.297	-62.277	0.346	-0.183
-266.282	-2.794	-0.060	0.053
-265.267	800.000	-0.036	-0.162
-264.253	-36.583	0.217	0.148
-263.238	530.562	-0.079	-0.238
-262.224	-200.000	0.039	0.425
-261.209	16.039	-0.145	-0.145
-260.195	-200.000	0.016	-0.228
-259.180	-200.000	0.015	0.192
-258.165	-78.913	0.211	-0.091
-257.151	73.365	0.134	0.178
-256.136	102.252	-0.207	-0.307
-255.122	691.712	-0.162	0.543
-254.107	-95.521	0.297	0.101
-253.092	-91.726	0.207	-0.074
-252.078	800.000	-0.018	-0.073
-251.063	209.653	-0.050	-0.099
-250.049	-15.488	0.466	-0.378
-249.034	800.000	0.068	-0.262
-248.019	-200.000	0.006	-0.384
-247.005	-42.807	-0.163	-0.105
-245.990	-96.935	-0.371	-0.123
-244.976	-24.662	0.209	-0.158
-243.961	-62.701	0.252	-0.132
-242.946	-134.813	-0.533	-0.081
-241.932	-174.904	-0.238	0.008
-240.917	-72.793	-0.366	-0.170
-239.903	-116.331	0.254	-0.059
-238.888	16.764	-0.054	0.055
-237.873	-138.160	0.166	0.023
-236.859	131.424	0.186	-0.304
-235.844	800.000	0.104	-0.520
-234.830	-200.000	0.019	0.194
-233.815	-0.064	-0.345	-0.312
-232.800	-39.864	-0.249	0.165
-231.786	-97.440	-0.174	0.057
-230.771	551.051	-0.147	0.451
-229.757	110.253	-0.254	0.388
-228.742	-108.362	-0.425	0.115
-227.727	-112.495	-0.661	-0.166
-226.713	-119.420	-0.392	-0.086
-225.698	-14.560	-0.331	0.270
-224.684	379.184	-0.014	-0.036
-223.669	-28.006	0.158	-0.116
-222.655	-94.623	0.254	-0.087
-221.640	-72.589	0.577	-0.269
-220.625	180.158	-0.114	-0.213
-219.611	7.072	-0.238	0.225
-218.596	-134.690	0.358	-0.055
-217.582	800.000	-0.118	-0.476
-216.567	1.586	0.270	-0.247
-215.552	22.189	0.559	0.579
-214.538	800.000	-0.172	0.633
-213.523	72.438	0.211	0.280
-212.509	306.579	-0.025	0.059
-211.494	-40.855	0.195	-0.128
-210.479	-102.978	0.345	0.103
-209.465	-107.702	-0.344	0.095
-208.450	-10.462	-0.141	0.119
-207.436	-200.000	-0.207	-0.001
-206.421	202.672	0.039	-0.076
-205.406	-62.079	-0.606	-0.320
-204.392	51.027	-0.165	0.199
-203.377	9.063	-0.329	-0.315
-202.363	96.699	-0.157	-0.229
-201.348	-144.113	0.367	0.043
-200.333	-144.687	-0.307	0.035
-199.319	-120.116	-0.273	0.059
-198.304	-16.588	-0.088	-0.071
-197.290	-83.344	-0.305	-0.124
-196.275	-51.069	0.127	-0.075
-195.260	354.202	-0.099	0.250
-194.246	-86.885	0.346	0.133
-193.231	-170.768	0.294	0.013
-192.217	112.659	0.035	-0.054
-191.202	153.262	-0.065	-0.113
-190.187	448.479	-0.180	-0.506
-189.173	-10.703	-0.174	-0.145
-188.158	-190.611	-0.208	-0.003
-187.144	-200.000	0.008	0.079
-186.129	46.156	-0.127	0.149
-185.114	-61.816	0.295	0.156
-184.100	-55.874	-0.244	-0.138
-183.085	363.337	-0.097	0.248
-182.071	800.000	0.016	0.067
-181.056	20.877	-0.292	-0.300
-180.042	800.000	-0.033	0.123
-179.027	46.619	0.257	-0.303
-178.012	-115.803	-0.305	0.072
-176.998	-200.000	0.045	0.593
-175.983	-128.478	-0.068	0.012
-174.969	615.257	0.196	0.627
-173.954	-36.659	-0.159	0.108
-172.939	-73.127	0.105	-0.049
-171.925	-37.973	0.320	0.215
-170.910	612.852	0.032	-0.102
-169.896	221.804	0.149	-0.305
-168.881	-123.271	-0.228	-0.046
-167.866	423.770	-0.069	-0.188
-166.852	332.165	-0.103	-0.253
-165.837	-17.628	0.127	-0.101
-164.823	112.560	0.305	-0.469
-163.808	800.000	-0.053	0.202
-162.793	-66.861	-0.158	0.079
-161.779	-67.508	-0.594	-0.294
-160.764	800.000	-0.048	0.212
-159.750	124.684	0.276	0.441
-158.735	-130.013	0.409	-0.070
-157.720	19.811	0.161	-0.164
-156.706	616.732	-0.051	0.163
-155.691	82.627	-0.341	-0.470
-154.677	-200.000	-0.040	-0.574
-153.662	62.248	0.140	0.178
-152.647	-200.000	0.041	-0.455
-151.633	18.055	0.204	-0.206
-150.618	-21.286	0.120	-0.093
-149.604	-87.340	-0.495	0.189
-148.589	-200.000	-0.025	-0.183
-147.574	-78.875	-0.138	-0.059
-146.560	-200.000	0.015	-0.135
-145.545	-200.000	-0.126	-0.711
-144.531	-10.874	0.199	-0.166
-143.516	365.662	-0.201	0.515
-142.502	133.434	0.262	0.430
-141.487	54.144	-0.041	-0.050
-140.472	525.289	-0.049	0.148
-139.458	-105.503	0.412	0.117
-138.443	-200.000	-0.075	0.564
-137.429	382.720	0.138	0.361
-136.414	-99.541	-0.405	-0.128
-135.399	3.944	-0.215	-0.198
-134.385	-137.768	0.122	-0.017
-133.370	-45.720	-0.216	0.135
-132.356	-107.458	-0.537	0.148
-131.341	-200.000	-0.013	0.164
-130.326	800.000	0.125	-0.524
-129.312	610.616	-0.032	0.101
-128.297	800.000	0.088	0.489
-127.283	800.000	-0.134	0.476
-126.268	-119.990	-0.158	0.034
-125.253	-200.000	0.016	-0.207
-124.239	84.122	-0.370	0.513
-123.224	35.669	0.141	-0.157
-122.210	-62.918	0.325	0.170
-121.195	-123.728	-0.301	-0.060
