DTS Sentinel unit serial number:	SN409020Multiplexer serial number:	ORYXHardware model number:	OX4-SRSoftware version number:	ORYX F/W v3.00 Oryx Data Collector v3.7.2.0data status	okinstallation	HaddamTimeLapsedifferential loss correction	single-endedforward channel	channel 3reverse channel	N/Adate	2011/06/22time	08:46:16forward acquisition time	30.00reverse acquisition time	0.00gamma	498.7831k internal	0.1791k external	0.1791temperature offset calibration	1.0074default loss term (dB/km)	0.3790temperature slope calibration	1.3530multiplexer offset coefficient	1.0000multiplexer slope coefficient	1.0000fibre end	0.00T internal ref (°C)	26.75T ext. ref 1 (°C)	24.37T ext. ref 2 (°C)	0.17length (m)	temperature (°C)	Stokes	anti-Stokes-747.200	92.804	0.244	0.359
-746.185	-9.392	-0.164	0.142
-745.171	-200.000	0.041	-0.340
-744.156	800.000	0.080	0.417
-743.142	-103.544	-0.597	-0.181
-742.127	-200.000	-0.005	0.115
-741.112	-200.000	0.047	0.432
-740.098	-51.068	0.260	0.158
-739.083	3.214	-0.073	0.069
-738.069	766.838	0.087	-0.310
-737.054	-37.310	-0.472	-0.327
-736.039	-14.258	-0.292	0.244
-735.025	-56.961	-0.023	0.013
-734.010	-149.401	0.750	0.076
-732.996	-125.604	0.306	-0.060
-731.981	519.763	-0.097	-0.297
-730.966	-200.000	-0.030	0.175
-729.952	277.059	-0.073	0.168
-728.937	-200.000	0.008	-0.384
-727.923	-113.014	0.146	-0.037
-726.908	800.000	0.026	0.134
-725.894	7.154	0.057	-0.055
-724.879	800.000	0.035	0.189
-723.864	-27.150	0.321	0.243
-722.850	-17.323	0.174	0.142
-721.835	-46.948	-0.224	0.141
-720.821	504.410	0.089	-0.269
-719.806	-53.208	0.361	-0.214
-718.791	215.836	0.224	0.464
-717.777	-200.000	0.008	-0.251
-716.762	-169.755	0.130	-0.006
-715.748	114.806	-0.290	-0.460
-714.733	-124.891	-0.194	-0.038
-713.718	-58.094	0.106	0.060
-712.704	84.501	-0.242	0.343
-711.689	-200.000	-0.320	0.001
-710.675	-94.837	0.737	0.258
-709.660	75.214	-0.066	0.090
-708.645	735.694	0.075	-0.261
-707.631	25.192	0.175	0.189
-706.616	-42.958	0.349	0.229
-705.602	-158.254	0.208	0.016
-704.587	-200.000	0.093	-0.610
-703.572	-200.000	-0.011	0.247
-702.558	800.000	0.110	-0.444
-701.543	800.000	-0.049	0.242
-700.529	800.000	0.167	0.707
-699.514	477.927	0.085	0.250
-698.499	-200.000	-0.006	0.267
-697.485	126.087	-0.340	-0.558
-696.470	-78.868	-0.594	-0.261
-695.456	75.278	-0.197	-0.270
-694.441	-200.000	-0.025	0.414
-693.426	459.404	-0.043	0.124
-692.412	-27.107	0.288	-0.217
-691.397	18.846	-0.216	-0.224
-690.383	38.709	-0.359	-0.415
-689.368	-200.000	0.048	0.330
-688.354	-130.998	0.312	0.053
-687.339	-200.000	0.000	-0.069
-686.324	321.133	-0.129	0.319
-685.310	67.343	0.166	-0.220
-684.295	-121.317	0.246	0.053
-683.281	-13.860	-0.402	0.336
-682.266	-36.655	-0.250	0.174
-681.251	-200.000	-0.012	-0.556
-680.237	-132.359	0.438	-0.073
-679.222	-118.435	-0.219	0.050
-678.208	-72.147	-0.109	0.052
-677.193	-200.000	0.012	-0.148
-676.178	-13.918	-0.255	-0.213
-675.164	134.499	0.204	0.344
-674.149	95.859	0.242	-0.359
-673.135	-165.672	-0.182	-0.010
-672.120	-129.816	0.468	0.082
-671.105	38.759	0.228	-0.264
-670.091	60.278	-0.126	0.162
-669.076	-79.426	-0.259	-0.113
-668.062	-200.000	0.055	-0.535
-667.047	-137.353	-0.254	-0.037
-666.032	-94.104	-0.375	-0.132
-665.018	292.355	-0.030	-0.071
-664.003	33.903	0.078	0.088
-662.989	79.275	-0.411	-0.571
-661.974	-148.035	-0.541	0.057
-660.959	-200.000	0.007	-0.293
-659.945	159.717	0.051	-0.092
-658.930	-38.713	0.435	0.297
-657.916	257.613	0.192	-0.429
-656.901	-0.710	0.383	-0.351
-655.886	77.998	0.247	-0.341
-654.872	93.762	0.286	-0.420
-653.857	-20.398	-0.268	-0.213
-652.843	-22.611	-0.312	0.244
-651.828	43.400	-0.176	0.209
-650.814	378.401	0.060	-0.160
-649.799	-109.117	-0.320	-0.088
-648.784	800.000	-0.053	-0.270
-647.770	-168.191	-0.248	-0.012
-646.755	-200.000	0.078	-0.476
-645.741	-156.776	-0.264	-0.021
-644.726	800.000	-0.078	0.317
-643.711	447.913	-0.091	0.261
-642.697	-126.788	-0.169	-0.032
-641.682	58.199	0.073	-0.092
-640.668	67.344	0.117	0.155
-639.653	-21.262	-0.378	-0.298
-638.638	-115.775	-0.108	0.026
-637.624	126.015	-0.187	-0.306
-636.609	-200.000	0.048	0.000
-635.595	-90.510	-0.225	-0.084
-634.580	-99.890	0.420	-0.135
-633.565	356.393	-0.119	0.309
-632.551	-62.330	0.104	0.056
-631.536	249.508	-0.081	0.178
-630.522	-200.000	-0.024	-0.401
-629.507	699.423	0.071	-0.243
-628.492	-3.826	0.350	-0.314
-627.478	-103.880	-0.325	-0.097
-626.463	29.607	-0.323	-0.356
-625.449	-66.023	0.109	0.056
-624.434	-20.792	0.152	0.120
-623.419	-200.000	-0.038	-0.484
-622.405	-97.922	0.217	0.072
-621.390	800.000	-0.049	0.282
-620.376	-114.838	-0.236	0.058
-619.361	504.338	0.087	0.262
-618.346	-110.883	0.249	-0.066
-617.332	-200.000	-0.009	-0.220
-616.317	-12.808	-0.164	-0.138
-615.303	-149.260	0.266	0.027
-614.288	800.000	0.081	-0.410
-613.273	-57.009	0.198	-0.113
-612.259	800.000	0.114	0.510
-611.244	-85.615	-0.106	-0.042
-610.230	71.241	-0.446	0.599
-609.215	348.868	-0.156	0.401
-608.201	38.322	-0.060	0.069
-607.186	363.588	-0.103	-0.269
-606.171	-54.232	-0.448	0.262
-605.157	-48.288	-0.234	-0.146
-604.142	-200.000	0.022	-0.673
-603.128	-2.919	-0.279	0.251
-602.113	-16.900	-0.156	0.127
-601.098	-154.800	0.204	0.017
-600.084	288.833	-0.097	-0.228
-599.069	-200.000	0.038	-0.220
-598.055	31.890	-0.164	0.182
-597.040	-29.964	-0.407	0.299
-596.025	-8.933	0.285	0.246
-595.011	421.629	0.074	0.206
-593.996	-93.918	-0.177	-0.063
-592.982	-200.000	0.010	-0.422
-591.967	-126.989	-0.413	-0.078
-590.952	-102.308	-0.290	0.089
-589.938	-43.399	-0.242	-0.157
-588.923	-60.279	0.196	-0.107
-587.909	155.038	-0.061	-0.108
-586.894	21.679	-0.059	0.062
-585.879	800.000	0.064	-0.240
-584.865	-152.292	0.189	-0.017
-583.850	132.879	-0.184	-0.307
-582.836	3.205	0.268	-0.251
-581.821	-28.145	0.203	0.151
-580.806	-30.775	-0.232	-0.169
-579.792	-95.693	0.259	0.089
-578.777	-103.215	-0.249	0.075
-577.763	-108.695	0.357	0.098
-576.748	118.129	-0.074	0.119
-575.733	800.000	-0.080	0.409
-574.719	-80.309	0.252	0.108
-573.704	384.870	0.105	0.280
-572.690	171.884	-0.162	0.301
-571.675	-7.352	0.083	-0.073
-570.661	-12.642	0.032	-0.027
-569.646	-108.254	0.451	-0.125
-568.631	127.760	0.141	0.232
-567.617	-70.556	-0.061	-0.030
-566.602	-137.846	-0.234	0.033
-565.588	50.017	-0.096	0.117
-564.573	374.230	-0.098	-0.258
-563.558	800.000	-0.085	-0.454
-562.544	9.185	0.273	0.266
-561.529	800.000	0.041	0.189
-560.515	137.846	0.136	0.230
-559.500	-119.578	0.141	0.031
-558.485	800.000	0.070	0.396
-557.471	200.633	0.133	-0.264
-556.456	39.167	0.235	-0.271
-555.442	97.127	-0.235	-0.348
-554.427	-143.465	0.366	0.045
-553.412	-159.587	0.068	0.005
-552.398	239.691	0.116	0.250
-551.383	-200.000	-0.010	-0.172
-550.369	-11.042	0.124	0.105
-549.354	800.000	-0.073	0.356
-548.339	800.000	0.073	0.354
-547.325	800.000	-0.030	0.153
-546.310	-84.708	-0.378	-0.153
-545.296	800.000	0.030	0.156
-544.281	226.217	0.172	-0.361
-543.266	-74.543	-0.203	-0.094
-542.252	-200.000	-0.016	0.094
-541.237	55.526	0.042	0.053
-540.223	-200.000	-0.028	-0.442
-539.208	-124.589	0.439	0.087
-538.193	-95.840	0.236	0.081
-537.179	-105.813	-0.303	0.088
-536.164	-59.279	0.279	-0.154
-535.150	85.990	-0.242	-0.344
-534.135	474.344	0.080	-0.235
-533.121	-32.090	0.144	-0.104
-532.106	25.231	0.251	-0.269
-531.091	479.169	0.198	0.581
-530.077	126.944	0.227	0.371
-529.062	337.288	0.104	0.263
-528.048	103.983	-0.359	0.544
-527.033	557.092	0.119	-0.372
-526.018	289.393	0.135	-0.316
-525.004	44.079	-0.246	-0.291
-523.989	255.160	0.074	-0.164
-522.975	67.473	-0.185	-0.244
-521.960	-29.689	0.048	-0.035
-520.945	-200.000	0.020	-0.238
-519.931	-47.266	-0.194	0.121
-518.916	-136.108	0.243	0.036
-517.902	-200.000	-0.024	0.231
-516.887	-62.956	0.533	0.283
-515.872	31.339	-0.336	-0.372
-514.858	-40.087	-0.302	-0.202
-513.843	-200.000	-0.004	-0.361
-512.829	-48.233	0.079	-0.049
-511.814	42.004	0.157	-0.184
-510.799	-99.303	-0.134	0.043
-509.785	46.414	-0.043	0.052
-508.770	-200.000	-0.054	0.330
-507.756	207.036	0.236	0.476
-506.741	156.737	-0.075	0.134
-505.726	-7.823	-0.212	-0.184
-504.712	158.452	0.226	-0.404
-503.697	122.990	0.039	0.062
-502.683	-29.978	0.396	-0.290
-501.668	7.202	0.196	0.188
-500.653	264.615	-0.087	-0.196
-499.639	-200.000	-0.057	-0.475
-498.624	144.432	-0.314	-0.540
-497.610	800.000	0.075	0.388
-496.595	-144.382	-0.257	0.030
-495.581	87.167	0.325	-0.462
-494.566	-200.000	0.036	0.261
-493.551	-104.226	-0.283	-0.084
-492.537	-114.176	0.240	0.059
-491.522	-119.507	0.218	-0.048
-490.508	47.277	-0.208	0.249
-489.493	-80.652	-0.117	-0.050
-488.478	104.461	-0.210	0.318
-487.464	-200.000	0.077	-0.632
-486.449	61.721	0.181	-0.232
-485.435	19.704	0.136	-0.141
-484.420	-92.825	0.147	-0.053
-483.405	-200.000	0.005	0.317
-482.391	119.392	0.163	0.260
-481.376	-200.000	-0.009	0.243
-480.362	-55.475	-0.233	-0.134
-479.347	800.000	-0.079	0.368
-478.332	-69.029	0.128	-0.063
-477.318	719.840	0.029	-0.101
-476.303	-72.778	-0.359	0.169
-475.289	208.202	-0.306	0.616
-474.274	-19.472	0.167	-0.133
-473.259	-159.827	0.501	0.035
-472.245	100.411	0.120	-0.179
-471.230	49.425	-0.179	0.217
-470.216	76.522	-0.083	-0.113
-469.201	-200.000	0.090	-0.557
-468.186	-60.605	-0.486	0.264
-467.172	-141.870	0.115	0.015
-466.157	-200.000	-0.024	0.143
-465.143	163.455	0.264	0.478
-464.128	793.610	0.058	0.206
-463.113	46.483	-0.219	0.261
-462.099	233.476	0.125	0.266
-461.084	-53.014	0.148	0.087
-460.070	-58.926	-0.237	0.131
-459.055	453.369	0.073	-0.209
-458.040	269.806	-0.099	0.225
-457.026	34.534	-0.325	-0.364
-456.011	-200.000	-0.005	-0.072
-454.997	-99.458	-0.226	-0.073
-453.982	-8.507	-0.192	0.166
-452.968	-113.107	-0.189	-0.048
-451.953	-95.269	-0.072	-0.025
-450.938	-200.000	0.063	-0.611
-449.924	-200.000	0.041	0.317
-448.909	510.590	-0.015	0.044
-447.895	-56.519	0.451	-0.256
-446.880	-172.951	0.171	0.007
-445.865	800.000	-0.059	-0.229
-444.851	800.000	0.072	0.359
-443.836	52.256	0.179	-0.220
-442.822	-75.279	-0.057	0.026
-441.807	-35.279	0.159	-0.111
-440.792	-200.000	-0.001	0.186
-439.778	-73.198	0.093	0.043
-438.763	136.390	-0.151	0.253
-437.749	227.141	0.103	-0.215
-436.734	427.956	0.108	0.300
-435.719	-104.805	0.193	-0.056
-434.705	-112.609	-0.141	-0.036
-433.690	-150.635	-0.216	0.021
-432.676	480.744	-0.082	0.241
-431.661	-200.000	0.001	0.050
-430.646	-22.435	-0.313	0.242
-429.632	-55.918	-0.138	-0.079
-428.617	-112.322	-0.193	-0.049
-427.603	-200.000	-0.056	0.607
-426.588	-63.502	-0.112	-0.059
-425.573	109.490	-0.333	-0.513
-424.559	-143.015	0.256	0.031
-423.544	-200.000	-0.050	-0.306
-422.530	47.860	0.113	-0.135
-421.515	-85.127	-0.513	0.205
-420.500	197.921	-0.169	-0.331
-419.486	-110.654	0.169	-0.045
-418.471	800.000	-0.102	0.445
-417.457	-81.608	0.372	0.156
-416.442	180.392	0.300	-0.566
-415.428	34.794	-0.424	-0.476
-414.413	-143.808	-0.167	-0.020
-413.398	-200.000	0.006	0.174
-412.384	270.886	-0.193	0.437
-411.369	-78.352	0.165	0.072
-410.355	23.585	-0.077	-0.082
-409.340	-176.510	0.395	-0.013
-408.325	87.218	-0.251	0.356
-407.311	22.788	-0.121	-0.127
-406.296	111.899	-0.064	0.100
-405.282	-121.589	-0.235	-0.050
-404.267	-85.210	-0.252	-0.100
-403.252	429.120	0.050	0.140
-402.238	283.990	-0.074	0.172
-401.223	97.703	0.321	-0.473
-400.209	45.235	0.072	-0.085
-399.194	-132.997	-0.136	-0.022
-398.179	136.593	0.135	0.227
-397.165	283.132	0.120	0.277
-396.150	324.460	0.065	0.161
-395.136	800.000	-0.056	0.288
-394.121	-200.000	0.037	-0.434
-393.106	124.181	-0.203	0.327
-392.092	-40.736	0.207	0.137
-391.077	800.000	0.125	0.638
-390.063	800.000	-0.103	0.463
-389.048	143.597	-0.008	-0.014
-388.033	-92.244	0.261	0.094
-387.019	-111.451	0.268	0.070
-386.004	3.126	-0.073	0.068
-384.990	-60.106	-0.477	0.260
-383.975	7.117	0.149	0.142
-382.960	-14.792	0.041	-0.034
-381.946	-82.372	0.146	-0.061
-380.931	44.805	-0.332	-0.391
-379.917	-200.000	0.053	-0.409
-378.902	8.747	0.222	0.214
-377.888	-117.612	-0.279	0.064
-376.873	-64.605	-0.295	0.153
-375.858	-83.797	0.177	0.072
-374.844	800.000	-0.016	0.070
-373.829	-200.000	0.014	-0.120
-372.815	233.359	0.266	-0.561
-371.800	148.782	0.230	0.399
-370.785	-200.000	0.157	0.001
-369.771	800.000	0.100	-0.527
-368.756	249.369	-0.169	-0.369
-367.742	-42.696	-0.603	-0.391
-366.727	-75.554	0.454	-0.206
-365.712	800.000	-0.036	0.137
-364.698	800.000	0.065	0.349
-363.683	17.671	0.202	-0.206
-362.669	-55.852	0.199	0.113
-361.654	55.040	-0.127	0.157
-360.639	234.650	-0.095	0.202
-359.625	-200.000	-0.042	0.553
-358.610	-200.000	0.645	0.003
-357.596	179.196	-0.226	-0.425
-356.581	-42.768	-0.306	-0.198
-355.566	307.902	-0.036	-0.087
-354.552	-111.208	-0.625	0.162
-353.537	273.704	0.127	0.289
-352.523	-32.504	0.209	0.149
-351.508	-200.000	0.028	-0.207
-350.493	-200.000	-0.047	-0.314
-349.479	127.231	-0.198	-0.322
-348.464	800.000	0.037	-0.171
-347.450	-200.000	0.070	-0.468
-346.435	-134.614	-0.200	-0.031
-345.420	-200.000	-0.373	0.001
-344.406	-141.088	0.131	0.017
-343.391	-200.000	0.017	0.348
-342.377	-109.766	0.384	-0.103
-341.362	-46.387	-0.297	-0.186
-340.348	-46.833	0.185	0.115
-339.333	515.887	0.004	0.012
-338.318	-155.326	-0.255	0.021
-337.304	153.311	-0.086	-0.151
-336.289	527.985	0.052	-0.159
-335.275	-46.294	-0.417	0.262
-334.260	387.822	-0.100	0.266
-333.245	111.865	-0.103	0.159
-332.231	79.019	0.344	0.471
-331.216	-200.000	0.003	-0.123
-330.202	98.546	-0.147	-0.216
-329.187	-56.322	-0.350	-0.198
-328.172	-21.294	-0.158	0.123
-327.158	14.382	0.090	0.089
-326.143	118.576	-0.094	0.148
-325.129	-181.101	0.274	0.007
-324.114	-113.626	0.384	-0.095
-323.099	117.156	-0.277	-0.435
-322.085	800.000	-0.115	0.550
-321.070	763.885	0.044	-0.154
-320.056	800.000	0.034	-0.157
-319.041	-119.260	-0.241	0.053
-318.026	544.183	-0.113	0.348
-317.012	-62.821	0.693	-0.365
-315.997	-200.000	0.001	-0.158
-314.983	311.020	-0.044	0.105
-313.968	-111.435	0.210	0.054
-312.953	158.237	-0.111	0.196
-311.939	170.428	0.122	-0.223
-310.924	-144.625	0.528	0.062
-309.910	138.139	0.116	-0.194
-308.895	333.079	-0.132	0.328
-307.880	127.777	0.141	0.230
-306.866	-200.000	0.039	0.250
-305.851	-33.027	-0.412	-0.291
-304.837	79.319	0.206	0.282
-303.822	-38.389	0.372	-0.250
-302.807	-179.772	0.413	0.011
-301.793	227.025	-0.169	-0.353
-300.778	-132.643	0.428	0.069
-299.764	-119.344	0.533	0.117
-298.749	-140.818	0.235	0.031
-297.735	-97.977	-0.191	-0.062
-296.720	-136.051	0.274	0.041
-295.705	84.076	0.202	0.282
-294.691	100.752	-0.063	-0.093
-293.676	52.093	0.104	-0.126
-292.662	18.445	0.301	-0.307
-291.647	800.000	-0.066	-0.307
-290.632	275.658	0.155	-0.352
-289.618	-77.633	-0.487	0.214
-288.603	-15.356	0.282	0.230
-287.589	105.308	0.103	-0.155
-286.574	0.178	0.237	0.216
-285.559	151.465	-0.075	-0.130
-284.545	-200.000	-0.040	0.618
-283.530	162.562	-0.189	0.340
-282.516	-93.678	-0.675	0.236
-281.501	-111.228	-0.505	0.131
-280.486	-82.402	-0.429	0.177
-279.472	197.054	-0.075	-0.147
-278.457	-200.000	-0.005	0.260
-277.443	614.304	-0.092	0.295
-276.428	56.194	0.236	-0.292
-275.413	-200.000	0.051	-0.317
-274.399	-45.887	0.343	0.216
-273.384	-136.302	0.208	0.031
-272.370	9.466	-0.121	0.117
-271.355	-130.366	0.393	0.067
-270.340	262.529	0.165	-0.366
-269.326	37.356	-0.100	0.113
-268.311	-49.996	0.257	0.155
-267.297	-57.585	0.312	0.174
-266.282	249.960	0.018	-0.038
-265.267	-78.678	0.216	0.094
-264.253	-20.254	0.410	-0.322
-263.238	-30.637	-0.489	-0.352
-262.224	344.418	-0.050	-0.126
-261.209	800.000	-0.058	-0.228
-260.195	-88.328	0.411	-0.156
-259.180	-200.000	0.025	-0.149
-258.165	-38.808	0.483	-0.324
-257.151	-31.481	0.151	0.108
-256.136	157.402	0.312	-0.551
-255.122	112.505	-0.091	-0.140
-254.107	18.244	-0.110	0.111
-253.092	-143.764	0.293	-0.035
-252.078	-132.942	0.739	-0.119
-251.063	-125.216	0.131	-0.025
-250.049	139.113	0.088	-0.148
-249.034	-200.000	0.042	-0.273
-248.019	-129.884	-0.511	0.089
-247.005	-46.682	0.144	-0.090
-245.990	487.444	0.114	0.333
-244.976	-66.547	0.230	-0.116
-243.961	-48.530	0.372	-0.228
-242.946	41.605	-0.322	0.371
-241.932	-95.513	-0.468	0.159
-240.917	103.397	0.092	0.137
-239.903	-31.051	-0.161	-0.115
-238.888	-200.000	-0.058	0.368
-237.873	-51.546	0.364	0.216
-236.859	-200.000	-0.002	0.149
-235.844	-107.253	-0.603	-0.168
-234.830	-54.479	-0.207	0.119
-233.815	-96.572	-0.057	-0.019
-232.800	-200.000	-0.023	0.218
-231.786	180.385	-0.175	-0.328
-230.771	-80.587	-0.322	-0.136
-229.757	-128.982	-0.146	-0.026
-228.742	800.000	-0.028	-0.141
-227.727	-127.479	-0.278	0.051
-226.713	-144.875	-0.318	0.037
-225.698	20.181	-0.144	-0.148
-224.684	-32.995	-0.065	-0.046
-223.669	-43.135	0.344	-0.222
-222.655	-116.419	-0.145	0.034
-221.640	-73.837	0.100	-0.046
-220.625	800.000	-0.079	-0.303
-219.611	23.800	0.081	-0.085
-218.596	800.000	0.094	-0.464
-217.582	134.339	-0.060	-0.100
-216.567	-137.923	-0.332	0.047
-215.552	123.731	0.201	-0.322
-214.538	-200.000	0.022	-0.172
-213.523	664.279	0.031	0.103
-212.509	800.000	0.053	0.233
-211.494	-134.225	-0.068	0.010
-210.479	-68.190	0.631	-0.311
-209.465	327.152	-0.049	0.119
-208.450	-15.209	-0.192	0.156
-207.436	71.884	-0.326	-0.432
-206.421	214.307	0.356	0.720
-205.406	-92.817	-0.409	-0.145
-204.392	-49.919	0.334	0.201
-203.377	-165.766	0.111	-0.006
-202.363	-38.300	0.130	-0.087
-201.348	44.747	0.238	0.278
-200.333	-80.190	-0.117	-0.050
-199.319	52.522	0.353	0.428
-198.304	-71.687	-0.155	0.073
-197.290	800.000	-0.044	0.176
-196.275	-0.056	-0.575	-0.520
-195.260	434.676	-0.145	0.402
-194.246	-145.434	0.310	-0.035
-193.231	-110.357	0.268	-0.070
-192.217	417.908	0.029	-0.078
-191.202	29.553	0.047	0.051
-190.187	465.641	-0.156	0.447
-189.173	-62.312	0.205	-0.108
-188.158	-110.309	0.290	-0.076
-187.144	432.592	-0.057	0.159
-186.129	-22.697	-0.033	0.025
-185.114	9.645	-0.067	-0.064
-184.100	-126.978	-0.323	-0.060
-183.085	-69.595	-0.260	0.126
-182.071	-133.938	0.421	0.066
-181.056	-108.637	0.127	0.034
-180.042	-19.276	0.239	-0.188
-179.027	193.088	-0.297	-0.572
-178.012	-35.036	0.225	-0.156
-176.998	-23.818	-0.277	-0.210
-175.983	53.343	-0.141	0.172
-174.969	-18.742	-0.529	0.418
-173.954	197.571	-0.137	0.266
-172.939	800.000	-0.127	0.542
-171.925	-15.917	0.280	-0.226
-170.910	-68.099	0.622	0.307
-169.896	82.878	-0.109	0.151
-168.881	-79.300	-0.175	-0.075
-167.866	-33.953	0.273	-0.191
-166.852	-200.000	0.007	0.139
-165.837	-82.553	0.260	0.107
-164.823	-45.907	0.099	-0.062
-163.808	-38.820	-0.242	0.162
-162.793	68.407	-0.266	-0.346
-161.779	189.762	-0.075	0.144
-160.764	38.047	-0.146	-0.165
-159.750	-148.885	-0.777	-0.079
-158.735	-52.470	-0.330	-0.193
-157.720	-200.000	-0.006	0.685
-156.706	286.135	-0.164	0.376
-155.691	-88.097	-0.277	-0.105
-154.677	35.030	0.234	-0.260
-153.662	-145.667	-0.179	0.020
-152.647	-187.384	0.450	0.008
-151.633	-42.559	0.133	0.086
-150.618	36.962	-0.076	-0.086
-149.604	-200.000	-0.027	-0.155
-148.589	-189.817	0.755	0.011
-147.574	-89.769	0.405	-0.150
-146.560	800.000	0.047	0.222
-145.545	-27.492	0.315	-0.232
-144.531	-92.563	-0.420	0.149
-143.516	-200.000	-0.028	-0.170
-142.502	-88.075	0.315	0.119
-141.487	67.878	0.383	-0.498
-140.472	-200.000	0.005	0.056
-139.458	14.869	0.086	-0.085
-138.443	-79.934	0.130	-0.055
-137.429	800.000	-0.063	0.272
-136.414	30.437	-0.301	-0.326
-135.399	-58.281	-0.126	-0.069
-134.385	159.372	-0.197	-0.349
-133.370	133.947	-0.090	-0.148
-132.356	-200.000	-0.036	-0.323
-131.341	-187.472	-0.366	-0.006
-130.326	98.390	-0.151	0.220
-129.312	800.000	-0.077	0.277
-128.297	-187.667	-0.114	-0.002
-127.283	-70.723	0.083	-0.039
-126.268	147.721	0.215	-0.368
-125.253	55.215	-0.272	-0.334
-124.239	-9.023	-0.096	0.081
-123.224	469.182	0.088	0.251
-122.210	39.386	0.040	-0.045
-121.195	502.968	0.113	-0.334
