DTS Sentinel unit serial number:	SN409020Multiplexer serial number:	ORYXHardware model number:	OX4-SRSoftware version number:	ORYX F/W v3.00 Oryx Data Collector v3.7.2.0data status	okinstallation	HaddamTimeLapsedifferential loss correction	single-endedforward channel	channel 3reverse channel	N/Adate	2011/06/21time	17:06:16forward acquisition time	30.00reverse acquisition time	0.00gamma	498.7831k internal	0.1789k external	0.1789temperature offset calibration	1.0074default loss term (dB/km)	0.3790temperature slope calibration	1.3530multiplexer offset coefficient	1.0000multiplexer slope coefficient	1.0000fibre end	0.00T internal ref (°C)	32.50T ext. ref 1 (°C)	28.48T ext. ref 2 (°C)	0.25length (m)	temperature (°C)	Stokes	anti-Stokes-747.200	141.161	0.158	-0.272
-746.185	-200.000	0.050	0.562
-745.171	-200.000	-0.038	-0.478
-744.156	-53.566	-0.149	0.088
-743.142	18.600	-0.382	-0.397
-742.127	41.993	-0.308	0.364
-741.112	-61.601	-0.185	-0.101
-740.098	185.751	-0.229	0.445
-739.083	-46.078	0.124	-0.079
-738.069	-200.000	-0.022	0.561
-737.054	61.709	0.236	0.306
-736.039	-30.967	-0.605	0.443
-735.025	-98.934	-0.222	0.073
-734.010	-200.000	0.025	-0.386
-732.996	-103.877	0.259	-0.078
-731.981	-92.664	0.182	-0.066
-730.966	-104.482	-0.404	-0.121
-729.952	505.148	-0.074	0.224
-728.937	259.345	0.079	-0.179
-727.923	553.920	0.075	0.236
-726.908	433.251	-0.044	0.124
-725.894	-51.152	-0.278	-0.169
-724.879	-6.229	0.241	0.213
-723.864	441.183	-0.151	0.431
-722.850	110.679	0.162	0.254
-721.835	663.427	-0.065	-0.219
-720.821	44.579	0.154	-0.184
-719.806	-154.203	0.492	-0.043
-718.791	-200.000	0.025	0.221
-717.777	-76.223	-0.448	-0.205
-716.762	479.872	0.039	0.115
-715.748	-76.260	-0.455	-0.207
-714.733	-200.000	-0.048	0.326
-713.718	403.937	0.111	0.304
-712.704	-200.000	0.041	0.339
-711.689	408.623	-0.052	0.144
-710.675	-125.370	-0.605	0.119
-709.660	24.773	-0.359	0.386
-708.645	15.884	0.367	0.375
-707.631	103.646	0.238	0.364
-706.616	800.000	0.052	-0.255
-705.602	-70.367	-0.123	0.060
-704.587	-84.019	0.242	0.099
-703.572	-2.566	0.169	0.153
-702.558	-200.000	0.047	-0.365
-701.543	-66.030	0.164	0.085
-700.529	151.126	-0.175	0.309
-699.514	77.478	0.056	0.078
-698.499	-172.527	-0.458	-0.018
-697.485	-181.511	-0.168	0.004
-696.470	-107.494	-0.281	-0.079
-695.456	-43.303	0.439	-0.287
-694.441	-200.000	0.001	-0.293
-693.426	289.923	0.018	0.044
-692.412	-142.847	-0.130	0.016
-691.397	-200.000	-0.008	0.173
-690.383	186.048	0.028	-0.054
-689.368	35.630	0.208	0.237
-688.354	-177.338	0.360	0.011
-687.339	40.569	-0.065	0.075
-686.324	81.867	0.312	0.439
-685.310	-51.788	-0.264	-0.159
-684.295	-91.884	-0.296	-0.108
-683.281	-200.000	-0.003	-0.368
-682.266	45.467	0.155	-0.185
-681.251	800.000	-0.134	0.568
-680.237	-117.770	0.412	0.095
-679.222	-104.665	0.618	-0.184
-678.208	-127.746	0.071	0.013
-677.193	741.186	0.067	0.234
-676.178	6.022	-0.144	-0.138
-675.164	-19.358	-0.359	-0.288
-674.149	-45.996	-0.388	0.247
-673.135	-69.226	-0.057	-0.028
-672.120	-198.134	-0.514	-0.004
-671.105	-4.625	-0.370	0.331
-670.091	126.347	-0.252	-0.415
-669.076	-71.896	0.535	-0.257
-668.062	35.438	0.317	0.361
-667.047	206.586	-0.109	-0.220
-666.032	-99.628	-0.346	0.112
-665.018	22.895	0.207	-0.220
-664.003	-45.292	0.059	0.038
-662.989	-106.924	0.330	0.094
-661.974	-62.159	-0.541	-0.291
-660.959	33.550	-0.070	-0.079
-659.945	-178.154	-0.571	-0.017
-658.930	-200.000	0.031	-0.289
-657.916	29.581	0.152	0.168
-656.901	-79.725	-0.383	-0.166
-655.886	-73.116	0.512	-0.242
-654.872	106.852	0.325	-0.501
-653.857	-105.296	-0.516	-0.151
-652.843	348.728	0.025	0.065
-651.828	-5.771	0.135	-0.120
-650.814	-75.831	0.238	0.109
-649.799	-26.547	0.410	-0.310
-648.784	16.471	-0.285	-0.292
-647.770	-39.757	-0.121	-0.082
-646.755	-35.692	0.499	-0.350
-645.741	800.000	-0.070	0.310
-644.726	-88.509	-0.214	0.082
-643.711	-72.026	0.291	-0.139
-642.697	372.577	0.095	0.252
-641.682	-157.385	-0.385	-0.030
-640.668	-61.245	0.580	-0.315
-639.653	-101.981	0.373	0.116
-638.638	-200.000	-0.041	0.250
-637.624	-169.575	0.401	0.019
-636.609	-129.080	0.272	-0.049
-635.595	-27.640	-0.103	-0.078
-634.580	-98.327	0.608	-0.201
-633.565	731.405	-0.058	-0.202
-632.551	-200.000	-0.060	-0.441
-631.536	-15.087	-0.329	-0.272
-630.522	-20.088	0.324	0.258
-629.507	20.907	-0.100	0.105
-628.492	68.235	-0.069	0.091
-627.478	-200.000	-0.000	0.045
-626.463	-123.169	0.213	-0.044
-625.449	363.267	0.185	0.482
-624.434	1.927	0.530	-0.495
-623.419	146.831	0.074	0.128
-622.405	339.142	-0.084	0.212
-621.390	-94.082	-0.136	-0.048
-620.376	-200.000	0.136	0.001
-619.361	587.553	-0.099	-0.317
-618.346	90.570	0.211	-0.306
-617.332	-113.992	0.249	0.062
-616.317	-200.000	-0.006	-0.220
-615.303	-98.611	-0.197	-0.065
-614.288	303.994	-0.187	-0.451
-613.273	-142.301	0.449	0.057
-612.259	-200.000	-0.027	0.167
-611.244	0.465	-0.149	0.138
-610.230	-134.504	-0.211	0.033
-609.215	-140.665	-0.674	-0.089
-608.201	242.465	-0.061	0.132
-607.186	-118.055	-0.368	0.084
-606.171	-151.891	-0.317	-0.030
-605.157	259.029	-0.021	-0.047
-604.142	-200.000	0.004	0.217
-603.128	-57.936	0.127	0.072
-602.113	-200.000	-0.115	0.727
-601.098	139.342	0.133	0.226
-600.084	385.656	-0.048	0.129
-599.069	800.000	-0.002	-0.011
-598.055	-39.849	0.511	0.344
-597.040	603.084	-0.078	-0.251
-596.025	-57.652	-0.476	0.269
-595.011	-152.779	-0.331	-0.030
-593.996	800.000	0.027	0.106
-592.982	-90.383	0.300	-0.112
-591.967	196.289	0.247	-0.488
-590.952	271.863	-0.084	0.193
-589.938	-148.681	0.201	-0.021
-588.923	-85.217	0.100	0.040
-587.909	-200.000	-0.040	-0.269
-586.894	-74.526	-0.363	0.168
-585.879	-139.880	-0.124	-0.017
-584.865	737.711	0.043	0.152
-583.850	183.897	0.260	0.499
-582.836	-107.187	0.214	0.060
-581.821	-200.000	-0.020	-0.145
-580.806	8.165	0.125	-0.121
-579.792	-63.462	0.120	0.063
-578.777	800.000	-0.170	0.641
-577.763	-130.389	0.143	0.025
-576.748	800.000	-0.035	-0.127
-575.733	-37.933	0.227	0.155
-574.719	-12.144	0.065	0.055
-573.704	-163.784	0.532	-0.032
-572.690	59.284	0.331	0.421
-571.675	-93.963	0.354	-0.125
-570.661	-142.392	0.227	-0.029
-569.646	800.000	-0.121	-0.514
-568.631	7.198	-0.278	-0.267
-567.617	-67.363	-0.260	0.131
-566.602	-200.000	-0.032	-0.191
-565.588	-61.576	-0.126	0.068
-564.573	260.081	-0.286	-0.640
-563.558	441.307	-0.090	-0.255
-562.544	-77.967	0.293	0.130
-561.529	-11.246	0.107	0.091
-560.515	800.000	0.060	-0.283
-559.500	173.349	-0.199	-0.372
-558.485	629.082	-0.138	-0.452
-557.471	86.619	0.378	0.539
-556.456	-197.902	0.083	0.001
-555.442	-53.570	0.245	-0.144
-554.427	-134.410	0.170	0.027
-553.412	295.664	-0.067	0.159
-552.398	800.000	0.038	0.167
-551.383	241.432	0.147	-0.319
-550.369	-153.562	-0.110	0.010
-549.354	13.296	0.324	-0.323
-548.339	800.000	0.062	-0.276
-547.325	67.987	-0.364	0.481
-546.310	800.000	0.097	-0.429
-545.296	-68.217	0.295	-0.148
-544.281	800.000	-0.085	-0.317
-543.266	202.308	0.154	-0.307
-542.252	-99.696	0.225	0.072
-541.237	-148.729	-0.191	0.020
-540.223	-20.306	-0.327	-0.259
-539.208	663.820	0.043	0.142
-538.193	-21.932	-0.249	0.195
-537.179	334.207	0.062	0.155
-536.164	800.000	-0.097	-0.542
-535.150	335.682	0.242	-0.609
-534.135	-90.677	-0.433	0.160
-533.121	-80.325	0.184	0.079
-532.106	-200.000	-0.059	0.413
-531.091	-200.000	-0.022	0.365
-530.077	-19.861	0.109	0.087
-529.062	-124.869	0.399	0.079
-528.048	-18.448	0.289	0.233
-527.033	-116.615	0.165	0.039
-526.018	126.559	0.213	-0.349
-525.004	-118.267	0.182	-0.041
-523.989	104.811	0.073	-0.112
-522.975	214.687	0.108	-0.221
-521.960	-133.129	-0.422	-0.068
-520.945	-131.673	0.432	-0.072
-519.931	-125.828	0.259	0.050
-518.916	84.594	-0.182	0.258
-517.902	-79.845	-0.412	-0.178
-516.887	-78.686	-0.547	0.240
-515.872	-200.000	-0.043	-0.293
-514.858	28.628	0.094	-0.102
-513.843	-126.394	0.208	0.039
-512.829	-129.494	0.179	-0.032
-511.814	-80.333	-0.348	-0.149
-510.799	-162.274	-0.378	0.024
-509.785	-9.839	-0.265	0.227
-508.770	376.780	-0.056	0.149
-507.756	800.000	-0.044	0.157
-506.741	105.593	-0.250	0.381
-505.726	-91.000	-0.337	-0.124
-504.712	-200.000	-0.000	0.167
-503.697	-172.336	0.518	-0.021
-502.683	4.202	0.291	-0.274
-501.668	64.083	-0.420	-0.545
-500.653	-80.263	-0.217	0.093
-499.639	-82.099	0.297	-0.124
-498.624	51.346	-0.106	-0.130
-497.610	-141.870	0.269	0.034
-496.595	57.567	0.181	0.228
-495.581	-120.127	-0.612	0.134
-494.566	-54.274	-0.465	-0.271
-493.551	800.000	-0.030	0.167
-492.537	800.000	-0.077	-0.320
-491.522	-200.000	0.093	0.552
-490.508	228.344	-0.061	-0.129
-489.493	30.396	0.327	-0.360
-488.478	-98.283	-0.437	-0.143
-487.464	-82.220	-0.288	0.120
-486.449	-96.090	0.259	-0.088
-485.435	-148.044	-0.657	0.069
-484.420	-200.000	-0.061	0.635
-483.405	-130.007	0.102	-0.018
-482.391	-29.027	0.512	0.377
-481.376	-13.834	0.197	-0.164
-480.362	-97.903	0.294	0.097
-479.347	-121.435	0.154	0.033
-478.332	-200.000	0.010	-0.110
-477.318	151.714	0.067	-0.117
-476.303	96.351	0.197	-0.290
-475.289	-122.284	-0.250	0.052
-474.274	-22.265	-0.359	-0.280
-473.259	-122.951	-0.287	0.059
-472.245	-200.000	-0.047	0.377
-471.230	642.625	0.125	0.413
-470.216	-101.965	-0.226	0.070
-469.201	121.179	-0.193	-0.310
-468.186	122.476	0.086	0.139
-467.172	31.298	-0.113	0.125
-466.157	675.634	-0.084	-0.283
-465.143	-67.708	0.283	-0.142
-464.128	-99.222	-0.243	-0.079
-463.113	-68.897	-0.261	-0.129
-462.099	-155.446	0.165	0.014
-461.084	-161.515	0.309	-0.020
-460.070	-71.490	0.212	-0.101
-459.055	371.288	-0.061	0.161
-458.040	-200.000	0.005	-0.540
-457.026	-25.240	-0.145	-0.110
-456.011	57.170	0.078	-0.098
-454.997	424.299	-0.144	-0.400
-453.982	-128.160	0.117	-0.021
-452.968	41.196	-0.293	0.340
-451.953	-135.237	-0.317	-0.048
-450.938	800.000	0.041	0.213
-449.924	-178.690	-0.275	0.008
-448.909	-7.240	-0.241	0.209
-447.895	39.804	0.121	-0.140
-446.880	-113.074	-0.448	0.113
-445.865	87.742	0.041	-0.059
-444.851	106.651	0.176	-0.269
-443.836	-117.960	0.313	0.072
-442.822	-126.328	0.382	0.073
-441.807	-200.000	-0.054	0.457
-440.792	-116.910	0.150	0.035
-439.778	-165.727	0.471	0.026
-438.763	428.493	0.241	0.673
-437.749	-110.207	-0.163	0.043
-436.734	-154.476	-0.306	0.026
-435.719	-84.816	0.110	0.044
-434.705	-93.931	-0.242	-0.085
-433.690	-108.203	-0.185	-0.051
-432.676	-59.355	0.262	0.144
-431.661	72.018	-0.125	0.168
-430.646	9.559	0.014	0.013
-429.632	-200.000	0.010	-0.305
-428.617	-137.524	-0.582	-0.084
-427.603	-115.521	-0.181	-0.043
-426.588	-200.000	0.014	-0.147
-425.573	-200.000	-0.005	-0.557
-424.559	-200.000	0.029	-0.301
-423.544	-143.364	-0.472	0.057
-422.530	-146.048	0.354	-0.040
-421.515	800.000	0.083	0.332
-420.500	96.139	-0.141	0.207
-419.486	-16.028	0.087	-0.071
-418.471	-200.000	-0.023	-0.495
-417.457	-107.745	-0.201	-0.056
-416.442	9.221	-0.504	0.489
-415.428	-200.000	0.002	-0.126
-414.413	179.073	0.097	-0.183
-413.398	73.224	-0.086	-0.115
-412.384	33.354	0.169	-0.188
-411.369	-19.134	0.189	-0.151
-410.355	-17.076	0.238	-0.192
-409.340	-20.272	-0.067	0.053
-408.325	-89.373	-0.398	0.150
-407.311	414.694	-0.078	-0.214
-406.296	-20.003	0.146	-0.116
-405.282	-99.865	-0.253	-0.081
-404.267	-29.685	0.177	-0.129
-403.252	-149.357	0.416	-0.042
-402.238	-24.088	-0.246	-0.188
-401.223	-200.000	-0.495	-0.002
-400.209	-146.683	0.226	0.025
-399.194	451.839	-0.104	0.298
-398.179	551.455	-0.258	0.798
-397.165	642.761	-0.235	0.774
-396.150	-87.978	-0.306	-0.117
-395.136	212.286	0.142	0.288
-394.121	36.445	0.151	-0.171
-393.106	-170.666	0.277	0.012
-392.092	-10.935	0.214	0.181
-391.077	-158.531	0.220	-0.016
-390.063	-9.812	0.379	-0.323
-389.048	-78.793	-0.606	0.264
-388.033	-72.440	-0.105	0.049
-387.019	565.021	0.046	0.143
-386.004	72.316	0.195	0.261
-384.990	-124.045	-0.676	0.135
-383.975	316.209	-0.010	0.023
-382.960	39.342	-0.160	0.184
-381.946	35.836	-0.171	0.193
-380.931	-101.605	0.066	-0.021
-379.917	-44.681	-0.255	-0.163
-378.902	34.776	-0.135	0.151
-377.888	-104.672	0.711	0.208
-376.873	-30.299	-0.242	0.176
-375.858	-116.557	0.227	-0.053
-374.844	438.942	0.013	-0.036
-373.829	-200.000	-0.033	-0.406
-372.815	122.347	0.097	0.155
-371.800	190.613	0.092	-0.178
-370.785	-200.000	0.028	0.278
-369.771	-124.437	0.270	-0.053
-368.756	-200.000	-0.045	0.503
-367.742	-125.614	0.476	0.092
-366.727	520.262	0.011	-0.032
-365.712	94.396	-0.127	0.185
-364.698	71.655	0.082	0.110
-363.683	-9.807	-0.275	0.234
-362.669	113.998	0.244	0.381
-361.654	-79.529	0.244	-0.105
-360.639	445.903	0.156	-0.441
-359.625	-200.000	-0.042	0.258
-358.610	87.956	-0.162	0.231
-357.596	-69.853	0.215	0.105
-356.581	-200.000	0.004	0.290
-355.566	-67.407	-0.173	-0.087
-354.552	800.000	-0.059	-0.221
-353.537	-54.649	0.259	-0.150
-352.523	18.443	-0.303	0.310
-351.508	552.108	-0.047	-0.146
-350.493	-60.550	0.062	0.033
-349.479	-105.654	-0.392	0.113
-348.464	-17.881	-0.279	-0.224
-347.450	-80.705	-0.068	0.029
-346.435	-80.941	0.130	-0.055
-345.420	551.228	0.155	0.480
-344.406	800.000	-0.069	0.261
-343.391	-104.235	-0.164	-0.048
-342.377	177.324	-0.072	-0.135
-341.362	-62.042	-0.172	-0.092
-340.348	108.103	-0.156	-0.238
-339.333	-27.347	0.286	0.213
-338.318	98.804	-0.499	-0.738
-337.304	113.014	0.157	-0.245
-336.289	-15.150	-0.199	-0.163
-335.275	800.000	-0.139	0.556
-334.260	40.330	-0.239	-0.276
-333.245	-200.000	0.005	-0.256
-332.231	17.330	0.381	0.387
-331.216	103.619	0.160	0.241
-330.202	-120.663	0.260	0.056
-329.187	-47.756	0.356	0.220
-328.172	-25.903	-0.330	0.248
-327.158	800.000	0.054	-0.236
-326.143	-160.070	-0.419	-0.029
-325.129	-200.000	-0.042	0.483
-324.114	120.978	-0.202	-0.321
-323.099	800.000	-0.105	-0.403
-322.085	158.417	-0.233	-0.415
-321.070	94.555	-0.385	0.561
-320.056	-67.828	0.478	-0.238
-319.041	-200.000	-0.078	0.544
-318.026	-3.538	0.182	0.162
-317.012	14.553	-0.205	0.205
-315.997	45.640	0.139	0.165
-314.983	248.921	-0.187	0.406
-313.968	400.063	-0.107	0.289
-312.953	-200.000	0.551	0.001
-311.939	-123.634	0.268	-0.054
-310.924	-120.501	-0.420	-0.090
-309.910	-130.199	-0.636	-0.110
-308.895	-23.622	0.362	0.277
-307.880	-40.320	0.479	-0.318
-306.866	-85.576	0.193	-0.076
-305.851	-110.424	-0.475	-0.125
-304.837	-200.000	-0.009	0.338
-303.822	-200.000	0.003	0.195
-302.807	10.150	0.320	-0.311
-301.793	-125.900	-0.432	-0.082
-300.778	-35.698	0.135	0.093
-299.764	183.324	0.092	-0.175
-298.749	91.222	-0.246	0.354
-297.735	-114.696	0.326	0.079
-296.720	-2.177	-0.519	0.465
-295.705	800.000	-0.036	-0.174
-294.691	-34.122	0.295	-0.207
-293.676	-101.248	-0.086	0.027
-292.662	-120.782	-0.588	-0.126
-291.647	-200.000	-0.018	-0.182
-290.632	-31.292	0.269	-0.193
-289.618	-53.664	0.201	-0.117
-288.603	468.793	0.154	-0.444
-287.589	38.485	0.159	-0.181
-286.574	-32.809	-0.184	0.131
-285.559	800.000	0.008	0.035
-284.545	-163.783	0.556	-0.033
-283.530	-47.262	-0.487	-0.302
-282.516	-200.000	-0.004	0.389
-281.501	455.326	-0.170	0.485
-280.486	800.000	0.070	0.309
-279.472	57.511	-0.159	0.198
-278.457	-67.587	-0.209	-0.104
-277.443	128.800	-0.059	-0.097
-276.428	72.214	-0.086	-0.114
-275.413	-142.734	0.304	0.037
-274.399	-3.976	0.130	-0.115
-273.384	96.637	0.083	0.122
-272.370	-49.845	-0.165	0.099
-271.355	-108.266	-0.227	0.062
-270.340	-103.878	0.309	0.092
-269.326	206.518	0.045	-0.089
-268.311	-48.877	-0.174	-0.106
-267.297	800.000	0.048	0.253
-266.282	800.000	-0.096	0.362
-265.267	-136.847	-0.248	0.036
-264.253	-96.821	-0.339	-0.113
-263.238	-48.050	0.029	-0.018
-262.224	-102.269	0.376	0.115
-261.209	-143.690	-0.243	-0.029
-260.195	-36.443	0.377	0.259
-259.180	-200.000	-0.057	0.363
-258.165	-85.039	-0.281	-0.112
-257.151	-114.044	0.369	0.090
-256.136	800.000	0.096	-0.417
-255.122	202.624	0.063	0.124
-254.107	-200.000	0.016	-0.119
-253.092	-200.000	-0.020	0.425
-252.078	-37.389	0.319	-0.217
-251.063	14.912	0.110	-0.110
-250.049	-178.633	0.033	0.001
-249.034	800.000	-0.118	-0.583
-248.019	663.152	-0.106	-0.352
-247.005	-92.915	-0.354	0.125
-245.990	-139.893	0.200	-0.027
-244.976	33.479	0.179	0.198
-243.961	-126.979	-0.704	0.131
-242.946	36.387	0.048	0.054
-241.932	5.218	0.423	0.397
-240.917	-200.000	-0.097	0.761
-239.903	-200.000	-0.038	0.560
-238.888	-35.747	0.101	0.069
-237.873	152.471	0.052	-0.090
-236.859	-25.896	-0.185	-0.138
-235.844	-200.000	-0.052	-0.000
-234.830	800.000	-0.022	0.094
-233.815	-200.000	0.042	0.256
-232.800	-146.647	0.468	0.051
-231.786	-142.077	-0.281	0.035
-230.771	-13.306	0.338	0.279
-229.757	8.941	-0.058	-0.056
-228.742	307.222	-0.189	-0.451
-227.727	-18.216	0.061	0.048
-226.713	-123.449	-0.204	0.041
-225.698	45.248	0.220	0.259
-224.684	2.167	-0.083	-0.076
-223.669	800.000	0.041	-0.217
-222.655	226.318	-0.264	-0.547
-221.640	-86.609	-0.168	-0.065
-220.625	-48.621	-0.344	-0.210
-219.611	30.250	0.189	0.206
-218.596	506.257	-0.044	0.130
-217.582	458.042	0.159	-0.454
-216.567	800.000	0.142	-0.522
-215.552	-200.000	-0.022	-0.138
-214.538	-200.000	0.097	0.611
-213.523	155.987	0.050	0.088
-212.509	-103.028	0.099	-0.030
-211.494	-78.203	-0.236	0.103
-210.479	-100.633	-0.391	0.122
-209.465	73.133	0.364	-0.485
-208.450	-38.758	0.387	0.259
-207.436	-64.740	0.456	-0.234
-206.421	406.680	-0.116	-0.313
-205.406	49.742	-0.326	0.391
-204.392	800.000	-0.076	0.300
-203.377	-6.305	-0.262	-0.227
-202.363	-200.000	0.016	-0.113
-201.348	397.482	0.092	0.247
-200.333	-200.000	-0.020	-0.165
-199.319	74.138	0.157	-0.211
-198.304	-87.279	0.263	-0.101
-197.290	800.000	0.017	0.092
-196.275	-200.000	0.010	0.238
-195.260	-51.037	0.191	-0.114
-194.246	146.832	0.153	0.262
-193.231	-25.386	0.133	0.100
-192.217	310.015	0.181	0.433
-191.202	-200.000	0.018	-0.403
-190.187	-2.145	0.136	-0.121
-189.173	-154.028	-0.368	0.031
-188.158	436.888	-0.074	-0.205
-187.144	-114.556	0.259	-0.063
-186.129	800.000	0.025	0.094
-185.114	-190.252	0.202	0.003
-184.100	313.462	0.087	0.209
-183.085	-200.000	-0.080	-0.526
-182.071	800.000	0.038	0.194
-181.056	112.657	0.105	-0.162
-180.042	693.689	0.274	-0.920
-179.027	662.195	0.125	0.411
-178.012	-69.366	-0.158	-0.077
-176.998	231.404	-0.036	0.075
-175.983	232.127	-0.123	0.258
-174.969	-200.000	-0.000	0.163
-173.954	416.588	-0.042	0.114
-172.939	-200.000	-0.008	-0.190
-171.925	-200.000	0.060	-0.567
-170.910	179.073	0.016	-0.030
-169.896	44.465	-0.289	-0.338
-168.881	-136.915	0.356	0.051
-167.866	130.374	0.044	-0.072
-166.852	112.397	0.117	-0.180
-165.837	-6.996	0.236	-0.204
-164.823	162.164	0.060	0.107
-163.808	-147.085	0.511	0.055
-162.793	401.864	-0.050	0.134
-161.779	-106.552	-0.684	0.192
-160.764	800.000	-0.168	-0.634
-159.750	-200.000	-0.085	-0.486
-158.735	69.029	0.184	-0.241
-157.720	-45.212	-0.191	-0.120
-156.706	-28.428	-0.496	-0.363
-155.691	50.669	0.022	0.026
-154.677	13.023	0.191	-0.187
-153.662	-200.000	0.034	-0.275
-152.647	-111.508	-0.142	-0.036
-151.633	-200.000	-0.023	0.511
-150.618	800.000	-0.035	0.188
-149.604	-200.000	-0.004	-0.405
-148.589	-142.761	-0.425	-0.052
-147.574	112.610	-0.201	0.310
-146.560	228.607	-0.136	0.282
-145.545	800.000	0.089	-0.367
-144.531	3.997	-0.185	-0.172
-143.516	-0.973	-0.100	0.089
-142.502	-2.375	0.350	0.311
-141.487	-200.000	-0.025	-0.209
-140.472	-59.122	-0.274	-0.149
-139.458	-64.485	0.259	-0.133
-138.443	600.739	-0.020	-0.062
-137.429	-75.299	0.181	-0.082
-136.414	14.088	0.285	-0.281
-135.399	-137.582	0.261	0.037
-134.385	28.817	0.196	-0.211
-133.370	35.115	-0.262	-0.291
-132.356	-69.661	-0.446	-0.216
-131.341	-26.739	-0.279	-0.207
-130.326	-190.363	0.063	-0.001
-129.312	-200.000	-0.026	-0.186
-128.297	-42.151	0.256	-0.166
-127.283	92.047	0.266	-0.381
-126.268	-101.710	-0.507	-0.155
-125.253	295.816	-0.282	-0.657
-124.239	324.300	0.145	-0.353
-123.224	-78.316	0.447	0.194
-122.210	521.533	0.145	-0.433
