DTS Sentinel unit serial number:	SN409020Multiplexer serial number:	ORYXHardware model number:	OX4-SRSoftware version number:	ORYX F/W v3.00 Oryx Data Collector v3.7.2.0data status	okinstallation	HaddamTimeLapsedifferential loss correction	single-endedforward channel	channel 3reverse channel	N/Adate	2011/06/21time	17:46:17forward acquisition time	30.00reverse acquisition time	0.00gamma	498.7831k internal	0.1832k external	0.1832temperature offset calibration	1.0074default loss term (dB/km)	0.3790temperature slope calibration	1.3530multiplexer offset coefficient	1.0000multiplexer slope coefficient	1.0000fibre end	0.00T internal ref (°C)	35.37T ext. ref 1 (°C)	29.52T ext. ref 2 (°C)	0.27length (m)	temperature (°C)	Stokes	anti-Stokes-747.200	-94.566	-0.440	-0.151
-746.185	-200.000	-0.010	0.228
-745.171	-45.083	-0.174	0.110
-744.156	-114.917	0.446	0.107
-743.142	-79.990	0.376	-0.160
-742.127	162.585	0.329	0.587
-741.112	237.722	-0.133	0.281
-740.098	-142.164	-0.133	0.017
-739.083	-140.688	0.197	-0.026
-738.069	-23.429	0.242	0.184
-737.054	-149.734	-0.425	0.042
-736.039	-47.961	-0.193	-0.118
-735.025	-8.329	-0.342	-0.292
-734.010	133.320	-0.249	-0.409
-732.996	15.314	-0.263	-0.262
-731.981	53.787	0.120	-0.146
-730.966	-65.524	0.342	0.174
-729.952	-77.049	0.350	-0.154
-728.937	-200.000	-0.049	0.618
-727.923	-186.050	0.331	-0.006
-726.908	-119.029	-0.264	-0.058
-725.894	19.340	-0.339	0.346
-724.879	-72.938	-0.348	-0.162
-723.864	390.847	-0.102	-0.271
-722.850	-200.000	0.009	0.127
-721.835	800.000	-0.068	0.251
-720.821	-146.116	0.541	-0.060
-719.806	86.585	-0.162	-0.226
-718.791	-143.978	0.218	0.026
-717.777	-78.263	-0.063	0.027
-716.762	-130.962	-0.114	0.019
-715.748	-163.761	-0.164	0.010
-714.733	-33.737	-0.292	0.204
-713.718	-200.000	0.006	0.275
-712.704	-200.000	-0.013	0.226
-711.689	-148.628	-0.099	0.010
-710.675	-93.699	-0.448	0.156
-709.660	114.162	-0.097	-0.150
-708.645	319.736	0.125	-0.302
-707.631	-200.000	0.012	-0.247
-706.616	89.920	-0.169	0.240
-705.602	-200.000	-0.013	-0.455
-704.587	-200.000	0.020	-0.510
-703.572	34.720	-0.113	-0.125
-702.558	-200.000	-0.039	-0.387
-701.543	13.769	-0.233	-0.229
-700.529	-45.892	0.158	0.099
-699.514	46.607	-0.196	0.231
-698.499	619.767	0.033	-0.107
-697.485	-200.000	-0.011	-0.198
-696.470	-200.000	0.007	-0.067
-695.456	-200.000	-0.021	0.218
-694.441	445.741	-0.116	-0.325
-693.426	166.168	0.126	0.227
-692.412	-14.630	0.291	0.237
-691.397	-113.997	0.288	-0.070
-690.383	128.944	0.063	0.103
-689.368	13.905	-0.249	-0.245
-688.354	-200.000	0.023	-0.178
-687.339	296.107	0.112	-0.262
-686.324	-85.588	-0.327	0.128
-685.310	800.000	0.045	0.182
-684.295	754.525	-0.081	-0.278
-683.281	800.000	-0.092	-0.366
-682.266	115.129	-0.046	0.072
-681.251	-167.601	-0.314	-0.016
-680.237	76.456	-0.350	0.470
-679.222	-134.033	0.070	0.011
-678.208	421.201	0.158	-0.431
-677.193	19.116	0.113	-0.115
-676.178	-186.972	0.266	-0.005
-675.164	521.886	0.179	0.535
-674.149	-200.000	-0.025	0.354
-673.135	-165.076	0.676	0.037
-672.120	333.552	-0.218	-0.536
-671.105	530.644	-0.183	-0.551
-670.091	-129.902	0.269	0.046
-669.076	-89.513	0.408	-0.151
-668.062	-200.000	-0.078	-0.450
-667.047	-200.000	0.055	0.333
-666.032	231.489	0.040	-0.084
-665.018	-158.005	-0.203	-0.015
-664.003	-124.057	-0.307	-0.061
-662.989	5.855	-0.315	-0.295
-661.974	231.662	0.042	-0.088
-660.959	509.510	0.133	0.394
-659.945	-38.326	0.313	0.209
-658.930	-163.165	-0.308	0.018
-657.916	-192.760	0.200	-0.002
-656.901	784.627	-0.075	-0.261
-655.886	-171.514	-0.208	0.009
-654.872	-26.557	-0.211	0.156
-653.857	181.201	0.164	-0.306
-652.843	40.527	0.339	-0.387
-651.828	800.000	0.038	0.210
-650.814	-158.495	-0.222	0.016
-649.799	41.408	0.084	-0.096
-648.784	-200.000	0.000	-0.274
-647.770	-69.940	-0.149	0.072
-646.755	-1.337	-0.209	0.187
-645.741	-131.004	-0.445	0.074
-644.726	-200.000	-0.037	-0.354
-643.711	-45.725	-0.031	-0.019
-642.697	-54.213	-0.242	0.138
-641.682	414.450	0.124	0.335
-640.668	2.073	0.201	0.183
-639.653	-124.367	-0.191	-0.037
-638.638	-118.644	0.372	0.082
-637.624	348.314	-0.081	-0.202
-636.609	26.090	0.090	0.095
-635.595	800.000	-0.133	0.547
-634.580	95.679	0.098	-0.142
-633.565	60.961	-0.138	0.173
-632.551	-102.963	-0.450	-0.134
-631.536	-100.771	0.520	-0.161
-630.522	97.469	0.242	-0.353
-629.507	800.000	-0.027	0.130
-628.492	-15.185	0.246	0.199
-627.478	-130.064	0.079	0.014
-626.463	370.111	-0.150	0.386
-625.449	-164.323	0.361	0.021
-624.434	-54.417	-0.562	0.321
-623.419	-200.000	0.001	-0.272
-622.405	-106.189	-0.188	-0.053
-621.390	-143.125	-0.111	0.013
-620.376	-31.868	-0.272	-0.192
-619.361	-61.931	0.245	-0.129
-618.346	-62.348	0.362	0.190
-617.332	-200.000	0.006	-0.373
-616.317	-200.000	0.027	-0.542
-615.303	-111.370	0.171	0.044
-614.288	-200.000	0.019	0.418
-613.273	557.744	-0.056	0.173
-612.259	-102.509	0.320	0.096
-611.244	-70.669	0.288	-0.137
-610.230	-10.166	-0.471	-0.395
-609.215	-13.005	-0.259	-0.213
-608.201	-200.000	0.017	0.295
-607.186	359.554	0.092	0.232
-606.171	-121.658	0.394	-0.082
-605.157	-25.197	-0.020	0.015
-604.142	41.479	-0.082	0.093
-603.128	-200.000	0.006	-0.114
-602.113	263.165	0.104	-0.230
-601.098	-92.908	-0.392	0.138
-600.084	114.582	0.172	0.265
-599.069	275.844	0.183	0.411
-598.055	800.000	-0.049	0.174
-597.040	-200.000	0.036	-0.533
-596.025	-200.000	-0.024	-0.367
-595.011	282.471	0.075	-0.171
-593.996	-84.549	-0.070	0.028
-592.982	-15.552	-0.067	0.054
-591.967	12.180	-0.245	0.238
-590.952	-121.121	-0.451	0.095
-589.938	738.782	-0.074	-0.251
-588.923	77.799	-0.133	0.179
-587.909	413.011	-0.059	-0.159
-586.894	-44.015	-0.151	-0.096
-585.879	-144.983	0.070	0.008
-584.865	-164.992	-0.109	-0.006
-583.850	96.617	-0.067	0.097
-582.836	-126.478	-0.248	-0.046
-581.821	166.549	-0.095	-0.171
-580.806	-35.969	-0.316	0.215
-579.792	97.120	-0.256	0.372
-578.777	-89.847	-0.230	0.084
-577.763	113.736	-0.017	0.026
-576.748	-34.904	-0.115	-0.079
-575.733	-43.952	0.164	0.104
-574.719	-75.030	-0.317	0.142
-573.704	20.271	-0.278	0.283
-572.690	-110.004	-0.409	0.107
-571.675	-47.912	0.241	-0.147
-570.661	-200.000	0.037	0.390
-569.646	-30.098	0.102	0.073
-568.631	-100.030	-0.232	-0.072
-567.617	-200.000	0.022	-0.418
-566.602	-200.000	0.070	-0.407
-565.588	-35.948	-0.302	-0.205
-564.573	41.443	-0.095	-0.108
-563.558	-155.606	0.421	-0.034
-562.544	-67.503	-0.213	-0.105
-561.529	-95.871	0.170	0.057
-560.515	-37.517	0.430	0.288
-559.500	800.000	0.065	-0.299
-558.485	800.000	0.070	-0.259
-557.471	16.380	-0.249	0.248
-556.456	268.965	-0.135	-0.300
-555.442	297.592	-0.090	-0.209
-554.427	-200.000	-0.013	-0.180
-553.412	90.351	0.099	0.140
-552.398	-31.198	0.420	-0.298
-551.383	800.000	0.082	0.367
-550.369	-103.970	0.233	0.068
-549.354	-184.884	-0.461	-0.009
-548.339	337.186	-0.089	-0.218
-547.325	-144.757	0.458	0.052
-546.310	-38.420	-0.094	0.062
-545.296	800.000	-0.042	0.202
-544.281	670.489	0.140	0.460
-543.266	13.780	-0.197	-0.193
-542.252	410.075	0.127	0.340
-541.237	-144.534	0.210	-0.024
-540.223	-118.681	-0.612	-0.135
-539.208	-200.000	-0.004	0.068
-538.193	223.852	0.204	-0.416
-537.179	-136.837	0.225	0.032
-536.164	365.784	0.166	-0.423
-535.150	331.817	-0.117	0.287
-534.135	-91.482	-0.364	0.130
-533.121	-5.740	-0.360	0.310
-532.106	12.264	0.307	-0.298
-531.091	305.153	-0.184	-0.432
-530.077	-82.576	0.138	-0.056
-529.062	-17.864	0.061	-0.048
-528.048	87.653	-0.111	-0.155
-527.033	1.360	0.446	-0.403
-526.018	800.000	-0.017	0.092
-525.004	-200.000	-0.008	-0.298
-523.989	-99.577	-0.593	0.186
-522.975	46.224	0.174	0.203
-521.960	259.575	-0.058	0.127
-520.945	227.480	-0.130	-0.267
-519.931	111.911	0.051	0.077
-518.916	-39.884	0.236	-0.155
-517.902	-21.836	-0.073	0.056
-516.887	9.073	-0.166	-0.157
-515.872	28.969	0.189	-0.202
-514.858	29.882	-0.235	0.252
-513.843	-41.963	-0.057	0.037
-512.829	83.729	-0.157	-0.216
-511.814	-70.672	-0.244	-0.116
-510.799	463.757	-0.104	0.294
-509.785	-5.285	-0.143	0.123
-508.770	-101.309	0.184	-0.056
-507.756	30.905	-0.265	-0.286
-506.741	141.039	0.216	0.360
-505.726	494.864	0.041	0.120
-504.712	-138.783	-0.143	-0.019
-503.697	14.195	0.322	0.316
-502.683	290.071	0.249	-0.570
-501.668	270.448	0.045	-0.100
-500.653	800.000	-0.028	-0.101
-499.639	18.730	0.243	0.244
-498.624	213.171	0.223	0.445
-497.610	-200.000	-0.033	0.460
-496.595	-200.000	0.038	-0.232
-495.581	-72.470	-0.168	-0.078
-494.566	-94.476	0.209	-0.071
-493.551	-65.773	0.315	-0.158
-492.537	-0.394	-0.338	0.302
-491.522	-93.595	-0.306	0.106
-490.508	-78.914	-0.236	0.101
-489.493	-200.000	-0.009	0.098
-488.478	-75.584	-0.705	-0.314
-487.464	-27.451	0.229	0.167
-486.449	-68.629	-0.263	0.128
-485.435	-46.207	-0.223	-0.137
-484.420	-20.313	0.380	-0.294
-483.405	800.000	0.050	0.221
-482.391	-200.000	0.079	0.494
-481.376	203.755	-0.081	-0.158
-480.362	-76.056	-0.150	0.066
-479.347	426.860	0.124	0.338
-478.332	-37.907	0.231	0.154
-477.318	-200.000	0.048	0.313
-476.303	72.964	0.146	0.192
-475.289	-101.568	0.237	0.072
-474.274	-68.745	0.299	0.144
-473.259	-22.636	-0.127	-0.096
-472.245	-165.175	0.037	0.002
-471.230	-8.352	0.244	0.206
-470.216	-192.563	-0.430	-0.005
-469.201	-81.936	0.502	0.205
-468.186	800.000	-0.102	0.485
-467.172	-20.777	0.368	-0.283
-466.157	-33.187	0.208	-0.145
-465.143	800.000	-0.121	0.466
-464.128	66.275	-0.111	0.142
-463.113	-34.296	0.366	0.252
-462.099	-200.000	0.044	0.272
-461.084	-4.954	-0.396	-0.342
-460.070	548.189	0.035	-0.106
-459.055	-171.731	0.348	-0.014
-458.040	-200.000	0.028	0.242
-457.026	-88.938	-0.274	0.102
-456.011	766.199	0.118	-0.405
-454.997	-200.000	-0.048	0.300
-453.982	173.724	-0.122	-0.222
-452.968	129.127	-0.084	0.135
-451.953	22.575	0.218	-0.223
-450.938	-14.088	0.290	0.235
-449.924	-144.355	-0.193	0.022
-448.909	-148.697	-0.352	0.035
-447.895	-18.587	-0.077	-0.060
-446.880	-91.089	0.419	-0.150
-445.865	-200.000	0.413	0.002
-444.851	-180.483	0.102	-0.003
-443.836	-98.430	0.136	-0.043
-442.822	113.208	-0.173	-0.264
-441.807	800.000	-0.099	-0.437
-440.792	-1.297	-0.134	-0.119
-439.778	800.000	0.024	0.093
-438.763	-192.124	0.228	0.003
-437.749	-49.471	0.089	-0.053
-436.734	-106.328	0.364	-0.102
-435.719	787.157	-0.059	0.205
-434.705	39.015	0.218	-0.244
-433.690	-54.368	0.300	-0.170
-432.676	-27.011	-0.055	-0.040
-431.661	275.881	-0.029	-0.065
-430.646	-114.926	0.274	-0.065
-429.632	-178.378	-0.199	-0.006
-428.617	108.266	-0.255	-0.382
-427.603	98.382	-0.168	-0.243
-426.588	17.995	0.440	-0.440
-425.573	-154.049	0.474	0.040
-424.559	-200.000	0.053	0.436
-423.544	92.294	-0.247	0.350
-422.530	194.300	-0.139	0.266
-421.515	-42.861	-0.269	-0.171
-420.500	28.384	-0.092	-0.098
-419.486	-94.211	-0.378	-0.129
-418.471	143.266	0.103	0.172
-417.457	113.230	-0.157	-0.239
-416.442	-87.855	-0.182	0.068
-415.428	-140.095	0.046	0.006
-414.413	-75.046	-0.233	-0.104
-413.398	-200.000	0.287	0.001
-412.384	-46.730	0.272	0.166
-411.369	-200.000	-0.034	-0.361
-410.355	-110.039	0.395	0.103
-409.340	221.805	0.026	0.052
-408.325	96.199	0.161	0.231
-407.311	-139.758	0.412	0.054
-406.296	-57.708	-0.290	0.159
-405.282	45.943	0.140	0.163
-404.267	155.001	-0.315	-0.544
-403.252	-54.992	-0.109	-0.062
-402.238	142.448	-0.147	-0.245
-401.223	-200.000	0.021	0.199
-400.209	-200.000	-0.041	-0.280
-399.194	345.473	0.077	0.190
-398.179	312.053	-0.086	-0.202
-397.165	-120.665	-0.140	0.029
-396.150	45.415	-0.066	-0.076
-395.136	5.781	-0.143	-0.132
-394.121	-200.000	0.019	0.310
-393.106	800.000	0.055	0.196
-392.092	-169.911	-0.221	0.010
-391.077	-57.781	0.219	-0.120
-390.063	-124.444	-0.266	-0.051
-389.048	6.387	0.147	-0.137
-388.033	-5.472	0.196	0.169
-387.019	115.460	0.277	0.425
-386.004	368.314	-0.084	-0.212
-384.990	-60.048	0.425	0.226
-383.975	-178.444	-0.627	-0.018
-382.960	-200.000	0.019	-0.128
-381.946	508.782	0.031	-0.092
-380.931	-63.738	-0.352	0.180
-379.917	-110.544	0.315	-0.081
-378.902	88.718	0.315	0.439
-377.888	156.367	-0.047	0.081
-376.873	-35.617	0.436	0.296
-375.858	81.324	-0.294	-0.398
-374.844	-36.180	0.163	0.110
-373.829	-129.520	0.230	-0.039
-372.815	-125.937	-0.186	0.035
-371.800	0.798	0.106	0.095
-370.785	702.055	0.019	-0.062
-369.771	-200.000	0.064	-0.546
-368.756	-114.723	0.127	-0.030
-367.742	680.097	-0.163	-0.534
-366.727	66.054	0.265	-0.336
-365.712	800.000	0.025	-0.100
-364.698	-84.242	-0.486	-0.192
-363.683	-55.338	-0.516	0.289
-362.669	-200.000	-0.003	-0.101
-361.654	800.000	-0.063	0.292
-360.639	-40.482	-0.400	0.259
-359.625	-51.934	0.304	-0.176
-358.610	52.480	0.394	-0.471
-357.596	39.985	-0.235	-0.264
-356.581	18.608	-0.296	0.296
-355.566	32.349	-0.226	-0.244
-354.552	-126.719	-0.488	-0.089
-353.537	1.305	0.297	-0.266
-352.523	167.331	-0.294	-0.524
-351.508	-83.972	-0.342	-0.136
-350.493	81.718	-0.251	0.340
-349.479	81.674	-0.283	0.384
-348.464	98.613	-0.146	-0.211
-347.450	253.753	-0.119	-0.256
-346.435	-97.051	0.130	0.042
-345.420	-200.000	0.005	0.534
-344.406	297.650	-0.133	0.306
-343.391	-11.381	-0.063	-0.052
-342.377	229.437	0.110	-0.226
-341.362	-120.882	-0.179	-0.037
-340.348	-200.000	-0.079	-0.602
-339.333	-107.719	0.375	-0.102
-338.318	-95.879	0.289	-0.096
-337.304	-97.583	-0.208	0.067
-336.289	-5.191	0.124	0.107
-335.275	-75.418	0.492	0.218
-334.260	41.357	-0.133	-0.151
-333.245	-78.180	-0.173	0.074
-332.231	52.141	-0.156	0.186
-331.216	-11.992	0.214	0.175
-330.202	23.957	-0.275	-0.284
-329.187	800.000	-0.129	0.463
-328.172	206.095	0.193	0.376
-327.158	64.327	-0.274	0.346
-326.143	32.292	-0.241	-0.260
-325.129	-20.482	-0.291	-0.223
-324.114	-66.764	-0.203	0.100
-323.099	-136.992	0.213	-0.030
-322.085	496.668	0.074	0.214
-321.070	-39.977	0.323	-0.210
-320.056	-143.077	0.021	0.003
-319.041	126.663	0.169	-0.269
-318.026	-135.692	0.242	0.035
-317.012	-24.488	0.375	-0.278
-315.997	-154.015	-0.130	0.011
-314.983	124.116	-0.039	0.061
-313.968	-103.189	0.343	0.101
-312.953	800.000	0.163	-0.646
-311.939	-81.171	0.333	-0.137
-310.924	12.396	0.134	-0.129
-309.910	135.676	0.347	-0.564
-308.895	-200.000	-0.002	0.256
-307.880	271.186	0.038	-0.084
-306.866	633.008	-0.115	0.366
-305.851	800.000	0.112	0.482
-304.837	800.000	-0.080	0.422
-303.822	-167.815	-0.458	-0.022
-302.807	671.473	-0.116	0.376
-301.793	-151.710	0.552	0.050
-300.778	294.942	0.154	0.354
-299.764	-70.764	-0.033	0.016
-298.749	77.102	-0.363	0.481
-297.735	757.482	-0.073	-0.249
-296.720	-33.094	0.420	-0.290
-295.705	65.373	0.184	-0.233
-294.691	-141.444	-0.096	-0.012
-293.676	800.000	-0.083	-0.353
-292.662	800.000	-0.055	-0.256
-291.647	231.301	0.154	-0.317
-290.632	-84.047	-0.406	-0.160
-289.618	140.039	0.156	-0.257
-288.603	-105.568	-0.221	-0.062
-287.589	156.958	0.176	0.304
-286.574	-200.000	0.016	0.264
-285.559	-103.789	-0.660	0.191
-284.545	-200.000	0.056	-0.886
-283.530	-40.170	0.306	-0.198
-282.516	-106.651	-0.465	0.128
-281.501	-63.483	-0.073	-0.037
-280.486	-115.961	0.320	-0.074
-279.472	-180.751	0.616	0.015
-278.457	-200.000	0.009	0.140
-277.443	800.000	0.032	-0.161
-276.428	161.244	-0.082	0.143
-275.413	-7.460	-0.134	0.113
-274.399	-63.955	0.360	-0.183
-273.384	-79.603	0.364	0.152
-272.370	-74.309	0.119	-0.053
-271.355	-113.407	-0.242	0.059
-270.340	445.862	0.067	0.184
-269.326	-200.000	-0.071	0.534
-268.311	-111.550	-0.213	-0.054
-267.297	487.813	0.078	0.223
-266.282	257.040	-0.147	0.316
-265.267	-45.447	-0.234	0.144
-264.253	75.389	-0.157	0.207
-263.238	-194.239	-0.545	-0.005
-262.224	338.325	0.045	-0.111
-261.209	800.000	-0.081	0.414
-260.195	-200.000	0.017	0.222
-259.180	-26.933	-0.180	0.131
-258.165	31.827	-0.083	-0.089
-257.151	800.000	-0.079	0.376
-256.136	-44.415	0.121	0.075
-255.122	800.000	0.042	0.160
-254.107	-44.787	0.385	-0.239
-253.092	248.183	-0.255	-0.540
-252.078	-37.561	0.342	-0.226
-251.063	19.031	-0.247	-0.247
-250.049	800.000	0.058	-0.297
-249.034	468.110	0.047	-0.133
-248.019	136.716	0.225	-0.366
-247.005	532.991	0.118	0.349
-245.990	82.477	-0.174	-0.235
-244.976	-89.620	-0.366	-0.133
-243.961	48.687	0.323	0.377
-242.946	-200.000	0.038	-0.336
-241.932	800.000	-0.109	-0.417
-240.917	-200.000	0.017	0.436
-239.903	800.000	-0.027	-0.106
-238.888	75.042	0.195	0.256
-237.873	800.000	-0.067	0.250
-236.859	-36.812	0.408	0.272
-235.844	-70.072	-0.075	0.035
-234.830	-117.252	-0.424	-0.095
-233.815	429.864	-0.027	-0.074
-232.800	96.541	0.149	0.213
-231.786	-200.000	0.010	0.363
-230.771	-73.287	-0.358	-0.163
-229.757	636.366	0.037	-0.119
-228.742	-198.674	0.176	0.001
-227.727	36.686	0.239	0.263
-226.713	83.221	0.059	0.080
-225.698	17.834	-0.164	-0.162
-224.684	-200.000	-0.002	0.034
-223.669	-90.501	-0.165	-0.059
-222.655	-79.730	0.182	-0.076
-221.640	-200.000	0.006	0.126
-220.625	-121.927	-0.451	-0.092
-219.611	33.950	0.244	0.264
-218.596	71.324	-0.348	-0.450
-217.582	-3.272	-0.144	-0.125
-216.567	-88.984	0.636	-0.233
-215.552	-128.949	0.283	0.049
-214.538	350.235	0.154	0.380
-213.523	146.117	-0.056	-0.094
-212.509	603.665	0.091	-0.284
-211.494	430.763	-0.078	-0.210
-210.479	503.725	-0.061	0.176
-209.465	-99.908	0.192	0.059
-208.450	410.380	0.073	0.193
-207.436	-126.394	0.205	-0.038
-206.421	-29.830	0.102	0.072
-205.406	-200.000	0.018	0.299
-204.392	209.467	-0.220	-0.429
-203.377	-125.631	-0.374	-0.070
-202.363	-200.000	-0.063	-0.362
-201.348	69.890	0.030	-0.038
-200.333	150.808	-0.103	0.175
-199.319	-200.000	-0.004	-0.526
-198.304	-200.000	-0.059	-0.532
-197.290	800.000	0.027	0.144
-196.275	-173.676	0.665	0.024
-195.260	-148.604	0.391	-0.039
-194.246	-200.000	-0.023	-0.417
-193.231	-29.267	-0.231	-0.164
-192.217	14.771	0.337	0.327
-191.202	135.846	0.174	0.282
-190.187	-60.471	-0.507	0.267
-189.173	-125.657	-0.315	0.059
-188.158	-31.166	0.255	0.178
-187.144	-94.402	0.568	0.192
-186.129	800.000	-0.071	0.336
-185.114	310.675	0.200	0.466
-184.100	-200.000	0.024	-0.155
-183.085	-56.724	0.110	-0.060
-182.071	800.000	-0.032	0.123
-181.056	-40.737	-0.342	-0.220
-180.042	-200.000	-0.021	0.186
-179.027	-200.000	-0.071	0.407
-178.012	31.517	-0.223	-0.238
-176.998	-92.913	0.107	-0.037
-175.983	6.686	0.275	-0.254
-174.969	691.918	-0.081	0.264
-173.954	800.000	-0.049	0.239
-172.939	599.670	-0.103	-0.321
-171.925	553.725	-0.177	0.531
-170.910	-200.000	0.009	-0.080
-169.896	-105.666	0.220	-0.061
-168.881	100.322	0.184	-0.265
-167.866	-200.000	0.017	-0.207
-166.852	800.000	0.102	0.509
-165.837	800.000	-0.074	0.338
-164.823	-165.837	0.193	-0.010
-163.808	572.803	-0.131	-0.399
-162.793	153.454	0.091	-0.154
-161.779	-199.238	0.467	0.003
-160.764	217.414	0.061	-0.121
-159.750	650.257	-0.055	0.175
-158.735	-128.189	0.381	-0.067
-157.720	-75.268	-0.269	-0.119
-156.706	-94.369	0.170	0.057
-155.691	-37.131	-0.744	0.493
-154.677	83.988	-0.261	0.354
-153.662	800.000	0.159	-0.618
-152.647	-91.859	-0.043	-0.015
-151.633	-79.293	0.130	0.054
-150.618	-63.590	-0.227	-0.115
-149.604	-106.762	-0.277	-0.076
-148.589	-70.041	0.073	-0.034
-147.574	-165.295	0.208	-0.011
-146.560	-119.838	-0.356	0.075
-145.545	800.000	0.021	-0.092
-144.531	-97.464	-0.516	-0.165
-143.516	-200.000	0.109	-0.673
-142.502	370.745	-0.045	-0.115
-141.487	76.231	-0.189	-0.249
-140.472	114.124	-0.104	-0.157
-139.458	16.359	0.355	-0.347
-138.443	-200.000	0.036	-0.200
-137.429	-118.338	-0.246	-0.054
-136.414	-89.866	0.415	0.149
-135.399	-34.647	-0.294	0.199
-134.385	705.676	-0.125	0.410
-133.370	-200.000	0.002	0.233
-132.356	10.193	-0.098	-0.093
-131.341	800.000	-0.131	0.531
-130.326	-132.738	0.191	0.030
-129.312	270.885	0.149	0.327
-128.297	-126.606	0.074	-0.013
-127.283	-84.109	-0.271	0.106
-126.268	590.558	0.041	-0.125
-125.253	-114.590	-0.387	-0.091
-124.239	-83.328	-0.555	0.220
-123.224	-98.390	-0.460	0.145
-122.210	-200.000	-0.018	-0.144
