DTS Sentinel unit serial number:	SN409020Multiplexer serial number:	ORYXHardware model number:	OX4-SRSoftware version number:	ORYX F/W v3.00 Oryx Data Collector v3.7.2.0data status	okinstallation	HaddamTimeLapsedifferential loss correction	single-endedforward channel	channel 3reverse channel	N/Adate	2011/06/21time	19:16:17forward acquisition time	30.00reverse acquisition time	0.00gamma	498.7831k internal	0.1798k external	0.1798temperature offset calibration	1.0074default loss term (dB/km)	0.3790temperature slope calibration	1.3530multiplexer offset coefficient	1.0000multiplexer slope coefficient	1.0000fibre end	0.00T internal ref (°C)	34.25T ext. ref 1 (°C)	26.22T ext. ref 2 (°C)	0.23length (m)	temperature (°C)	Stokes	anti-Stokes-747.200	-161.037	-0.380	0.025
-746.185	152.878	0.109	0.193
-745.171	50.619	-0.269	0.330
-744.156	-60.670	0.098	0.054
-743.142	483.274	-0.069	-0.205
-742.127	786.407	0.167	0.596
-741.112	800.000	-0.075	-0.297
-740.098	-146.440	-0.359	0.040
-739.083	-89.201	-0.201	0.076
-738.069	-200.000	0.036	0.400
-737.054	-95.962	0.280	0.096
-736.039	-105.617	-0.329	-0.096
-735.025	-44.609	0.148	0.095
-734.010	589.446	-0.119	-0.380
-732.996	-69.149	-0.231	-0.114
-731.981	-200.000	-0.011	-0.615
-730.966	-52.545	-0.229	-0.136
-729.952	-54.717	0.140	-0.082
-728.937	365.822	-0.165	-0.431
-727.923	-44.901	0.217	0.139
-726.908	800.000	-0.107	0.492
-725.894	93.237	0.153	0.224
-724.879	-200.000	0.032	0.477
-723.864	173.181	0.196	-0.365
-722.850	-200.000	0.005	-0.047
-721.835	800.000	0.111	-0.457
-720.821	14.698	0.366	-0.369
-719.806	217.896	-0.031	0.064
-718.791	800.000	-0.013	-0.069
-717.777	35.173	0.256	0.291
-716.762	113.819	0.107	0.169
-715.748	117.019	-0.266	-0.423
-714.733	55.202	0.090	0.113
-713.718	398.765	-0.125	-0.338
-712.704	-185.262	-0.125	-0.002
-711.689	-45.880	0.105	-0.067
-710.675	140.797	0.160	0.274
-709.660	-200.000	0.034	0.242
-708.645	554.076	0.216	-0.675
-707.631	-200.000	0.006	0.086
-706.616	254.290	-0.066	0.146
-705.602	-7.298	0.064	0.056
-704.587	-52.658	0.133	0.079
-703.572	-200.000	-0.073	-0.427
-702.558	0.461	-0.192	0.177
-701.543	-22.408	-0.084	0.065
-700.529	-200.000	-0.003	0.341
-699.514	79.837	0.121	0.167
-698.499	-200.000	0.007	-0.274
-697.485	-38.357	0.226	-0.154
-696.470	800.000	-0.056	0.210
-695.456	266.910	-0.075	0.171
-694.441	-109.781	-0.113	0.030
-693.426	800.000	0.106	-0.410
-692.412	-3.085	-0.176	-0.159
-691.397	78.596	-0.163	-0.225
-690.383	10.876	0.362	-0.357
-689.368	800.000	0.042	-0.182
-688.354	-148.380	0.195	-0.020
-687.339	800.000	0.044	0.194
-686.324	-64.398	0.285	-0.149
-685.310	-119.941	-0.362	0.080
-684.295	-200.000	0.073	0.449
-683.281	800.000	-0.098	-0.365
-682.266	800.000	0.049	0.238
-681.251	350.988	-0.294	-0.755
-680.237	800.000	-0.061	-0.217
-679.222	-111.237	-0.281	0.074
-678.208	-200.000	0.073	-0.457
-677.193	-40.795	0.224	-0.149
-676.178	-131.808	0.550	-0.092
-675.164	-127.842	-0.189	-0.035
-674.149	556.179	-0.111	0.346
-673.135	254.968	-0.065	-0.145
-672.120	-60.007	0.119	-0.065
-671.105	-30.768	0.256	-0.187
-670.091	1.193	0.062	0.057
-669.076	-200.000	0.016	-0.113
-668.062	149.772	0.054	0.094
-667.047	-37.512	0.291	0.199
-666.032	-6.856	0.465	0.408
-665.018	15.612	0.238	-0.241
-664.003	41.036	0.259	0.302
-662.989	38.677	0.452	0.520
-661.974	-32.672	-0.064	-0.046
-660.959	-191.525	0.275	-0.003
-659.945	9.924	0.329	-0.322
-658.930	-41.671	-0.043	-0.029
-657.916	13.368	-0.228	0.228
-656.901	-200.000	0.058	0.422
-655.886	-130.991	-0.543	-0.093
-654.872	-158.222	-0.253	-0.019
-653.857	-133.515	-0.407	0.065
-652.843	-83.852	-0.311	-0.127
-651.828	-92.509	-0.142	0.051
-650.814	-200.000	0.039	-0.435
-649.799	-76.133	-0.138	0.063
-648.784	800.000	-0.023	0.082
-647.770	275.558	0.174	-0.398
-646.755	141.536	-0.210	-0.358
-645.741	-200.000	0.057	-0.456
-644.726	-200.000	0.009	-0.085
-643.711	-89.452	0.414	-0.156
-642.697	56.063	-0.160	0.201
-641.682	-13.719	-0.157	0.131
-640.668	27.202	-0.138	0.150
-639.653	-43.933	0.131	0.085
-638.638	-3.312	0.024	0.022
-637.624	405.473	-0.123	0.335
-636.609	-40.783	-0.109	0.073
-635.595	-200.000	0.002	-0.349
-634.580	511.122	0.058	0.175
-633.565	-113.625	-0.236	0.059
-632.551	515.501	-0.073	0.222
-631.536	-178.796	-0.407	0.012
-630.522	-170.236	-0.221	-0.010
-629.507	271.593	0.199	0.453
-628.492	4.104	-0.203	-0.192
-627.478	398.571	0.036	0.098
-626.463	-114.732	-0.260	0.064
-625.449	800.000	0.013	0.067
-624.434	-147.347	-0.269	-0.029
-623.419	-52.865	-0.422	0.250
-622.405	116.694	-0.145	0.229
-621.390	-71.750	-0.344	-0.164
-620.376	22.148	-0.159	-0.167
-619.361	-164.796	-0.301	0.017
-618.346	128.178	-0.033	-0.054
-617.332	-142.017	0.191	0.024
-616.317	-120.769	0.281	-0.061
-615.303	180.996	-0.166	-0.316
-614.288	-23.967	0.129	-0.099
-613.273	-155.483	0.604	0.050
-612.259	-33.730	-0.115	-0.082
-611.244	47.164	0.078	-0.093
-610.230	352.513	-0.111	0.285
-609.215	128.245	-0.299	0.491
-608.201	49.063	-0.247	-0.299
-607.186	-171.545	0.223	-0.009
-606.171	-166.322	-0.654	0.035
-605.157	116.461	-0.263	-0.416
-604.142	-111.120	-0.096	-0.025
-603.128	129.407	-0.294	0.483
-602.113	26.780	-0.008	0.009
-601.098	-37.557	0.371	-0.254
-600.084	-85.766	-0.395	0.157
-599.069	800.000	-0.051	-0.209
-598.055	-200.000	0.008	0.228
-597.040	-5.761	-0.519	-0.456
-596.025	-41.521	0.128	-0.084
-595.011	-114.417	0.333	0.082
-593.996	-50.689	-0.133	0.080
-592.982	15.830	-0.083	-0.084
-591.967	-39.179	-0.126	-0.085
-590.952	-158.373	0.128	0.009
-589.938	21.841	-0.193	-0.203
-588.923	800.000	-0.055	-0.225
-587.909	-75.317	-0.410	-0.187
-586.894	-190.178	-0.108	0.001
-585.879	-55.462	-0.132	0.076
-584.865	3.053	0.049	0.046
-583.850	440.052	-0.087	-0.245
-582.836	-140.257	-0.398	-0.053
-581.821	570.316	-0.096	0.303
-580.806	-174.185	0.224	-0.008
-579.792	12.920	-0.075	-0.074
-578.777	800.000	-0.141	-0.634
-577.763	155.048	0.107	-0.189
-576.748	-72.149	0.332	0.157
-575.733	-50.909	-0.230	-0.139
-574.719	-200.000	-0.001	0.150
-573.704	-128.198	-0.420	-0.076
-572.690	98.711	-0.257	-0.381
-571.675	641.725	-0.044	-0.145
-570.661	61.920	0.279	0.358
-569.646	-200.000	-0.013	0.221
-568.631	-200.000	0.005	0.208
-567.617	22.157	-0.331	0.347
-566.602	-79.353	-0.568	0.246
-565.588	-43.840	-0.246	0.159
-564.573	2.973	-0.149	0.139
-563.558	-73.788	-0.370	-0.172
-562.544	-68.425	0.311	0.155
-561.529	324.866	0.074	0.182
-560.515	21.405	-0.480	0.501
-559.500	121.982	0.158	0.253
-558.485	800.000	0.019	-0.096
-557.471	63.917	0.006	-0.008
-556.456	-35.425	0.124	-0.086
-555.442	-141.831	0.313	0.040
-554.427	-72.470	-0.163	-0.077
-553.412	33.819	-0.314	-0.351
-552.398	800.000	0.050	-0.216
-551.383	-40.150	-0.351	-0.234
-550.369	154.576	0.040	0.071
-549.354	-200.000	0.013	0.079
-548.339	-116.922	0.093	0.022
-547.325	-200.000	0.016	0.630
-546.310	-200.000	0.020	-0.321
-545.296	-127.739	0.357	-0.066
-544.281	-102.603	0.314	0.096
-543.266	-12.427	-0.157	-0.131
-542.252	51.652	-0.201	-0.245
-541.237	57.150	0.316	0.396
-540.223	-118.035	0.106	-0.024
-539.208	470.204	0.147	-0.427
-538.193	-200.000	0.001	-0.104
-537.179	372.993	-0.062	-0.163
-536.164	89.802	-0.071	0.102
-535.150	-14.342	-0.213	-0.176
-534.135	-18.193	-0.200	0.160
-533.121	618.686	-0.050	0.163
-532.106	-36.550	-0.199	0.137
-531.091	-167.379	-0.406	-0.021
-530.077	-200.000	0.001	0.068
-529.062	-200.000	-0.015	0.466
-528.048	196.828	-0.099	-0.195
-527.033	800.000	-0.045	-0.245
-526.018	-151.870	-0.137	-0.013
-525.004	-176.508	0.065	0.002
-523.989	16.637	0.383	0.388
-522.975	-21.434	-0.522	-0.408
-521.960	248.034	0.098	-0.213
-520.945	-164.581	-0.540	0.031
-519.931	-158.202	-0.260	-0.019
-518.916	-193.595	-0.121	0.001
-517.902	114.358	0.092	-0.144
-516.887	-64.092	0.196	0.102
-515.872	128.150	-0.030	-0.050
-514.858	-200.000	0.008	0.206
-513.843	-175.037	-0.319	-0.011
-512.829	-200.000	0.005	-0.117
-511.814	170.934	-0.233	-0.429
-510.799	-136.960	-0.170	-0.025
-509.785	632.313	0.151	-0.494
-508.770	-13.239	0.295	0.245
-507.756	-64.602	0.282	0.146
-506.741	7.330	0.356	0.340
-505.726	107.587	0.199	0.304
-504.712	-200.000	0.027	0.613
-503.697	-105.151	0.544	-0.158
-502.683	-77.732	0.466	-0.206
-501.668	-94.081	0.090	0.031
-500.653	58.330	0.126	0.159
-499.639	62.252	0.141	-0.181
-498.624	-87.455	0.413	0.159
-497.610	14.531	0.251	0.251
-496.595	-16.806	0.272	0.220
-495.581	-151.702	0.546	-0.051
-494.566	761.018	0.093	0.324
-493.551	202.792	-0.080	-0.159
-492.537	213.240	-0.212	-0.430
-491.522	-58.419	-0.221	0.123
-490.508	281.977	0.137	-0.316
-489.493	136.373	0.130	-0.217
-488.478	-200.000	0.036	-0.367
-487.464	539.616	0.106	0.323
-486.449	13.052	0.108	0.107
-485.435	-36.198	0.610	0.421
-484.420	-49.350	-0.283	0.172
-483.405	-103.297	-0.351	0.105
-482.391	-95.197	-0.164	-0.056
-481.376	-59.338	0.013	-0.007
-480.362	511.648	0.165	-0.496
-479.347	-200.000	0.036	-0.325
-478.332	55.185	-0.068	-0.084
-477.318	-82.857	0.427	0.176
-476.303	800.000	-0.065	-0.257
-475.289	119.093	0.152	0.241
-474.274	-91.818	-0.421	0.152
-473.259	62.545	-0.287	0.367
-472.245	-158.303	0.217	0.016
-471.230	-39.927	0.161	0.108
-470.216	-106.061	-0.303	-0.086
-469.201	800.000	-0.056	0.210
-468.186	-20.042	0.296	0.234
-467.172	-200.000	0.056	-0.535
-466.157	-70.635	-0.261	-0.126
-465.143	-120.762	0.239	-0.051
-464.128	800.000	0.143	-0.749
-463.113	-141.095	-0.323	0.042
-462.099	-154.587	0.107	0.009
-461.084	800.000	-0.024	-0.103
-460.070	-76.657	-0.415	-0.185
-459.055	-200.000	-0.041	-0.624
-458.040	-200.000	-0.015	-0.098
-457.026	-200.000	-0.005	-0.446
-456.011	800.000	0.027	0.119
-454.997	225.445	0.230	0.478
-453.982	306.574	-0.066	0.158
-452.968	-200.000	0.007	-0.293
-451.953	203.470	-0.111	0.220
-450.938	-200.000	-0.262	0.000
-449.924	-77.983	-0.297	-0.130
-448.909	-126.460	0.111	0.021
-447.895	-38.715	0.178	-0.120
-446.880	-33.233	0.422	0.298
-445.865	-200.000	0.060	-0.530
-444.851	-5.353	-0.276	-0.242
-443.836	-54.333	-0.259	-0.150
-442.822	490.124	0.059	0.175
-441.807	-110.247	0.363	-0.096
-440.792	-200.000	0.015	0.104
-439.778	97.466	-0.190	0.279
-438.763	407.008	-0.197	-0.535
-437.749	-60.171	-0.175	0.095
-436.734	721.045	-0.006	0.021
-435.719	13.984	0.324	0.322
-434.705	-32.341	-0.317	0.226
-433.690	-97.103	-0.292	-0.097
-432.676	800.000	-0.120	0.439
-431.661	-41.946	0.155	0.101
-430.646	263.943	-0.097	0.216
-429.632	-69.928	0.617	-0.300
-428.617	247.190	0.070	-0.151
-427.603	-108.236	0.378	0.104
-426.588	262.484	0.075	-0.167
-425.573	-200.000	-0.006	0.376
-424.559	800.000	0.027	0.109
-423.544	-126.000	-0.208	0.040
-422.530	-200.000	0.037	0.216
-421.515	-97.301	0.222	0.073
-420.500	-130.125	0.452	-0.078
-419.486	-69.140	0.118	-0.058
-418.471	-12.196	0.470	0.393
-417.457	500.358	0.096	0.284
-416.442	-189.255	-0.146	0.002
-415.428	-73.587	0.292	0.136
-414.413	28.109	-0.241	0.260
-413.398	-41.155	0.502	0.330
-412.384	-64.237	0.133	-0.069
-411.369	222.092	-0.107	0.221
-410.355	-129.276	-0.117	-0.021
-409.340	-75.441	0.268	-0.121
-408.325	270.503	-0.065	0.146
-407.311	-54.802	0.441	0.253
-406.296	229.073	0.152	0.318
-405.282	-80.668	-0.188	0.079
-404.267	-200.000	-0.027	0.174
-403.252	800.000	-0.051	-0.273
-402.238	-200.000	0.011	-0.239
-401.223	-200.000	-0.083	-0.578
-400.209	-27.935	0.334	-0.246
-399.194	-200.000	-0.043	-0.571
-398.179	-77.470	0.519	0.229
-397.165	-172.404	0.289	-0.012
-396.150	-59.329	0.248	0.136
-395.136	-178.173	0.184	-0.005
-394.121	-32.444	-0.225	-0.159
-393.106	-56.413	0.370	-0.209
-392.092	230.177	-0.134	-0.280
-391.077	-101.121	0.139	-0.043
-390.063	61.824	0.037	-0.047
-389.048	248.102	0.183	0.396
-388.033	-77.430	-0.156	-0.069
-387.019	-89.135	-0.427	-0.160
-386.004	793.737	-0.095	-0.336
-384.990	14.191	0.231	-0.229
-383.975	-53.992	-0.172	-0.099
-382.960	183.475	-0.068	-0.128
-381.946	-3.816	0.189	-0.167
-380.931	101.296	0.348	-0.518
-379.917	83.103	-0.278	-0.387
-378.902	11.016	0.346	-0.337
-377.888	101.638	0.106	0.158
-376.873	10.112	0.316	-0.306
-375.858	-57.907	-0.110	0.061
-374.844	283.721	-0.188	0.433
-373.829	-35.604	-0.232	-0.160
-372.815	-159.855	-0.410	0.028
-371.800	688.809	0.043	-0.145
-370.785	-200.000	0.010	0.122
-369.771	-121.463	0.297	-0.062
-368.756	-77.183	0.051	0.023
-367.742	800.000	-0.126	-0.453
-366.727	-165.898	-0.135	-0.007
-365.712	-138.539	0.286	-0.040
-364.698	149.441	-0.271	-0.469
-363.683	800.000	0.128	-0.503
-362.669	-101.630	0.064	0.020
-361.654	569.754	0.082	0.256
-360.639	800.000	-0.096	0.459
-359.625	-200.000	-0.059	-0.484
-358.610	693.685	-0.109	-0.367
-357.596	778.313	-0.084	-0.296
-356.581	-89.684	0.589	-0.219
-355.566	-94.257	0.540	-0.187
-354.552	-20.755	0.326	0.254
-353.537	623.204	0.095	0.306
-352.523	-98.196	0.424	0.138
-351.508	-88.600	0.220	-0.083
-350.493	-62.898	0.324	0.170
-349.479	-14.123	0.088	-0.072
-348.464	-98.677	-0.603	-0.195
-347.450	13.424	-0.333	-0.329
-346.435	-14.090	-0.116	0.095
-345.420	-200.000	0.074	0.586
-344.406	27.597	0.248	-0.266
-343.391	-55.292	-0.302	-0.172
-342.377	16.242	-0.112	0.112
-341.362	-10.359	-0.310	0.262
-340.348	30.682	0.178	0.194
-339.333	-200.000	-0.014	0.462
-338.318	602.382	-0.051	0.163
-337.304	-158.072	0.464	-0.034
-336.289	43.597	-0.049	0.057
-335.275	254.839	-0.222	0.486
-334.260	-200.000	0.019	0.209
-333.245	800.000	-0.116	-0.484
-332.231	-167.318	0.079	-0.004
-331.216	-121.151	-0.108	0.023
-330.202	-25.449	0.027	0.020
-329.187	491.885	0.093	0.271
-328.172	-128.334	0.196	0.035
-327.158	-200.000	-0.007	0.102
-326.143	-40.980	0.049	0.032
-325.129	10.075	-0.094	-0.091
-324.114	-200.000	0.014	0.105
-323.099	-200.000	-0.004	0.080
-322.085	154.949	-0.085	-0.149
-321.070	230.623	-0.178	-0.373
-320.056	-87.760	-0.446	-0.170
-319.041	412.346	-0.139	0.379
-318.026	-57.293	0.336	0.188
-317.012	223.852	-0.070	0.145
-315.997	64.088	-0.076	0.097
-314.983	-200.000	0.000	0.333
-313.968	28.726	0.147	0.158
-312.953	-186.447	0.258	-0.005
-311.939	-136.355	0.311	0.046
-310.924	-200.000	-0.033	0.282
-309.910	-70.216	-0.168	0.081
-308.895	-90.663	-0.498	-0.182
-307.880	-17.708	0.238	0.190
-306.866	39.778	0.028	-0.032
-305.851	336.297	-0.100	0.249
-304.837	-200.000	-0.084	-0.575
-303.822	-111.879	-0.234	-0.060
-302.807	400.525	-0.094	0.251
-301.793	-145.089	0.183	0.021
-300.778	-113.629	-0.505	-0.124
-299.764	-139.868	-0.562	-0.075
-298.749	82.071	0.154	0.212
-297.735	-113.817	0.160	0.039
-296.720	-38.237	0.343	0.230
-295.705	-65.904	0.314	0.159
-294.691	70.066	-0.217	-0.285
-293.676	84.751	0.064	0.089
-292.662	47.704	-0.132	0.157
-291.647	800.000	-0.088	-0.365
-290.632	210.450	0.262	-0.525
-289.618	542.921	0.093	-0.283
-288.603	95.434	0.113	-0.165
-287.589	-144.312	-0.359	0.042
-286.574	-109.235	0.494	0.132
-285.559	106.562	-0.023	0.035
-284.545	101.049	0.108	-0.160
-283.530	800.000	0.012	-0.059
-282.516	800.000	0.038	0.198
-281.501	32.128	-0.237	-0.260
-280.486	47.736	-0.124	-0.147
-279.472	-131.382	0.059	-0.010
-278.457	83.554	0.318	0.441
-277.443	-150.968	0.190	-0.018
-276.428	335.460	0.206	-0.510
-275.413	152.181	0.141	-0.245
-274.399	-91.949	-0.298	0.107
-273.384	453.444	-0.099	-0.280
-272.370	-85.861	0.330	-0.129
-271.355	-102.788	-0.219	-0.066
-270.340	-83.668	-0.701	-0.283
-269.326	800.000	-0.078	0.380
-268.311	-16.000	0.194	-0.156
-267.297	6.409	0.301	0.283
-266.282	49.444	0.077	-0.093
-265.267	800.000	-0.081	0.399
-264.253	672.509	0.125	0.414
-263.238	-200.000	0.018	-0.134
-262.224	5.970	-0.103	0.097
-261.209	-162.592	0.272	0.017
-260.195	17.392	-0.310	-0.313
-259.180	-200.000	0.069	-0.456
-258.165	-58.020	-0.069	-0.038
-257.151	-2.010	0.224	0.200
-256.136	-105.263	-0.436	-0.125
-255.122	167.637	-0.154	-0.278
-254.107	113.508	-0.314	-0.485
-253.092	-46.088	0.219	0.137
-252.078	12.145	0.360	0.351
-251.063	-128.534	0.303	0.054
-250.049	29.959	-0.248	0.268
-249.034	-27.934	-0.187	-0.137
-248.019	41.397	0.159	-0.182
-247.005	120.992	0.256	0.406
-245.990	13.838	-0.249	0.245
-244.976	-89.013	0.038	0.014
-243.961	-200.000	-0.032	0.423
-242.946	-200.000	0.045	0.271
-241.932	1.646	0.110	-0.100
-240.917	-47.668	0.270	-0.166
-239.903	454.803	-0.048	-0.136
-238.888	106.714	0.218	0.329
-237.873	800.000	0.049	-0.203
-236.859	592.764	0.026	-0.083
-235.844	-200.000	0.014	0.490
-234.830	-46.485	-0.314	0.195
-233.815	748.119	-0.026	-0.090
-232.800	371.499	0.063	-0.163
-231.786	-6.360	0.281	0.243
-230.771	190.973	-0.124	0.236
-229.757	-188.958	0.208	-0.003
-228.742	77.870	0.366	0.495
-227.727	-44.518	0.104	-0.066
-226.713	-57.136	-0.352	-0.196
-225.698	27.306	-0.305	-0.325
-224.684	58.192	-0.248	-0.309
-223.669	336.458	-0.164	0.405
-222.655	800.000	0.055	-0.212
-221.640	-52.693	-0.134	-0.078
-220.625	-200.000	-0.086	-0.505
-219.611	10.737	-0.355	0.343
-218.596	-32.686	0.205	-0.144
-217.582	-200.000	0.073	-0.418
-216.567	92.783	0.200	0.286
-215.552	6.015	0.474	0.444
-214.538	278.374	-0.076	-0.172
-213.523	-178.470	0.045	-0.001
-212.509	105.760	0.135	-0.203
-211.494	-153.618	-0.084	0.007
-210.479	23.688	-0.224	0.234
-209.465	431.534	0.158	0.435
-208.450	123.313	-0.193	0.307
-207.436	-200.000	0.024	0.750
-206.421	-172.538	0.398	-0.016
-205.406	-200.000	0.004	0.326
-204.392	-200.000	0.006	0.102
-203.377	-40.423	-0.112	0.074
-202.363	-200.000	0.013	-0.168
-201.348	-130.134	-0.039	-0.007
-200.333	267.580	0.165	0.366
-199.319	32.617	0.254	0.279
-198.304	405.783	0.109	-0.291
-197.290	-39.264	0.566	-0.376
-196.275	52.417	0.257	-0.310
-195.260	275.555	0.153	0.346
-194.246	800.000	0.060	-0.261
-193.231	-122.420	0.304	-0.062
-192.217	-200.000	-0.049	-0.302
-191.202	-62.873	-0.194	-0.101
-190.187	-166.183	-0.209	0.011
-189.173	-82.687	-0.264	-0.108
-188.158	800.000	0.100	0.379
-187.144	-46.897	-0.045	0.028
-186.129	-63.169	-0.077	0.040
-185.114	136.731	0.117	0.195
-184.100	800.000	0.007	0.026
-183.085	72.482	0.176	-0.232
-182.071	-15.543	0.308	-0.248
-181.056	-64.669	-0.175	-0.089
-180.042	5.965	-0.148	-0.138
-179.027	17.709	-0.552	0.556
-178.012	719.081	-0.148	0.502
-176.998	-66.137	0.332	0.167
-175.983	800.000	-0.091	0.474
-174.969	-121.109	-0.453	-0.095
-173.954	-131.471	-0.076	-0.013
-172.939	-165.872	0.351	0.019
-171.925	-66.529	-0.099	-0.050
-170.910	-78.502	-0.162	0.070
-169.896	-31.799	0.114	-0.081
-168.881	14.521	-0.557	-0.550
-167.866	-200.000	0.000	0.129
-166.852	-155.399	0.523	-0.042
-165.837	533.372	0.084	0.254
-164.823	283.730	0.137	0.313
-163.808	-128.982	0.262	0.046
-162.793	63.550	-0.170	-0.216
-161.779	-200.000	0.015	0.134
-160.764	-108.872	-0.324	0.087
-159.750	611.497	0.066	-0.210
-158.735	266.503	-0.140	-0.310
-157.720	226.103	-0.146	-0.301
-156.706	800.000	-0.043	-0.217
-155.691	-200.000	-0.022	0.240
-154.677	167.648	-0.067	0.121
-153.662	166.731	-0.111	-0.199
-152.647	20.562	-0.206	0.211
-151.633	-17.519	0.190	0.151
-150.618	-117.310	0.209	0.047
-149.604	-68.538	-0.242	0.118
-148.589	800.000	0.099	0.552
-147.574	-125.063	-0.259	-0.050
-146.560	-107.761	-0.226	0.062
-145.545	-47.784	0.124	-0.076
-144.531	-8.503	-0.052	-0.044
-143.516	-7.523	-0.203	-0.173
-142.502	511.770	0.160	0.474
-141.487	-1.264	-0.088	-0.079
-140.472	-69.611	0.420	0.202
-139.458	-42.334	0.181	-0.116
-138.443	278.890	-0.282	0.638
-137.429	800.000	-0.078	0.286
-136.414	-58.136	0.328	0.180
-135.399	151.943	-0.060	0.103
-134.385	127.613	-0.151	-0.242
-133.370	-45.317	0.448	0.280
-132.356	-200.000	0.026	-0.194
-131.341	303.024	-0.108	-0.253
-130.326	449.837	-0.104	0.291
-129.312	-121.395	0.354	-0.074
-128.297	-56.714	0.184	0.102
-127.283	-31.573	0.200	-0.141
-126.268	-160.274	-0.583	0.039
-125.253	-125.681	0.122	-0.023
-124.239	-106.918	0.230	0.064
-123.224	30.346	0.172	-0.185
-122.210	-75.083	0.053	-0.024
-121.195	-200.000	0.048	0.485
