DTS Sentinel unit serial number:	SN409020Multiplexer serial number:	ORYXHardware model number:	OX4-SRSoftware version number:	ORYX F/W v3.00 Oryx Data Collector v3.7.2.0data status	okinstallation	HaddamTimeLapsedifferential loss correction	single-endedforward channel	channel 3reverse channel	N/Adate	2011/06/22time	06:51:16forward acquisition time	30.00reverse acquisition time	0.00gamma	498.7831k internal	0.1752k external	0.1752temperature offset calibration	1.0074default loss term (dB/km)	0.3790temperature slope calibration	1.3530multiplexer offset coefficient	1.0000multiplexer slope coefficient	1.0000fibre end	0.00T internal ref (°C)	22.72T ext. ref 1 (°C)	18.85T ext. ref 2 (°C)	0.14length (m)	temperature (°C)	Stokes	anti-Stokes-747.200	-83.760	-0.212	-0.089
-746.185	-36.634	-0.054	0.038
-745.171	-85.391	0.390	0.161
-744.156	200.953	-0.179	0.367
-743.142	-200.000	-0.027	0.198
-742.127	170.273	-0.170	0.325
-741.112	50.816	0.451	0.568
-740.098	15.508	-0.317	0.331
-739.083	-103.013	0.332	0.104
-738.069	-34.246	0.522	-0.380
-737.054	800.000	0.077	0.333
-736.039	800.000	-0.142	0.616
-735.025	-200.000	-0.011	-0.239
-734.010	-129.492	-0.484	-0.088
-732.996	-18.615	0.415	-0.343
-731.981	-30.416	0.475	-0.357
-730.966	-200.000	0.034	-0.291
-729.952	80.480	0.137	0.196
-728.937	-53.853	0.126	-0.076
-727.923	-99.455	-0.549	0.182
-726.908	-200.000	-0.007	-0.138
-725.894	-89.668	-0.421	-0.163
-724.879	-166.203	0.784	0.043
-723.864	-127.341	0.134	-0.026
-722.850	40.637	-0.190	0.227
-721.835	-22.739	-0.326	-0.261
-720.821	82.055	0.204	0.294
-719.806	507.904	0.133	0.413
-718.791	-177.601	0.472	0.015
-717.777	-42.798	-0.179	0.120
-716.762	248.664	0.127	0.285
-715.748	53.391	-0.080	-0.102
-714.733	-118.777	-0.351	0.081
-713.718	98.095	0.110	0.169
-712.704	-40.466	-0.037	0.025
-711.689	-175.468	-0.374	-0.013
-710.675	92.410	0.163	0.244
-709.660	-75.406	-0.012	0.005
-708.645	297.158	0.199	0.486
-707.631	587.038	-0.050	-0.163
-706.616	-169.344	-0.474	-0.023
-705.602	53.537	0.048	0.061
-704.587	-200.000	-0.050	0.421
-703.572	-159.882	0.290	0.021
-702.558	192.213	-0.116	-0.232
-701.543	-96.011	0.137	0.048
-700.529	-93.460	-0.291	0.106
-699.514	-200.000	0.030	-0.265
-698.499	-0.013	0.346	-0.326
-697.485	98.696	-0.112	-0.171
-696.470	-77.757	0.335	0.153
-695.456	-200.000	-0.488	0.002
-694.441	800.000	0.071	0.403
-693.426	-161.130	0.257	0.018
-692.412	-78.136	0.300	-0.136
-691.397	-33.300	0.102	0.075
-690.383	-12.635	-0.131	-0.113
-689.368	-174.262	0.525	-0.020
-688.354	48.880	-0.156	0.194
-687.339	169.719	0.111	0.211
-686.324	-53.081	0.121	0.074
-685.310	-30.100	0.131	-0.099
-684.295	-76.852	0.240	0.111
-683.281	-98.779	0.358	0.120
-682.266	-131.237	0.168	0.029
-681.251	158.045	-0.097	0.179
-680.237	-1.521	0.212	0.198
-679.222	106.065	0.063	-0.099
-678.208	-106.977	-0.536	-0.156
-677.193	800.000	-0.164	0.645
-676.178	175.531	-0.146	-0.282
-675.164	-200.000	0.048	0.631
-674.149	28.369	-0.341	0.382
-673.135	-200.000	0.166	0.001
-672.120	-9.804	-0.475	-0.419
-671.105	132.256	-0.238	0.407
-670.091	57.078	0.237	-0.306
-669.076	259.409	-0.155	0.356
-668.062	-38.196	-0.314	0.220
-667.047	-3.179	-0.071	0.065
-666.032	-177.060	0.459	0.015
-665.018	-200.000	0.004	0.063
-664.003	-200.000	-0.024	-0.520
-662.989	-121.188	-0.395	0.087
-661.974	495.000	-0.060	-0.185
-660.959	-122.805	0.334	0.071
-659.945	33.143	-0.082	0.094
-658.930	84.910	0.124	-0.180
-657.916	-46.698	-0.265	0.171
-656.901	-135.816	0.308	0.048
-655.886	45.128	-0.141	-0.173
-654.872	-102.301	-0.492	0.155
-653.857	251.098	0.038	0.087
-652.843	-57.572	-0.200	0.116
-651.828	252.599	-0.032	-0.073
-650.814	-83.402	0.276	-0.116
-649.799	-200.000	-0.032	-0.436
-648.784	111.217	0.097	0.155
-647.770	800.000	-0.042	-0.168
-646.755	77.446	0.197	-0.278
-645.741	-71.093	0.233	-0.116
-644.726	38.419	0.226	-0.266
-643.711	-200.000	0.038	0.288
-642.697	-24.751	0.328	-0.258
-641.682	-23.598	-0.437	0.346
-640.668	451.054	-0.161	0.474
-639.653	-200.000	-0.099	-0.784
-638.638	-18.309	-0.118	-0.097
-637.624	545.328	-0.133	-0.423
-636.609	-96.421	-0.615	0.214
-635.595	-77.468	0.720	-0.329
-634.580	-47.683	0.472	0.302
-633.565	460.513	0.074	-0.220
-632.551	-25.595	-0.127	0.099
-631.536	147.309	0.090	-0.161
-630.522	-200.000	0.005	-0.322
-629.507	-54.694	0.072	-0.043
-628.492	143.870	0.205	0.362
-627.478	153.042	-0.130	-0.236
-626.463	-95.954	-0.086	-0.030
-625.449	-121.490	-0.117	0.025
-624.434	35.276	-0.366	-0.425
-623.419	32.404	-0.395	-0.451
-622.405	19.140	0.268	-0.284
-621.390	28.327	0.224	-0.250
-620.376	800.000	-0.010	0.043
-619.361	-63.587	-0.560	-0.302
-618.346	44.356	-0.093	0.113
-617.332	324.517	0.168	0.425
-616.317	-96.099	0.255	0.089
-615.303	128.735	0.141	-0.239
-614.288	800.000	-0.088	-0.371
-613.273	800.000	0.072	0.263
-612.259	-150.503	0.239	-0.024
-611.244	-168.235	-0.192	-0.010
-610.230	73.121	-0.177	0.244
-609.215	-84.728	0.208	0.086
-608.201	12.748	-0.225	0.229
-607.186	-108.071	0.129	0.037
-606.171	44.510	-0.177	-0.215
-605.157	800.000	0.059	-0.279
-604.142	-200.000	0.011	-0.123
-603.128	-125.025	0.111	-0.022
-602.113	54.782	-0.334	0.425
-601.098	-200.000	-0.012	0.472
-600.084	-64.977	-0.453	0.241
-599.069	-115.635	0.252	-0.062
-598.055	-24.803	0.521	-0.408
-597.040	311.997	0.086	0.213
-596.025	228.054	0.072	-0.155
-595.011	-200.000	0.472	-0.002
-593.996	54.685	-0.137	0.175
-592.982	107.160	0.103	0.161
-591.967	-200.000	-0.030	0.214
-590.952	-111.879	0.270	0.072
-589.938	60.090	0.239	-0.313
-588.923	800.000	0.101	-0.441
-587.909	435.539	0.091	-0.262
-586.894	96.539	0.031	0.047
-585.879	-147.923	0.193	-0.021
-584.865	13.408	0.120	-0.123
-583.850	-15.879	0.071	0.060
-582.836	126.154	-0.081	0.136
-581.821	-40.351	-0.161	0.110
-580.806	-80.436	0.375	-0.164
-579.792	-17.058	-0.293	0.244
-578.777	-66.598	0.209	-0.109
-577.763	-92.179	0.438	-0.162
-576.748	13.679	0.196	0.201
-575.733	113.901	0.115	-0.185
-574.719	762.753	0.028	0.102
-573.704	800.000	0.075	-0.419
-572.690	648.730	0.013	-0.045
-571.675	800.000	0.046	0.193
-570.661	800.000	-0.021	0.088
-569.646	-29.267	-0.325	0.245
-568.631	29.207	-0.403	-0.452
-567.617	-25.631	-0.137	-0.107
-566.602	5.914	0.461	-0.450
-565.588	470.033	-0.153	-0.454
-564.573	-200.000	-0.043	0.349
-563.558	-97.948	0.681	0.230
-562.544	607.427	0.071	-0.234
-561.529	68.345	0.207	-0.280
-560.515	-28.702	0.425	0.322
-559.500	185.649	-0.100	0.197
-558.485	106.623	0.300	0.470
-557.471	15.370	0.147	0.152
-556.456	800.000	0.030	0.132
-555.442	113.660	0.047	0.075
-554.427	-85.175	0.258	-0.106
-553.412	0.978	-0.250	-0.237
-552.398	-29.923	0.035	0.026
-551.383	-115.572	-0.244	0.060
-550.369	-42.458	0.216	-0.145
-549.354	606.966	-0.132	0.436
-548.339	-7.301	-0.190	0.170
-547.325	52.141	0.170	0.214
-546.310	228.368	0.137	-0.296
-545.296	34.726	0.180	-0.207
-544.281	52.967	0.155	0.195
-543.266	-145.527	0.530	-0.062
-542.252	-200.000	0.031	-0.213
-541.237	-32.470	-0.280	0.205
-540.223	-200.000	0.016	-0.100
-539.208	40.642	-0.238	0.282
-538.193	-71.385	0.171	0.084
-537.179	800.000	0.025	0.091
-536.164	-23.490	0.053	-0.042
-535.150	110.397	0.043	0.067
-534.135	-70.863	0.318	-0.157
-533.121	-106.066	0.469	-0.138
-532.106	169.127	0.140	0.263
-531.091	-200.000	-0.020	-0.386
-530.077	-67.376	0.229	-0.118
-529.062	558.743	-0.120	0.385
-528.048	-127.714	0.330	0.062
-527.033	-68.503	0.241	-0.123
-526.018	77.608	-0.154	-0.216
-525.004	800.000	-0.150	-0.571
-523.989	-84.368	0.465	-0.193
-522.975	-120.039	0.432	0.097
-521.960	-42.435	0.039	-0.026
-520.945	255.825	-0.154	-0.348
-519.931	-200.000	0.009	-0.108
-518.916	800.000	-0.030	0.130
-517.902	-41.545	0.175	0.118
-516.887	-176.001	0.240	-0.008
-515.872	149.030	0.075	0.134
-514.858	154.235	0.014	-0.025
-513.843	479.718	-0.126	-0.379
-512.829	-200.000	-0.010	-0.199
-511.814	-67.708	-0.163	-0.084
-510.799	86.700	0.285	-0.414
-509.785	65.658	0.177	0.237
-508.770	-59.017	-0.430	0.244
-507.756	-121.864	-0.412	0.089
-506.741	-119.733	0.307	0.069
-505.726	-7.279	0.027	0.024
-504.712	-200.000	-0.004	0.366
-503.697	-0.801	0.256	0.238
-502.683	-113.670	0.379	-0.097
-501.668	17.562	-0.280	-0.293
-500.653	-84.547	0.524	-0.216
-499.639	-6.006	-0.180	0.161
-498.624	-116.151	0.414	-0.100
-497.610	119.885	-0.127	0.207
-496.595	-161.068	0.480	0.033
-495.581	-200.000	0.529	0.002
-494.566	-119.584	-0.511	0.115
-493.551	800.000	0.005	-0.023
-492.537	800.000	-0.044	0.191
-491.522	-24.284	-0.406	0.318
-490.508	-71.589	0.195	0.095
-489.493	-162.433	-0.230	-0.015
-488.478	-200.000	-0.037	-0.578
-487.464	-140.701	-0.321	-0.043
-486.449	-59.772	-0.498	0.279
-485.435	-92.229	0.395	0.146
-484.420	-41.275	-0.277	-0.187
-483.405	18.140	0.126	0.132
-482.391	-200.000	-0.024	0.208
-481.376	36.921	0.421	0.489
-480.362	-200.000	-0.024	0.294
-479.347	-200.000	-0.002	0.035
-478.332	224.056	-0.054	0.115
-477.318	-46.680	0.371	-0.238
-476.303	-200.000	-0.119	0.721
-475.289	-46.847	-0.095	0.061
-474.274	-200.000	0.043	-0.319
-473.259	-105.399	0.511	0.152
-472.245	-19.557	-0.226	0.183
-471.230	500.453	-0.073	0.223
-470.216	-16.693	-0.079	-0.065
-469.201	-200.000	0.041	-0.563
-468.186	-4.997	0.183	-0.166
-467.172	-91.136	-0.271	-0.102
-466.157	282.324	-0.060	0.143
-465.143	-200.000	-0.236	0.001
-464.128	101.402	-0.031	0.048
-463.113	-176.816	0.410	-0.013
-462.099	800.000	-0.006	0.029
-461.084	262.078	-0.204	0.467
-460.070	10.288	-0.333	0.333
-459.055	258.370	-0.195	0.442
-458.040	-154.744	0.356	0.031
-457.026	-111.846	-0.539	-0.142
-456.011	-59.103	-0.071	-0.040
-454.997	-193.651	0.214	-0.002
-453.982	-164.046	0.292	-0.018
-452.968	-155.422	-0.423	-0.035
-451.953	81.324	-0.080	0.113
-450.938	-56.385	-0.477	0.277
-449.924	2.164	0.182	-0.173
-448.909	-23.942	0.181	-0.142
-447.895	-61.268	-0.065	0.036
-446.880	-10.192	-0.124	0.108
-445.865	529.602	-0.172	-0.534
-444.851	-71.949	-0.112	-0.054
-443.836	-113.588	0.377	-0.096
-442.822	800.000	0.072	-0.365
-441.807	-144.922	-0.716	-0.085
-440.792	507.740	-0.124	0.381
-439.778	94.886	-0.082	0.122
-438.763	76.582	0.068	0.094
-437.749	-7.774	0.204	-0.180
-436.734	156.901	0.344	-0.625
-435.719	475.393	0.079	-0.237
-434.705	4.539	-0.190	-0.183
-433.690	-200.000	0.037	-0.222
-432.676	-0.672	0.201	0.186
-431.661	-33.144	-0.161	0.117
-430.646	-200.000	0.007	-0.477
-429.632	-88.684	-0.381	-0.148
-428.617	24.346	-0.175	0.190
-427.603	42.882	-0.101	-0.121
-426.588	-105.758	-0.134	-0.039
-425.573	-75.812	-0.233	-0.108
-424.559	278.820	0.030	-0.071
-423.544	-107.711	-0.365	0.104
-422.530	800.000	0.035	-0.172
-421.515	38.210	-0.187	-0.219
-420.500	-42.402	0.229	-0.152
-419.486	88.006	0.198	-0.288
-418.471	-82.507	0.470	-0.199
-417.457	-108.992	-0.043	-0.012
-416.442	302.535	-0.090	0.218
-415.428	-56.795	0.235	0.136
-414.413	-55.726	-0.191	-0.111
-413.398	-76.662	-0.483	0.221
-412.384	800.000	-0.082	0.298
-411.369	91.977	0.140	0.207
-410.355	800.000	0.098	-0.460
-409.340	-101.957	-0.016	-0.005
-408.325	69.043	0.260	0.351
-407.311	-200.000	0.022	-0.543
-406.296	171.564	0.158	-0.297
-405.282	26.760	-0.440	-0.483
-404.267	106.715	0.170	-0.265
-403.252	-71.775	0.377	-0.183
-402.238	-55.312	-0.187	0.110
-401.223	128.804	0.255	-0.427
-400.209	197.441	-0.247	-0.496
-399.194	-128.520	-0.711	-0.131
-398.179	77.100	0.126	-0.175
-397.165	-157.860	0.278	-0.021
-396.150	576.213	-0.070	0.227
-395.136	-200.000	0.001	0.292
-394.121	-72.938	-0.178	0.085
-393.106	-188.794	-0.349	-0.005
-392.092	20.300	-0.364	-0.385
-391.077	-37.883	0.066	0.046
-390.063	-74.991	-0.311	-0.145
-389.048	-200.000	0.010	-0.204
-388.033	521.788	0.070	0.215
-387.019	-171.093	-0.267	0.012
-386.004	-60.918	-0.261	0.144
-384.990	-108.697	-0.387	0.108
-383.975	124.885	0.159	-0.263
-382.960	-200.000	0.009	0.184
-381.946	-167.920	-0.727	-0.037
-380.931	-103.049	0.150	0.046
-379.917	771.935	0.044	-0.159
-378.902	-134.019	-0.522	0.084
-377.888	-132.778	0.244	0.040
-376.873	5.714	-0.336	0.325
-375.858	-29.866	0.078	0.058
-374.844	-18.412	0.294	0.240
-373.829	-127.299	0.161	0.030
-372.815	6.600	-0.164	-0.159
-371.800	243.715	0.065	0.143
-370.785	-131.191	0.142	-0.024
-369.771	-76.152	-0.609	0.280
-368.756	380.163	0.131	-0.353
-367.742	-49.972	-0.271	0.168
-366.727	2.658	0.279	-0.264
-365.712	-162.015	0.134	-0.009
-364.698	213.686	0.091	0.188
-363.683	103.744	0.260	0.401
-362.669	-200.000	0.030	0.338
-361.654	-92.536	0.379	0.138
-360.639	-180.549	0.398	0.011
-359.625	6.364	-0.372	-0.361
-358.610	449.845	-0.125	0.363
-357.596	-57.849	-0.427	0.243
-356.581	6.881	0.113	-0.110
-355.566	302.128	-0.122	0.295
-354.552	-182.247	0.242	-0.006
-353.537	66.855	0.273	0.363
-352.523	-118.518	0.430	-0.099
-351.508	29.630	0.239	-0.266
-350.493	-200.000	0.030	-0.256
-349.479	345.496	0.152	0.392
-348.464	46.647	-0.368	0.447
-347.450	-95.976	0.251	-0.087
-346.435	6.313	0.443	0.429
-345.420	332.006	0.152	0.386
-344.406	-159.351	0.429	-0.031
-343.391	800.000	0.072	-0.300
-342.377	-71.055	-0.205	-0.100
-341.362	752.269	-0.040	0.143
-340.348	-11.371	-0.239	-0.205
-339.333	123.200	0.129	-0.212
-338.318	103.355	-0.038	0.058
-337.304	23.899	0.392	-0.422
-336.289	-3.981	-0.298	0.269
-335.275	22.851	-0.440	0.471
-334.260	-200.000	-0.022	0.261
-333.245	-200.000	-0.004	-0.228
-332.231	417.453	-0.109	0.304
-331.216	800.000	-0.071	0.262
-330.202	152.264	-0.048	-0.086
-329.187	-200.000	0.014	-0.173
-328.172	188.666	0.033	-0.066
-327.158	461.963	-0.088	-0.259
-326.143	-200.000	0.003	0.027
-325.129	-200.000	0.045	0.459
-324.114	8.773	-0.191	-0.188
-323.099	-109.392	0.253	-0.069
-322.085	15.146	-0.044	0.045
-321.070	800.000	-0.056	-0.257
-320.056	-154.367	0.476	0.041
-319.041	459.430	-0.148	-0.433
-318.026	-200.000	-0.024	-0.418
-317.012	13.908	0.066	0.067
-315.997	-20.657	0.107	0.085
-314.983	36.771	-0.258	0.298
-313.968	-103.889	0.382	0.116
-312.953	-181.182	-0.130	-0.003
-311.939	800.000	-0.033	0.165
-310.924	-157.405	-0.093	-0.007
-309.910	-53.769	-0.108	-0.064
-308.895	261.971	-0.241	0.547
-307.880	800.000	-0.157	0.644
-306.866	800.000	-0.110	0.505
-305.851	-101.937	0.269	-0.084
-304.837	-60.437	-0.178	0.099
-303.822	5.117	-0.136	0.130
-302.807	-138.874	-0.133	-0.019
-301.793	344.354	0.074	-0.191
-300.778	-200.000	-0.018	-0.104
-299.764	-39.476	0.073	-0.050
-298.749	104.124	-0.221	-0.339
-297.735	-16.979	-0.467	0.384
-296.720	-200.000	-0.016	0.224
-295.705	-86.866	0.417	-0.165
-294.691	-105.731	0.302	-0.088
-293.676	-91.915	0.236	0.087
-292.662	314.376	-0.244	-0.601
-291.647	-148.376	-0.058	0.006
-290.632	-166.743	0.248	0.013
-289.618	181.769	0.161	-0.309
-288.603	-10.414	-0.259	0.224
-287.589	800.000	0.069	-0.358
-286.574	-103.201	0.244	-0.075
-285.559	800.000	-0.056	0.244
-284.545	-200.000	-0.019	-0.333
-283.530	-137.326	-0.290	-0.043
-282.516	-57.479	0.240	-0.137
-281.501	-169.302	0.519	0.025
-280.486	23.791	0.341	0.366
-279.472	-127.014	0.145	-0.027
-278.457	-58.592	-0.212	-0.119
-277.443	782.577	0.124	0.445
-276.428	187.241	0.082	0.161
-275.413	24.936	-0.329	-0.355
-274.399	58.489	-0.278	0.355
-273.384	395.160	-0.114	0.312
-272.370	-26.837	-0.165	0.125
-271.355	-200.000	-0.025	0.602
-270.340	119.530	-0.205	-0.332
-269.326	-70.596	-0.360	-0.177
-268.311	-200.000	-0.001	0.303
-267.297	-118.063	-0.452	-0.104
-266.282	165.620	-0.156	0.288
-265.267	24.847	0.321	0.347
-264.253	260.284	-0.216	-0.488
-263.238	452.151	-0.064	0.185
-262.224	-200.000	0.003	-0.065
-261.209	130.384	0.125	-0.210
-260.195	92.989	0.224	0.330
-259.180	-200.000	-0.015	0.212
-258.165	-200.000	-0.026	0.289
-257.151	-200.000	0.008	0.076
-256.136	-107.253	-0.578	-0.165
-255.122	-83.796	-0.195	0.081
-254.107	800.000	-0.010	0.037
-253.092	-200.000	0.071	0.486
-252.078	-200.000	-0.046	-0.283
-251.063	-167.497	0.272	-0.014
-250.049	129.968	0.139	0.232
-249.034	-58.110	-0.407	0.230
-248.019	-124.143	-0.214	-0.043
-247.005	-128.526	-0.693	-0.127
-245.990	-200.000	-0.027	0.305
-244.976	192.203	-0.076	0.151
-243.961	-135.611	-0.268	0.041
-242.946	35.251	-0.425	-0.485
-241.932	-158.610	-0.285	-0.021
-240.917	269.091	0.052	-0.119
-239.903	-179.770	-0.312	0.009
-238.888	-42.373	0.391	0.259
-237.873	-13.721	-0.524	0.441
-236.859	85.664	0.115	-0.164
-235.844	-110.930	-0.237	-0.063
-234.830	-45.923	-0.439	0.281
-233.815	57.100	0.101	-0.128
-232.800	87.340	-0.312	-0.450
-231.786	127.826	0.126	0.208
-230.771	-33.743	-0.265	-0.190
-229.757	52.529	-0.190	-0.236
-228.742	-122.433	0.189	0.040
-227.727	66.270	-0.069	-0.091
-226.713	-155.608	0.120	-0.010
-225.698	-74.091	0.237	0.111
-224.684	43.161	-0.213	-0.253
-223.669	-152.090	-0.102	-0.010
-222.655	89.833	-0.199	-0.289
-221.640	-73.665	0.106	-0.050
-220.625	-120.488	-0.303	0.066
-219.611	92.386	-0.082	0.121
-218.596	-63.398	0.101	0.054
-217.582	800.000	-0.042	-0.233
-216.567	800.000	-0.098	-0.419
-215.552	210.224	-0.147	0.302
-214.538	-98.815	0.474	-0.156
-213.523	800.000	-0.064	0.274
-212.509	-200.000	-0.032	0.292
-211.494	297.905	-0.157	0.377
-210.479	-65.473	0.224	-0.117
-209.465	-136.381	0.551	-0.083
-208.450	6.455	0.434	0.419
-207.436	-200.000	0.012	-0.103
-206.421	-75.685	0.749	0.344
-205.406	-57.128	-0.468	-0.267
-204.392	-0.340	-0.097	-0.090
-203.377	800.000	-0.120	0.469
-202.363	-200.000	-0.038	0.306
-201.348	800.000	0.087	0.332
-200.333	114.815	0.233	0.369
-199.319	-86.397	0.094	-0.037
-198.304	-138.359	-0.535	-0.076
-197.290	-107.483	0.268	0.076
-196.275	-92.059	0.229	0.084
-195.260	471.890	-0.088	0.258
-194.246	-102.073	-0.119	-0.037
-193.231	213.340	-0.205	0.423
-192.217	152.706	-0.170	-0.302
-191.202	89.049	-0.222	-0.322
-190.187	87.164	-0.315	-0.453
-189.173	235.176	-0.081	0.174
-188.158	800.000	0.044	0.171
-187.144	-51.710	0.116	0.070
-186.129	-110.727	0.278	0.074
-185.114	206.543	-0.287	-0.583
-184.100	406.806	0.139	-0.384
-183.085	-120.458	0.522	0.114
-182.071	297.958	-0.202	0.484
-181.056	-131.503	-0.382	-0.065
-180.042	0.459	0.389	0.361
-179.027	-81.687	-0.149	-0.063
-178.012	-14.201	0.351	-0.294
-176.998	53.966	0.328	-0.410
-175.983	462.371	-0.049	0.143
-174.969	150.464	-0.135	-0.238
-173.954	9.028	-0.345	-0.338
-172.939	11.983	-0.173	-0.173
-171.925	-6.635	0.034	0.030
-170.910	-66.826	0.205	0.105
-169.896	232.388	-0.220	-0.472
-168.881	57.685	0.062	-0.079
-167.866	800.000	-0.022	-0.089
-166.852	344.455	-0.086	0.220
-165.837	-200.000	-0.001	0.157
-164.823	-200.000	-0.004	0.125
-163.808	-200.000	-0.006	-0.364
-162.793	299.819	0.177	-0.425
-161.779	-200.000	-0.010	0.112
-160.764	-54.731	-0.233	-0.136
-159.750	329.839	0.123	-0.308
-158.735	800.000	0.042	0.190
-157.720	-139.429	0.635	0.087
-156.706	145.885	0.157	-0.274
-155.691	-150.127	-0.472	0.047
-154.677	-71.534	-0.320	0.155
-153.662	-130.239	0.352	-0.062
-152.647	521.902	0.199	0.608
-151.633	-82.140	-0.545	0.229
-150.618	81.405	-0.239	0.336
-149.604	800.000	-0.158	-0.671
-148.589	-200.000	-0.006	-0.302
-147.574	174.465	0.023	0.044
-146.560	-55.651	0.093	-0.054
-145.545	289.798	0.065	-0.154
-144.531	142.831	-0.172	0.297
-143.516	-152.447	0.205	0.019
-142.502	94.325	-0.157	-0.231
-141.487	43.717	-0.122	0.145
-140.472	-26.083	0.264	0.201
-139.458	-81.481	-0.407	0.173
-138.443	445.714	-0.073	0.209
-137.429	37.626	0.117	-0.135
-136.414	-50.437	-0.247	-0.151
-135.399	-158.936	-0.300	0.022
-134.385	-106.674	0.311	0.089
-133.370	113.629	0.057	0.090
-132.356	143.245	0.137	0.237
-131.341	243.663	-0.081	0.178
-130.326	-200.000	0.040	0.492
-129.312	529.932	0.077	-0.238
-128.297	-99.157	0.295	0.096
-127.283	-32.954	-0.175	-0.125
-126.268	-128.437	-0.682	-0.124
-125.253	-191.509	-0.122	0.002
-124.239	-11.088	0.207	-0.176
-123.224	-114.638	0.096	0.024
-122.210	-85.819	0.418	0.167
-121.195	-106.161	0.301	0.087
-120.180	-121.469	-0.181	0.039
