DTS Sentinel unit serial number:	SN409020Multiplexer serial number:	ORYXHardware model number:	OX4-SRSoftware version number:	ORYX F/W v3.00 Oryx Data Collector v3.7.2.0data status	okinstallation	HaddamTimeLapsedifferential loss correction	single-endedforward channel	channel 3reverse channel	N/Adate	2011/06/22time	08:11:17forward acquisition time	30.00reverse acquisition time	0.00gamma	498.7831k internal	0.1771k external	0.1771temperature offset calibration	1.0074default loss term (dB/km)	0.3790temperature slope calibration	1.3530multiplexer offset coefficient	1.0000multiplexer slope coefficient	1.0000fibre end	0.00T internal ref (°C)	25.03T ext. ref 1 (°C)	23.51T ext. ref 2 (°C)	0.16length (m)	temperature (°C)	Stokes	anti-Stokes-747.200	-200.000	0.035	-0.298
-746.185	363.938	-0.090	-0.238
-745.171	-6.471	-0.132	0.118
-744.156	-135.420	0.341	0.053
-743.142	-171.225	-0.308	0.013
-742.127	-200.000	0.045	0.334
-741.112	427.152	0.046	0.130
-740.098	-200.000	-0.021	0.460
-739.083	208.876	-0.135	-0.278
-738.069	87.644	0.394	0.573
-737.054	-76.207	0.339	-0.156
-736.039	94.668	0.310	-0.464
-735.025	800.000	-0.068	-0.304
-734.010	-92.532	-0.610	0.224
-732.996	800.000	-0.063	-0.339
-731.981	800.000	-0.038	0.164
-730.966	800.000	0.059	-0.250
-729.952	-200.000	-0.019	-0.291
-728.937	-111.668	0.185	0.049
-727.923	348.898	0.160	0.417
-726.908	-200.000	0.018	-0.189
-725.894	396.788	0.026	0.072
-724.879	-87.862	-0.233	0.091
-723.864	-104.064	0.242	-0.073
-722.850	464.203	0.081	0.239
-721.835	-40.705	-0.168	0.114
-720.821	-12.225	-0.183	-0.157
-719.806	-111.055	0.376	0.100
-718.791	-44.361	0.217	-0.142
-717.777	-71.828	-0.131	0.064
-716.762	413.763	0.085	-0.237
-715.748	90.336	-0.038	0.056
-714.733	612.780	-0.123	0.408
-713.718	-200.000	-0.056	-0.415
-712.704	-138.303	-0.574	0.082
-711.689	781.176	0.056	-0.202
-710.675	-81.083	0.449	0.194
-709.660	800.000	0.119	0.604
-708.645	108.875	0.082	-0.129
-707.631	-200.000	0.013	0.381
-706.616	-113.051	-0.441	-0.113
-705.602	-51.870	-0.435	-0.265
-704.587	-98.849	-0.518	-0.172
-703.572	-48.089	0.208	0.131
-702.558	-137.768	0.352	0.051
-701.543	-113.349	0.436	0.112
-700.529	-12.064	-0.056	0.048
-699.514	-92.379	-0.421	0.154
-698.499	137.894	-0.050	-0.087
-697.485	-127.251	0.294	-0.056
-696.470	-200.000	0.009	-0.972
-695.456	-200.000	0.007	-0.411
-694.441	-154.697	-0.376	0.032
-693.426	20.233	-0.310	-0.328
-692.412	40.160	0.326	-0.384
-691.397	-54.672	0.229	-0.135
-690.383	800.000	-0.058	-0.316
-689.368	30.208	-0.276	0.308
-688.354	-171.559	-0.534	0.023
-687.339	52.967	0.132	0.165
-686.324	-115.173	0.353	-0.087
-685.310	445.979	0.150	-0.433
-684.295	212.039	-0.294	0.609
-683.281	-108.340	0.579	0.163
-682.266	-10.876	0.243	0.210
-681.251	115.927	0.183	0.294
-680.237	-117.849	-0.359	-0.084
-679.222	572.203	-0.036	-0.116
-678.208	178.428	0.205	-0.393
-677.193	-36.370	-0.221	0.156
-676.178	-72.168	-0.219	0.106
-675.164	-136.200	0.166	0.025
-674.149	-98.687	-0.486	0.161
-673.135	110.947	-0.356	0.562
-672.120	-63.153	-0.177	0.095
-671.105	102.015	0.049	-0.075
-670.091	800.000	-0.079	-0.301
-669.076	44.334	-0.198	0.238
-668.062	45.278	0.081	0.098
-667.047	10.780	0.263	-0.262
-666.032	-107.036	0.277	-0.079
-665.018	-33.680	-0.286	-0.206
-664.003	-169.194	-0.171	0.008
-662.989	-136.203	-0.624	-0.095
-661.974	-134.593	-0.365	-0.058
-660.959	166.227	0.154	-0.286
-659.945	14.582	0.073	0.075
-658.930	-85.428	-0.105	-0.043
-657.916	561.749	0.109	-0.346
-656.901	52.732	0.136	0.170
-655.886	-137.561	-0.281	-0.041
-654.872	-160.160	-0.082	-0.006
-653.857	-116.906	0.461	-0.110
-652.843	-103.676	-0.126	-0.039
-651.828	12.632	0.150	0.151
-650.814	-57.178	0.278	-0.160
-649.799	5.498	-0.201	0.194
-648.784	306.586	-0.149	0.364
-647.770	-37.669	0.178	0.124
-646.755	-55.154	0.150	0.088
-645.741	13.625	0.199	0.202
-644.726	-32.461	0.489	-0.356
-643.711	-46.058	-0.250	-0.161
-642.697	0.771	-0.255	0.239
-641.682	-39.671	0.269	-0.184
-640.668	106.088	-0.135	-0.210
-639.653	-151.893	-0.278	0.026
-638.638	420.183	0.105	-0.297
-637.624	-129.500	0.266	0.048
-636.609	-200.000	0.002	0.835
-635.595	-200.000	0.149	0.000
-634.580	-47.150	-0.387	-0.246
-633.565	466.724	0.075	-0.222
-632.551	-200.000	0.037	-0.305
-631.536	-153.885	-0.479	0.042
-630.522	21.835	0.049	0.052
-629.507	3.631	0.219	0.208
-628.492	20.709	0.382	0.405
-627.478	134.634	-0.180	-0.306
-626.463	72.007	0.113	0.153
-625.449	26.977	-0.316	-0.347
-624.434	-156.071	-0.488	-0.040
-623.419	-56.381	-0.410	-0.237
-622.405	-82.588	0.289	0.122
-621.390	329.100	-0.112	0.282
-620.376	-200.000	-0.035	-0.394
-619.361	9.163	0.432	-0.426
-618.346	-45.131	-0.540	-0.350
-617.332	-41.796	-0.242	0.162
-616.317	-28.460	-0.144	0.108
-615.303	-200.000	0.078	-0.582
-614.288	-68.891	0.365	0.183
-613.273	-154.502	0.477	-0.041
-612.259	-47.320	0.404	0.256
-611.244	800.000	0.087	-0.488
-610.230	-137.314	-0.092	0.014
-609.215	-32.626	0.643	-0.467
-608.201	43.663	0.134	-0.160
-607.186	84.360	0.354	-0.507
-606.171	-85.207	0.215	-0.087
-605.157	-95.168	0.341	0.119
-604.142	-30.823	0.198	-0.146
-603.128	800.000	-0.071	-0.377
-602.113	-197.082	0.259	-0.002
-601.098	-200.000	0.037	0.226
-600.084	-53.278	-0.273	0.163
-599.069	-200.000	-0.039	-0.420
-598.055	-85.836	0.081	0.032
-597.040	-66.306	-0.125	-0.065
-596.025	562.579	0.124	-0.395
-595.011	-55.187	-0.113	-0.066
-593.996	71.384	0.155	-0.211
-592.982	-62.201	-0.200	-0.108
-591.967	-110.830	-0.234	-0.063
-590.952	800.000	0.109	-0.508
-589.938	-83.786	0.392	-0.163
-588.923	-18.510	0.209	-0.170
-587.909	-25.336	-0.165	0.127
-586.894	-145.335	-0.551	-0.064
-585.879	339.589	-0.147	0.375
-584.865	800.000	0.050	0.249
-583.850	13.152	-0.202	-0.204
-582.836	-34.072	-0.212	-0.152
-581.821	287.932	-0.072	-0.171
-580.806	100.755	-0.489	0.744
-579.792	-188.385	0.145	0.002
-578.777	-20.113	-0.425	-0.342
-577.763	-200.000	0.011	-0.143
-576.748	133.479	0.336	-0.568
-575.733	109.301	0.095	-0.148
-574.719	-63.709	-0.235	-0.125
-573.704	31.903	-0.358	-0.403
-572.690	-1.707	-0.197	0.181
-571.675	191.082	0.166	-0.327
-570.661	-186.264	-0.333	0.006
-569.646	-65.189	0.310	0.162
-568.631	115.770	0.072	0.115
-567.617	-118.404	-0.713	-0.164
-566.602	800.000	0.056	0.323
-565.588	-73.202	0.378	0.180
-564.573	-83.001	0.167	0.070
-563.558	-200.000	0.017	-0.163
-562.544	-85.327	-0.189	-0.077
-561.529	95.645	0.453	-0.675
-560.515	-171.325	0.156	-0.007
-559.500	-88.994	-0.460	-0.177
-558.485	154.642	-0.190	0.341
-557.471	-70.633	-0.415	0.204
-556.456	-45.539	-0.070	-0.045
-555.442	229.571	0.213	-0.456
-554.427	54.146	0.247	0.310
-553.412	-164.974	-0.336	-0.019
-552.398	-200.000	0.017	0.152
-551.383	-148.039	-0.246	-0.026
-550.369	90.609	0.097	-0.141
-549.354	-114.494	-0.198	-0.049
-548.339	-163.810	-0.311	-0.019
-547.325	-200.000	-0.004	0.260
-546.310	-122.884	-0.132	0.028
-545.296	-113.913	-0.418	-0.105
-544.281	37.748	0.216	-0.250
-543.266	-23.443	-0.178	0.139
-542.252	-28.094	0.213	-0.160
-541.237	-171.418	-0.496	-0.021
-540.223	144.919	-0.098	-0.172
-539.208	-200.000	0.008	0.402
-538.193	-76.156	-0.086	-0.039
-537.179	-136.826	-0.382	-0.057
-536.164	342.038	-0.192	0.490
-535.150	44.396	-0.131	-0.157
-534.135	-200.000	-0.049	-0.286
-533.121	-38.991	0.354	0.242
-532.106	-200.000	0.001	0.129
-531.091	-200.000	-0.060	0.440
-530.077	-108.740	0.581	-0.161
-529.062	30.549	0.288	-0.321
-528.048	114.047	0.151	-0.239
-527.033	0.932	-0.199	-0.186
-526.018	-109.460	0.360	0.098
-525.004	-7.117	0.325	-0.287
-523.989	-9.484	-0.124	-0.108
-522.975	-200.000	-0.003	-0.130
-521.960	-40.585	0.246	0.166
-520.945	-200.000	-0.076	-0.596
-519.931	-87.804	-0.417	-0.163
-518.916	-46.196	0.180	-0.115
-517.902	-200.000	-0.012	0.150
-516.887	227.950	-0.092	0.196
-515.872	800.000	0.083	0.339
-514.858	13.008	0.086	0.086
-513.843	119.129	-0.078	0.125
-512.829	63.418	0.184	-0.241
-511.814	-200.000	0.009	0.261
-510.799	-200.000	-0.025	-0.210
-509.785	-167.580	0.576	0.029
-508.770	64.694	-0.158	0.208
-507.756	59.592	0.228	-0.292
-506.741	-200.000	0.024	-0.282
-505.726	190.693	-0.118	-0.232
-504.712	-42.256	0.503	-0.334
-503.697	134.207	0.174	-0.293
-502.683	-200.000	0.003	-0.019
-501.668	-200.000	0.010	0.182
-500.653	800.000	0.109	0.596
-499.639	-21.107	0.294	0.234
-498.624	12.151	0.102	0.102
-497.610	-68.221	0.253	-0.128
-496.595	-154.715	-0.379	0.032
-495.581	256.204	-0.103	0.231
-494.566	800.000	-0.053	-0.281
-493.551	150.120	0.214	-0.378
-492.537	31.251	0.073	0.081
-491.522	-90.905	-0.184	-0.068
-490.508	-61.863	0.133	-0.072
-489.493	261.142	0.116	0.261
-488.478	-200.000	-0.007	-0.109
-487.464	50.810	-0.274	-0.338
-486.449	-6.842	0.405	0.357
-485.435	-129.457	-0.261	-0.047
-484.420	83.755	-0.333	-0.473
-483.405	-65.889	0.377	-0.195
-482.391	246.759	-0.194	0.426
-481.376	800.000	0.042	-0.205
-480.362	507.088	0.127	0.384
-479.347	-4.326	0.203	0.182
-478.332	36.399	0.095	0.109
-477.318	-31.886	-0.186	-0.135
-476.303	-31.368	0.169	0.124
-475.289	-200.000	0.028	0.000
-474.274	-13.939	0.150	-0.125
-473.259	722.131	0.077	0.267
-472.245	550.420	0.117	-0.365
-471.230	-31.368	-0.366	0.267
-470.216	118.657	0.347	-0.559
-469.201	-74.974	-0.116	0.054
-468.186	-80.773	0.327	-0.141
-467.172	-200.000	0.019	-0.179
-466.157	-9.715	0.337	0.292
-465.143	240.544	0.079	0.171
-464.128	800.000	0.031	0.112
-463.113	-93.454	0.226	-0.081
-462.099	173.523	-0.177	0.332
-461.084	-74.647	0.239	0.111
-460.070	-125.185	-0.366	-0.072
-459.055	-151.392	0.441	-0.042
-458.040	-200.000	-0.007	0.122
-457.026	582.138	0.096	-0.308
-456.011	48.257	-0.319	-0.387
-454.997	-89.183	-0.115	-0.044
-453.982	-56.381	-0.286	-0.164
-452.968	-147.733	-0.627	-0.067
-451.953	-34.317	0.285	-0.202
-450.938	200.193	0.153	-0.306
-449.924	-85.643	0.151	-0.061
-448.909	-69.861	-0.015	-0.008
-447.895	302.908	-0.249	0.602
-446.880	59.832	0.390	0.500
-445.865	-90.881	0.422	-0.157
-444.851	-144.056	0.213	0.026
-443.836	6.085	0.250	0.240
-442.822	-200.000	-0.009	0.234
-441.807	-28.516	-0.390	0.291
-440.792	800.000	0.126	0.650
-439.778	-121.633	0.534	0.114
-438.763	-138.362	0.557	0.079
-437.749	-200.000	-0.433	-0.001
-436.734	-9.783	0.111	-0.095
-435.719	201.179	0.125	0.250
-434.705	-11.078	-0.270	-0.231
-433.690	-80.410	0.474	-0.205
-432.676	139.804	-0.224	-0.385
-431.661	-55.036	0.347	-0.202
-430.646	-117.641	0.387	-0.090
-429.632	800.000	0.041	-0.230
-428.617	-200.000	0.039	0.294
-427.603	233.790	-0.146	-0.314
-426.588	130.256	-0.028	0.046
-425.573	61.208	-0.202	0.261
-424.559	-150.783	0.253	-0.025
-423.544	116.875	0.249	0.398
-422.530	137.765	-0.123	-0.210
-421.515	147.981	-0.158	-0.276
-420.500	-33.496	-0.479	0.342
-419.486	18.760	0.462	0.480
-418.471	166.254	0.098	-0.181
-417.457	-200.000	0.021	-0.145
-416.442	800.000	-0.154	0.707
-415.428	800.000	0.043	0.226
-414.413	800.000	0.024	0.113
-413.398	-81.525	0.572	0.243
-412.384	296.332	0.159	-0.380
-411.369	-161.693	-0.505	-0.033
-410.355	800.000	-0.075	-0.370
-409.340	356.664	-0.116	-0.300
-408.325	233.566	-0.113	0.242
-407.311	30.135	0.039	-0.043
-406.296	-54.056	0.285	-0.168
-405.282	-117.406	0.219	-0.051
-404.267	-173.045	-0.274	0.011
-403.252	-21.320	0.099	0.078
-402.238	-76.313	0.245	-0.111
-401.223	-200.000	-0.016	0.221
-400.209	-135.281	0.373	0.057
-399.194	-46.378	-0.176	0.112
-398.179	49.535	0.166	0.202
-397.165	-200.000	0.017	-0.309
-396.150	53.800	-0.290	-0.361
-395.136	-88.474	-0.342	-0.131
-394.121	-50.655	-0.143	-0.087
-393.106	-190.848	0.778	0.010
-392.092	-184.608	0.494	0.010
-391.077	-49.970	-0.077	-0.047
-390.063	-16.278	0.071	0.058
-389.048	-38.391	-0.287	-0.196
-388.033	140.908	-0.101	0.174
-387.019	631.408	0.184	0.606
-386.004	-17.939	-0.105	-0.085
-384.990	-60.833	-0.204	-0.111
-383.975	54.133	0.016	0.020
-382.960	-94.510	0.227	-0.080
-381.946	-100.092	0.152	0.049
-380.931	560.860	-0.143	-0.448
-379.917	-148.292	0.146	0.015
-378.902	85.309	-0.130	-0.185
-377.888	-44.542	0.224	0.145
-376.873	800.000	0.133	0.478
-375.858	-124.717	-0.628	-0.125
-374.844	-126.747	-0.316	0.060
-373.829	-200.000	0.043	0.335
-372.815	-47.950	0.269	-0.168
-371.800	16.070	-0.151	0.154
-370.785	-80.896	0.404	-0.173
-369.771	-94.952	0.408	-0.142
-368.756	-46.638	-0.089	0.056
-367.742	800.000	0.072	-0.269
-366.727	-200.000	0.003	-0.266
-365.712	-117.451	-0.074	0.017
-364.698	-105.653	0.209	-0.061
-363.683	-200.000	-0.066	0.482
-362.669	240.684	-0.113	-0.245
-361.654	800.000	0.064	0.315
-360.639	-94.273	0.565	0.199
-359.625	-15.343	0.470	0.388
-358.610	-108.421	0.213	0.059
-357.596	-145.068	-0.302	0.035
-356.581	-78.157	-0.223	-0.099
-355.566	-90.302	-0.697	0.260
-354.552	231.034	-0.044	0.093
-353.537	117.360	-0.143	-0.228
-352.523	-62.803	0.141	0.075
-351.508	719.356	-0.110	0.381
-350.493	-74.088	-0.149	-0.069
-349.479	-104.141	-0.124	0.037
-348.464	42.117	0.195	0.229
-347.450	-45.038	-0.719	0.461
-346.435	-86.663	-0.061	-0.024
-345.420	-167.746	-0.260	-0.013
-344.406	140.203	-0.161	-0.275
-343.391	-200.000	-0.007	0.211
-342.377	-200.000	-0.012	0.311
-341.362	800.000	0.044	-0.216
-340.348	-94.351	0.414	0.145
-339.333	38.630	0.035	0.041
-338.318	162.341	-0.280	0.509
-337.304	-200.000	0.002	0.467
-336.289	42.686	-0.042	0.049
-335.275	-17.233	-0.164	-0.134
-334.260	-130.879	0.297	0.051
-333.245	800.000	0.033	-0.180
-332.231	-115.213	-0.506	0.123
-331.216	-124.256	-0.214	-0.043
-330.202	-6.327	0.068	0.060
-329.187	-163.775	0.431	0.026
-328.172	-109.942	-0.401	-0.108
-327.158	-58.918	0.189	-0.105
-326.143	-133.685	-0.324	0.052
-325.129	-200.000	-0.031	0.206
-324.114	-111.764	0.730	0.189
-323.099	15.517	-0.358	-0.363
-322.085	-3.787	-0.403	0.361
-321.070	-117.590	-0.230	-0.053
-320.056	61.329	-0.142	0.183
-319.041	-134.237	0.572	-0.090
-318.026	-89.610	-0.180	-0.068
-317.012	41.877	-0.252	-0.296
-315.997	-200.000	0.093	0.533
-314.983	-38.758	0.185	-0.125
-313.968	-14.545	-0.468	0.388
-312.953	-92.464	-0.128	0.046
-311.939	39.364	0.075	0.087
-310.924	-164.753	-0.071	-0.004
-309.910	-38.760	0.111	0.076
-308.895	-140.952	-0.145	-0.019
-307.880	760.565	-0.122	-0.429
-306.866	-38.468	0.308	-0.210
-305.851	-200.000	-0.001	-0.011
-304.837	-71.200	0.239	-0.116
-303.822	52.431	0.234	0.288
-302.807	800.000	-0.094	0.496
-301.793	-122.399	-0.173	-0.036
-300.778	394.715	-0.134	0.361
-299.764	-200.000	-0.004	-0.424
-298.749	-5.914	-0.389	-0.343
-297.735	-166.437	-0.476	-0.025
-296.720	67.991	-0.393	0.519
-295.705	-104.838	-0.340	-0.100
-294.691	-42.496	-0.455	0.299
-293.676	-200.000	-0.001	-0.213
-292.662	-200.000	0.003	-0.325
-291.647	447.440	0.009	-0.026
-290.632	635.574	0.079	0.262
-289.618	-107.568	0.100	0.028
-288.603	-200.000	0.003	0.527
-287.589	-118.064	0.475	0.109
-286.574	528.923	-0.068	-0.208
-285.559	46.635	-0.085	0.102
-284.545	134.641	-0.272	0.456
-283.530	-83.233	-0.555	0.229
-282.516	141.879	-0.119	0.204
-281.501	-30.490	-0.107	-0.078
-280.486	112.552	-0.107	-0.167
-279.472	262.503	-0.157	-0.353
-278.457	-82.931	-0.314	-0.130
-277.443	-57.831	-0.302	-0.170
-276.428	724.410	-0.132	-0.458
-275.413	-192.842	0.261	0.003
-274.399	-86.297	0.503	-0.199
-273.384	-31.037	-0.101	0.073
-272.370	-186.894	-0.184	-0.003
-271.355	-92.135	-0.186	0.067
-270.340	-35.848	0.417	-0.290
-269.326	-24.177	-0.182	0.140
-268.311	-200.000	-0.049	-0.436
-267.297	14.917	0.435	0.439
-266.282	23.498	0.189	-0.200
-265.267	-8.263	0.307	0.266
-264.253	-200.000	-0.056	-0.731
-263.238	-105.897	0.241	0.070
-262.224	249.712	0.205	0.449
-261.209	-97.156	0.349	-0.117
-260.195	-200.000	0.006	0.055
-259.180	-119.474	0.221	0.049
-258.165	-103.328	-0.387	0.117
-257.151	-140.175	-0.390	-0.052
-256.136	3.030	-0.128	0.120
-255.122	547.164	-0.136	-0.423
-254.107	245.680	-0.130	-0.283
-253.092	-1.445	0.156	-0.141
-252.078	-61.290	-0.275	-0.149
-251.063	492.605	0.058	-0.171
-250.049	-160.535	0.389	0.026
-249.034	-166.724	-0.223	0.012
-248.019	-41.937	-0.467	-0.308
-247.005	-112.518	-0.419	-0.107
-245.990	-87.443	0.327	0.127
-244.976	-200.000	0.052	0.684
-243.961	-107.461	0.172	0.048
-242.946	-64.773	0.116	0.060
-241.932	36.537	0.083	0.094
-240.917	-143.733	0.247	-0.030
-239.903	143.955	0.133	-0.228
-238.888	626.439	0.097	-0.316
-237.873	-200.000	0.061	-0.386
-236.859	-43.835	-0.371	-0.240
-235.844	-24.387	0.371	0.285
-234.830	-175.931	0.136	-0.005
-233.815	11.001	-0.129	0.127
-232.800	-200.000	-0.003	-0.284
-231.786	-18.938	0.355	0.284
-230.771	-65.108	0.107	0.055
-229.757	-47.401	-0.348	-0.217
-228.742	-200.000	-0.018	-0.149
-227.727	800.000	-0.089	-0.364
-226.713	-37.185	-0.134	0.092
-225.698	51.045	-0.208	-0.254
-224.684	22.925	0.482	-0.509
-223.669	-152.238	-0.373	0.034
-222.655	-141.023	-0.275	-0.036
-221.640	-132.529	-0.496	0.081
-220.625	-0.916	-0.132	0.121
-219.611	-187.326	0.238	-0.004
-218.596	-39.072	-0.657	0.444
-217.582	-8.973	-0.373	-0.321
-216.567	521.328	-0.081	0.246
-215.552	25.539	0.213	0.228
-214.538	509.601	0.164	0.492
-213.523	-150.796	0.495	-0.048
-212.509	145.120	0.120	-0.206
-211.494	-64.669	-0.608	-0.316
-210.479	-70.146	-0.135	0.066
-209.465	-90.879	-0.521	0.192
-208.450	109.544	0.312	0.482
-207.436	800.000	0.072	0.397
-206.421	-125.352	0.399	-0.078
-205.406	328.233	0.215	0.533
-204.392	-93.895	0.290	-0.102
-203.377	-175.684	0.535	-0.018
-202.363	800.000	-0.099	0.437
-201.348	-58.406	-0.100	0.056
-200.333	50.730	-0.327	0.398
-199.319	-183.467	0.035	-0.001
-198.304	-52.978	-0.193	-0.114
-197.290	-10.277	-0.278	-0.237
-196.275	-200.000	-0.037	-0.430
-195.260	-93.533	0.362	-0.128
-194.246	458.003	0.095	-0.273
-193.231	-86.312	-0.219	0.086
-192.217	-56.351	-0.062	-0.036
-191.202	800.000	0.095	-0.348
-190.187	155.554	-0.115	-0.204
-189.173	-200.000	-0.050	-0.356
-188.158	-200.000	0.005	0.387
-187.144	-173.353	0.432	-0.017
-186.129	531.427	-0.098	-0.300
-185.114	-112.261	0.321	0.082
-184.100	-93.821	0.288	0.101
-183.085	-55.263	-0.163	0.094
-182.071	71.787	0.141	-0.188
-181.056	-42.576	0.155	-0.101
-180.042	800.000	-0.028	0.137
-179.027	514.684	-0.139	0.420
-178.012	-3.899	0.207	-0.184
-176.998	-149.306	0.120	-0.012
-175.983	-118.428	-0.471	-0.106
-174.969	282.432	-0.034	0.080
-173.954	5.627	-0.151	0.143
-172.939	-36.453	-0.276	0.190
-171.925	-200.000	-0.030	0.290
-170.910	-200.000	-0.032	0.562
-169.896	-105.682	0.287	-0.083
-168.881	163.528	0.327	0.591
-167.866	425.222	0.183	0.510
-166.852	-200.000	0.030	0.398
-165.837	49.033	-0.068	0.082
-164.823	252.736	0.187	0.410
-163.808	-17.537	-0.389	-0.313
-162.793	-102.835	0.371	0.113
-161.779	-65.423	-0.175	0.090
-160.764	-200.000	-0.042	-0.262
-159.750	-75.798	-0.314	0.142
-158.735	-31.085	-0.268	-0.193
-157.720	-111.301	0.112	-0.029
-156.706	-200.000	-0.022	0.275
-155.691	166.764	-0.042	-0.077
-154.677	-93.097	-0.573	0.204
-153.662	-95.694	0.244	-0.083
-152.647	-123.817	0.390	0.078
-151.633	-147.224	-0.357	-0.039
-150.618	-75.962	-0.208	-0.094
-149.604	40.167	-0.212	0.245
-148.589	-200.000	0.023	-0.310
-147.574	80.299	0.193	0.267
-146.560	99.247	0.045	0.067
-145.545	-39.213	0.186	-0.125
-144.531	-83.524	0.162	0.066
-143.516	-200.000	0.027	-0.184
-142.502	-200.000	0.006	0.086
-141.487	20.880	0.093	-0.096
-140.472	-93.637	-0.161	-0.057
-139.458	244.676	0.184	-0.398
-138.443	270.272	0.171	-0.386
-137.429	12.640	-0.563	-0.558
-136.414	176.278	-0.209	-0.391
-135.399	-15.223	0.216	0.177
-134.385	-25.621	-0.262	0.198
-133.370	295.217	-0.256	-0.602
-132.356	48.337	-0.272	-0.327
-131.341	-165.433	-0.193	-0.011
-130.326	128.706	-0.050	-0.082
-129.312	-11.132	-0.289	0.244
-128.297	-200.000	0.007	-0.075
-127.283	475.610	-0.186	-0.541
-126.268	-28.652	-0.899	-0.662
-125.253	631.626	-0.057	0.187
-124.239	-200.000	-0.003	0.287
-123.224	-73.622	-0.095	0.044
-122.210	121.874	-0.344	-0.551
