DTS Sentinel unit serial number:	SN409020Multiplexer serial number:	ORYXHardware model number:	OX4-SRSoftware version number:	ORYX F/W v3.00 Oryx Data Collector v3.7.2.0data status	okinstallation	HaddamTimeLapsedifferential loss correction	single-endedforward channel	channel 3reverse channel	N/Adate	2011/06/22time	09:11:16forward acquisition time	30.00reverse acquisition time	0.00gamma	498.7831k internal	0.1797k external	0.1797temperature offset calibration	1.0074default loss term (dB/km)	0.3790temperature slope calibration	1.3530multiplexer offset coefficient	1.0000multiplexer slope coefficient	1.0000fibre end	0.00T internal ref (°C)	27.78T ext. ref 1 (°C)	23.66T ext. ref 2 (°C)	0.17length (m)	temperature (°C)	Stokes	anti-Stokes-747.200	-200.000	-0.013	0.280
-746.185	24.546	-0.281	0.301
-745.171	-73.311	-0.306	-0.144
-744.156	800.000	0.080	0.409
-743.142	735.671	0.133	-0.463
-742.127	40.335	-0.359	0.419
-741.112	1.483	-0.288	0.268
-740.098	800.000	0.095	0.473
-739.083	-42.317	-0.113	0.075
-738.069	765.941	0.127	0.449
-737.054	-85.791	-0.080	0.032
-736.039	-140.983	-0.341	0.045
-735.025	-71.922	-0.361	-0.173
-734.010	185.073	-0.166	0.319
-732.996	-200.000	-0.095	-0.599
-731.981	-90.463	-0.162	0.060
-730.966	-168.658	-0.377	-0.018
-729.952	464.889	0.151	-0.440
-728.937	-200.000	0.039	0.236
-727.923	-108.249	0.408	0.113
-726.908	-98.583	0.383	-0.126
-725.894	-45.113	-0.491	0.315
-724.879	276.025	0.015	0.035
-723.864	84.037	-0.115	-0.162
-722.850	-29.168	0.139	-0.103
-721.835	-122.732	-0.061	-0.013
-720.821	-136.497	-0.229	-0.034
-719.806	111.504	-0.256	0.400
-718.791	259.838	0.103	-0.230
-717.777	800.000	0.078	-0.296
-716.762	-165.075	0.493	0.028
-715.748	-160.227	0.641	0.044
-714.733	-200.000	0.020	0.317
-713.718	59.813	0.220	-0.281
-712.704	800.000	-0.169	-0.759
-711.689	369.571	-0.050	-0.131
-710.675	-130.158	-0.256	-0.045
-709.660	-54.335	-0.551	0.322
-708.645	242.499	-0.027	0.060
-707.631	-200.000	-0.100	0.581
-706.616	-56.123	0.123	-0.070
-705.602	-200.000	-0.037	-0.367
-704.587	365.794	-0.057	0.149
-703.572	-124.929	-0.131	0.026
-702.558	88.743	-0.222	-0.319
-701.543	800.000	0.020	-0.116
-700.529	-139.560	0.107	-0.015
-699.514	-200.000	-0.013	-0.103
-698.499	470.863	-0.091	0.266
-697.485	424.420	0.029	0.080
-696.470	138.920	0.127	-0.217
-695.456	-106.677	-0.581	-0.166
-694.441	-88.233	-0.568	-0.219
-693.426	-90.861	-0.200	0.074
-692.412	-200.000	-0.002	0.493
-691.397	-200.000	0.004	-0.171
-690.383	35.816	0.082	0.093
-689.368	499.663	0.105	-0.315
-688.354	-200.000	0.010	-0.145
-687.339	619.396	0.162	0.528
-686.324	476.872	-0.101	0.296
-685.310	-44.229	-0.223	-0.144
-684.295	348.109	0.048	0.122
-683.281	-35.097	-0.505	-0.354
-682.266	-41.177	0.234	0.155
-681.251	-179.820	0.239	0.007
-680.237	198.619	0.060	-0.118
-679.222	-200.000	-0.510	-0.001
-678.208	-33.809	-0.379	0.269
-677.193	-105.741	-0.342	-0.099
-676.178	146.699	-0.268	-0.466
-675.164	138.465	0.046	-0.078
-674.149	254.951	0.124	0.275
-673.135	-76.189	0.771	0.349
-672.120	42.664	-0.062	0.073
-671.105	-116.265	0.273	-0.065
-670.091	38.295	-0.337	0.387
-669.076	-10.256	-0.223	0.191
-668.062	800.000	-0.067	0.259
-667.047	595.139	0.080	0.256
-666.032	-108.984	-0.280	0.076
-665.018	-200.000	0.002	-0.107
-664.003	-32.050	-0.401	-0.289
-662.989	-17.792	-0.032	0.026
-661.974	170.529	-0.120	-0.222
-660.959	-200.000	-0.000	-0.167
-659.945	-200.000	-0.046	-0.279
-658.930	-72.336	0.357	-0.170
-657.916	-67.724	-0.317	-0.160
-656.901	-70.246	0.331	-0.161
-655.886	162.233	0.047	-0.085
-654.872	-67.034	-0.437	-0.221
-653.857	-65.579	-0.318	-0.164
-652.843	-99.028	-0.193	0.063
-651.828	800.000	-0.052	-0.240
-650.814	-159.233	-0.100	-0.007
-649.799	800.000	0.033	0.170
-648.784	-4.202	-0.488	-0.435
-647.770	-200.000	-0.021	0.310
-646.755	-200.000	-0.002	0.111
-645.741	800.000	-0.118	-0.542
-644.726	103.597	0.146	0.221
-643.711	121.393	0.096	0.155
-642.697	-127.063	0.143	-0.027
-641.682	-97.885	0.620	-0.205
-640.668	-200.000	0.041	-0.516
-639.653	-0.927	-0.248	0.226
-638.638	61.087	-0.166	0.213
-637.624	800.000	-0.089	0.387
-636.609	-109.050	-0.417	0.114
-635.595	-77.750	0.656	0.291
-634.580	-38.317	0.400	0.272
-633.565	168.009	0.173	-0.318
-632.551	421.521	-0.092	-0.255
-631.536	303.638	-0.206	-0.495
-630.522	-166.704	0.491	0.026
-629.507	-34.131	-0.197	0.139
-628.492	-139.591	-0.382	-0.052
-627.478	106.106	-0.308	-0.471
-626.463	-200.000	-0.036	-0.354
-625.449	-200.000	0.012	-0.265
-624.434	69.224	0.219	-0.290
-623.419	39.902	0.263	-0.305
-622.405	-136.021	0.328	-0.049
-621.390	95.310	-0.292	0.429
-620.376	-200.000	0.037	0.252
-619.361	149.570	-0.254	0.445
-618.346	26.695	-0.164	-0.177
-617.332	-122.488	0.140	-0.029
-616.317	-29.204	0.339	0.250
-615.303	127.868	-0.156	-0.257
-614.288	117.299	-0.278	-0.442
-613.273	415.654	0.142	0.392
-612.259	-77.997	0.418	-0.185
-611.244	8.006	-0.118	-0.113
-610.230	-37.812	-0.135	0.092
-609.215	147.148	-0.167	0.290
-608.201	-84.355	0.339	0.137
-607.186	14.536	0.336	0.338
-606.171	61.521	0.100	-0.128
-605.157	-200.000	-0.031	-0.259
-604.142	800.000	-0.048	0.250
-603.128	-200.000	0.019	-0.223
-602.113	-121.720	0.426	-0.090
-601.098	-27.728	0.263	0.196
-600.084	-113.098	0.303	-0.076
-599.069	-41.535	0.221	0.146
-598.055	-200.000	-0.027	-0.407
-597.040	-138.859	-0.393	-0.054
-596.025	109.650	-0.180	-0.278
-595.011	-120.884	0.334	0.072
-593.996	-151.659	-0.417	-0.039
-592.982	188.866	-0.148	-0.285
-591.967	30.958	-0.289	0.318
-590.952	358.855	-0.264	-0.682
-589.938	292.578	-0.144	0.339
-588.923	-92.777	0.233	-0.083
-587.909	-200.000	-0.042	0.324
-586.894	-89.461	0.691	-0.260
-585.879	-81.320	-0.228	-0.096
-584.865	-200.000	0.032	0.346
-583.850	-98.132	-0.403	-0.132
-582.836	-104.305	-0.070	0.021
-581.821	-64.792	-0.477	0.248
-580.806	800.000	-0.025	-0.121
-579.792	-123.102	0.419	-0.086
-578.777	-200.000	0.032	-0.240
-577.763	-191.894	-0.409	-0.005
-576.748	-140.094	-0.457	-0.061
-575.733	124.748	-0.065	0.105
-574.719	21.748	0.239	-0.250
-573.704	95.421	0.113	-0.166
-572.690	420.072	-0.104	0.289
-571.675	-62.961	-0.153	0.081
-570.661	-144.500	-0.250	-0.029
-569.646	64.537	-0.099	-0.128
-568.631	-92.900	-0.287	0.103
-567.617	32.474	0.177	-0.196
-566.602	2.060	0.147	-0.136
-565.588	-122.864	0.132	0.027
-564.573	-75.379	0.405	0.185
-563.558	-49.684	0.283	0.172
-562.544	-200.000	0.036	-0.413
-561.529	-21.384	-0.148	-0.116
-560.515	30.731	-0.328	-0.361
-559.500	-7.463	-0.469	-0.408
-558.485	411.203	-0.111	-0.304
-557.471	64.976	0.104	-0.134
-556.456	-89.828	0.177	0.066
-555.442	-139.708	-0.099	-0.013
-554.427	74.765	-0.154	-0.209
-553.412	-200.000	0.025	-0.377
-552.398	-112.572	-0.098	0.025
-551.383	-127.242	0.220	0.041
-550.369	-155.146	0.341	0.028
-549.354	196.532	0.179	0.352
-548.339	800.000	-0.027	0.135
-547.325	117.181	0.156	-0.246
-546.310	-200.000	-0.068	-0.509
-545.296	-128.960	-0.311	0.055
-544.281	716.434	-0.135	-0.463
-543.266	263.857	-0.238	-0.534
-542.252	-200.000	0.013	-0.275
-541.237	-43.952	0.455	-0.293
-540.223	118.550	-0.246	0.391
-539.208	-161.709	0.422	-0.027
-538.193	62.029	0.240	0.308
-537.179	800.000	-0.066	0.246
-536.164	336.878	-0.110	-0.276
-535.150	-129.797	-0.171	-0.030
-534.135	-133.927	-0.146	0.023
-533.121	413.149	0.067	0.183
-532.106	107.909	-0.260	0.398
-531.091	570.538	0.037	0.117
-530.077	133.024	0.299	0.496
-529.062	54.300	0.281	-0.347
-528.048	91.348	-0.105	-0.151
-527.033	-66.141	-0.534	-0.272
-526.018	-165.932	0.251	0.014
-525.004	800.000	-0.083	0.405
-523.989	-200.000	-0.005	-0.095
-522.975	-181.164	-0.254	0.006
-521.960	-43.751	-0.418	0.270
-520.945	-200.000	-0.047	-0.285
-519.931	-151.021	0.294	-0.028
-518.916	-27.927	-0.219	-0.163
-517.902	800.000	0.028	-0.123
-516.887	92.952	0.167	0.243
-515.872	94.050	-0.078	0.114
-514.858	-175.403	0.375	-0.013
-513.843	-114.347	-0.463	-0.113
-512.829	-200.000	-0.010	0.193
-511.814	71.388	0.095	0.127
-510.799	333.452	0.071	-0.176
-509.785	-17.401	-0.610	0.492
-508.770	548.840	-0.076	0.236
-507.756	26.199	0.332	0.355
-506.741	-200.000	0.067	0.393
-505.726	330.789	0.249	0.618
-504.712	-165.470	-0.088	-0.005
-503.697	800.000	0.143	-0.789
-502.683	304.398	0.134	0.320
-501.668	800.000	-0.040	0.153
-500.653	-137.591	-0.317	0.045
-499.639	800.000	0.026	-0.097
-498.624	-200.000	-0.021	-0.159
-497.610	800.000	-0.040	-0.156
-496.595	67.298	0.117	-0.153
-495.581	468.559	0.154	0.444
-494.566	-57.043	-0.255	0.143
-493.551	518.535	-0.064	-0.192
-492.537	-41.411	0.313	0.206
-491.522	178.522	0.130	0.243
-490.508	-117.691	0.252	0.058
-489.493	200.258	0.154	0.304
-488.478	-18.000	0.368	0.295
-487.464	-200.000	0.001	-0.328
-486.449	-58.740	-0.597	0.330
-485.435	-35.994	-0.027	0.019
-484.420	-169.824	0.285	-0.013
-483.405	-200.000	-0.045	0.557
-482.391	800.000	0.065	0.262
-481.376	800.000	-0.007	0.029
-480.362	800.000	0.059	-0.246
-479.347	115.197	0.254	-0.398
-478.332	-200.000	-0.040	0.312
-477.318	800.000	-0.054	0.269
-476.303	331.727	-0.054	-0.135
-475.289	-2.189	0.283	-0.254
-474.274	82.626	-0.214	0.298
-473.259	425.364	-0.161	0.447
-472.245	51.829	0.360	0.439
-471.230	-136.376	0.366	-0.054
-470.216	205.055	-0.228	0.455
-469.201	-152.178	-0.163	-0.015
-468.186	35.271	-0.421	-0.473
-467.172	-44.057	-0.089	0.057
-466.157	-171.523	-0.620	-0.026
-465.143	-159.021	0.210	0.015
-464.128	113.903	0.254	0.397
-463.113	24.569	-0.292	0.309
-462.099	-200.000	0.002	-0.305
-461.084	-200.000	-0.073	-0.491
-460.070	-8.269	-0.235	-0.202
-459.055	190.912	0.123	0.238
-458.040	51.604	-0.191	-0.232
-457.026	36.984	0.072	-0.082
-456.011	-2.111	-0.182	-0.164
-454.997	-13.463	-0.160	0.133
-453.982	-170.446	0.215	-0.009
-452.968	410.564	-0.047	-0.129
-451.953	-52.404	-0.376	0.222
-450.938	-131.127	0.300	-0.051
-449.924	800.000	0.106	-0.387
-448.909	15.557	0.108	-0.108
-447.895	445.790	-0.112	-0.316
-446.880	188.174	-0.204	-0.392
-445.865	-200.000	0.012	-0.073
-444.851	25.182	-0.172	0.183
-443.836	-114.201	0.198	0.049
-442.822	-36.221	0.300	-0.206
-441.807	-200.000	-0.002	0.367
-440.792	-95.806	0.409	-0.139
-439.778	128.928	0.183	-0.300
-438.763	-89.037	-0.164	-0.062
-437.749	-38.296	-0.298	-0.201
-436.734	680.217	0.126	0.423
-435.719	89.226	0.285	0.407
-434.705	-26.506	-0.274	0.205
-433.690	583.993	-0.103	0.324
-432.676	800.000	-0.059	-0.214
-431.661	800.000	-0.148	-0.657
-430.646	82.983	0.248	-0.346
-429.632	17.242	-0.117	-0.119
-428.617	-134.516	-0.290	0.045
-427.603	390.948	-0.060	-0.159
-426.588	189.490	0.100	-0.193
-425.573	6.185	0.319	-0.302
-424.559	385.039	-0.201	-0.533
-423.544	60.690	0.205	-0.260
-422.530	154.125	-0.182	-0.319
-421.515	-18.847	-0.253	-0.201
-420.500	-112.034	0.525	-0.134
-419.486	800.000	-0.080	0.381
-418.471	800.000	-0.094	-0.383
-417.457	800.000	-0.044	-0.180
-416.442	-130.818	0.375	0.064
-415.428	-92.965	0.194	-0.069
-414.413	-69.272	0.350	0.171
-413.398	-200.000	0.036	-0.275
-412.384	-200.000	0.042	-0.526
-411.369	-19.258	0.230	0.182
-410.355	-55.993	-0.286	0.162
-409.340	11.997	0.036	0.036
-408.325	-54.138	0.225	-0.130
-407.311	-81.739	0.348	0.145
-406.296	317.605	-0.271	0.658
-405.282	-200.000	-0.039	-0.317
-404.267	-200.000	-0.010	0.187
-403.252	-200.000	-0.103	0.677
-402.238	-10.566	-0.569	0.480
-401.223	-200.000	0.003	-0.087
-400.209	254.236	0.207	-0.453
-399.194	800.000	-0.169	0.677
-398.179	-200.000	0.263	0.001
-397.165	800.000	-0.029	0.156
-396.150	254.929	0.115	0.252
-395.136	160.882	-0.246	0.439
-394.121	50.403	-0.078	0.095
-393.106	-200.000	0.001	0.473
-392.092	117.815	0.240	0.378
-391.077	-128.618	0.184	0.033
-390.063	-47.353	0.050	-0.031
-389.048	52.442	-0.165	0.201
-388.033	-128.515	0.122	0.022
-387.019	176.523	0.305	0.567
-386.004	184.826	-0.195	0.369
-384.990	298.416	0.158	0.372
-383.975	-161.540	-0.578	-0.037
-382.960	-83.141	-0.241	0.098
-381.946	-113.616	0.177	0.044
-380.931	-91.400	0.380	0.138
-379.917	-200.000	-0.065	-0.397
-378.902	-200.000	-0.015	0.277
-377.888	-200.000	-0.015	-0.106
-376.873	800.000	-0.017	-0.077
-375.858	46.027	-0.200	-0.236
-374.844	-47.258	0.151	0.094
-373.829	729.801	0.050	0.171
-372.815	-197.610	0.181	-0.001
-371.800	174.688	-0.155	0.287
-370.785	-40.280	0.277	-0.183
-369.771	-92.971	-0.516	0.183
-368.756	166.388	0.095	0.172
-367.742	184.778	-0.394	0.746
-366.727	800.000	0.102	0.382
-365.712	-107.746	0.053	-0.015
-364.698	-131.488	0.165	0.027
-363.683	-200.000	-0.033	-0.451
-362.669	-84.415	0.262	-0.105
-361.654	-117.058	0.417	0.096
-360.639	-186.870	0.156	-0.003
-359.625	-185.893	0.172	0.003
-358.610	-88.142	-0.132	-0.050
-357.596	97.941	0.078	0.114
-356.581	-108.553	-0.572	0.156
-355.566	171.500	-0.114	0.210
-354.552	-135.947	0.381	0.057
-353.537	800.000	0.035	0.171
-352.523	-25.480	-0.567	-0.426
-351.508	-71.287	-0.175	-0.083
-350.493	-200.000	0.012	0.125
-349.479	-64.701	0.187	0.096
-348.464	-200.000	0.016	0.332
-347.450	134.674	0.210	0.348
-346.435	-67.962	0.414	0.205
-345.420	-200.000	-0.009	-0.335
-344.406	-28.467	-0.063	-0.046
-343.391	-62.345	0.102	0.054
-342.377	7.979	-0.436	-0.416
-341.362	-200.000	0.050	-0.647
-340.348	-200.000	-0.000	-0.644
-339.333	296.827	-0.219	-0.514
-338.318	-17.854	0.344	0.274
-337.304	-152.925	-0.096	-0.009
-336.289	2.007	0.426	-0.391
-335.275	69.256	-0.234	0.306
-334.260	-107.862	0.308	0.085
-333.245	316.681	0.187	0.452
-332.231	-166.928	0.431	0.022
-331.216	-97.115	-0.127	0.042
-330.202	354.452	-0.190	0.483
-329.187	-20.153	-0.113	0.088
-328.172	-200.000	0.086	-0.678
-327.158	35.972	-0.037	-0.042
-326.143	-19.963	-0.490	-0.384
-325.129	-22.247	-0.479	0.369
-324.114	187.132	0.210	0.399
-323.099	-135.382	0.415	0.062
-322.085	271.398	-0.142	-0.320
-321.070	-108.773	0.465	-0.126
-320.056	-42.865	-0.405	-0.261
-319.041	-112.913	0.165	0.041
-318.026	152.384	0.103	0.180
-317.012	-41.723	-0.272	-0.177
-315.997	-107.460	0.034	-0.009
-314.983	-146.124	0.188	-0.021
-313.968	-200.000	-0.016	-0.203
-312.953	-56.301	-0.336	0.189
-311.939	-200.000	-0.016	0.236
-310.924	-161.798	-0.139	-0.009
-309.910	-71.043	0.425	0.202
-308.895	3.723	0.332	-0.308
-307.880	293.332	-0.079	0.184
-306.866	574.374	-0.160	0.500
-305.851	557.204	0.043	-0.132
-304.837	-55.904	0.452	0.256
-303.822	-26.987	0.044	0.033
-302.807	800.000	-0.035	-0.139
-301.793	509.357	-0.156	0.464
-300.778	-120.318	0.364	-0.078
-299.764	-37.943	-0.431	0.291
-298.749	27.817	0.059	0.063
-297.735	174.835	-0.064	0.119
-296.720	122.234	-0.043	0.069
-295.705	18.167	0.035	0.035
-294.691	-104.708	0.298	-0.087
-293.676	-200.000	0.002	-0.229
-292.662	308.029	-0.067	0.161
-291.647	46.406	-0.363	0.428
-290.632	21.341	-0.239	0.247
-289.618	-144.200	-0.386	-0.045
-288.603	46.043	0.101	0.119
-287.589	-141.093	-0.394	-0.051
-286.574	159.133	0.045	0.080
-285.559	-106.565	-0.160	0.045
-284.545	98.638	-0.207	-0.305
-283.530	41.874	-0.201	-0.232
-282.516	-164.660	0.292	0.017
-281.501	-7.305	-0.494	-0.425
-280.486	-34.813	-0.221	-0.153
-279.472	-126.091	-0.360	-0.068
-278.457	-200.000	-0.060	-0.506
-277.443	-66.593	0.145	0.073
-276.428	194.132	-0.132	-0.256
-275.413	-10.486	0.292	-0.245
-274.399	-200.000	-0.050	-0.376
-273.384	-161.402	-0.352	-0.023
-272.370	20.931	-0.237	0.244
-271.355	-110.749	-0.575	0.150
-270.340	-28.982	0.253	-0.184
-269.326	-47.559	-0.219	0.135
-268.311	800.000	0.074	-0.319
-267.297	-178.978	0.811	-0.023
-266.282	54.302	-0.322	0.394
-265.267	68.930	0.077	-0.100
-264.253	153.087	-0.032	-0.056
-263.238	297.074	0.139	-0.325
-262.224	2.998	0.124	-0.115
-261.209	800.000	-0.025	-0.138
-260.195	-200.000	0.038	-0.400
-259.180	-88.753	0.311	-0.117
-258.165	275.465	-0.200	0.452
-257.151	-100.235	0.347	0.109
-256.136	-100.198	-0.133	0.042
-255.122	417.328	0.096	-0.261
-254.107	-200.000	0.027	-0.320
-253.092	81.543	0.205	-0.283
-252.078	0.822	0.191	0.174
-251.063	-75.709	-0.102	-0.046
-250.049	-200.000	-0.026	0.316
-249.034	76.927	0.090	0.121
-248.019	800.000	-0.120	0.653
-247.005	800.000	-0.135	0.545
-245.990	438.224	0.073	0.203
-244.976	-112.896	-0.289	0.072
-243.961	-176.477	0.155	0.005
-242.946	-98.411	0.344	0.111
-241.932	-114.709	0.134	-0.032
-240.917	-139.305	0.395	0.053
-239.903	-30.205	0.250	-0.180
-238.888	247.952	-0.167	-0.360
-237.873	-69.945	0.522	-0.252
-236.859	800.000	0.056	0.240
-235.844	92.271	0.067	0.095
-234.830	13.687	0.091	-0.089
-233.815	-153.212	0.222	0.019
-232.800	359.006	-0.058	0.148
-231.786	211.629	0.370	0.741
-230.771	-41.077	-0.230	0.150
-229.757	-85.823	0.184	-0.072
-228.742	126.526	0.278	0.448
-227.727	125.055	0.217	-0.347
-226.713	126.045	0.248	-0.398
-225.698	800.000	-0.070	0.323
-224.684	-101.758	0.498	0.152
-223.669	-60.767	0.189	0.101
-222.655	-133.920	-0.284	0.044
-221.640	-125.574	-0.473	0.090
-220.625	-64.571	0.311	-0.160
-219.611	-193.196	0.732	-0.008
-218.596	474.785	-0.087	0.251
-217.582	90.392	0.056	0.080
-216.567	712.366	-0.041	-0.139
-215.552	800.000	-0.056	0.226
-214.538	-88.451	0.104	-0.039
-213.523	133.477	0.064	0.106
-212.509	-2.833	0.348	0.308
-211.494	-155.788	-0.310	0.025
-210.479	800.000	0.062	0.271
-209.465	-81.738	-0.297	0.123
-208.450	-138.692	-0.080	0.011
-207.436	533.675	0.024	0.071
-206.421	63.394	-0.134	-0.171
-205.406	-200.000	0.005	0.035
-204.392	63.654	-0.314	0.400
-203.377	-120.016	0.155	0.033
-202.363	-46.907	0.412	0.255
-201.348	800.000	0.040	-0.193
-200.333	-4.712	-0.308	0.269
-199.319	266.865	0.184	0.409
-198.304	-98.605	-0.401	-0.129
-197.290	-70.499	-0.613	-0.293
-196.275	174.888	-0.121	0.222
-195.260	85.038	0.116	0.162
-194.246	-106.713	0.343	-0.096
-193.231	-46.551	0.046	0.028
-192.217	-15.563	-0.223	-0.180
-191.202	34.642	-0.285	-0.315
-190.187	-106.705	-0.383	-0.107
-189.173	-62.060	-0.300	0.158
-188.158	318.425	-0.062	-0.150
-187.144	335.276	-0.154	-0.379
-186.129	308.394	-0.107	-0.254
-185.114	495.044	-0.053	-0.155
-184.100	155.503	0.237	-0.414
-183.085	-83.911	-0.420	0.168
-182.071	37.295	-0.153	0.171
-181.056	29.104	-0.411	-0.441
-180.042	100.558	-0.159	-0.233
-179.027	-60.392	-0.264	0.142
-178.012	-60.592	0.525	-0.281
-176.998	-200.000	-0.056	-0.659
-175.983	-131.595	0.556	0.092
-174.969	-112.664	-0.424	0.106
-173.954	-6.184	0.172	-0.148
-172.939	-138.882	-0.626	-0.085
-171.925	-200.000	-0.011	0.477
-170.910	543.641	0.249	0.756
-169.896	-132.240	-0.414	-0.067
-168.881	-119.227	0.277	0.061
-167.866	-170.122	0.054	-0.002
-166.852	-42.212	0.168	0.108
-165.837	136.083	-0.076	0.126
-164.823	324.347	-0.167	-0.405
-163.808	-200.000	0.024	-0.173
-162.793	-41.874	-0.083	0.054
-161.779	-191.330	0.269	0.003
-160.764	-10.792	-0.203	-0.169
-159.750	150.877	-0.088	-0.152
-158.735	-92.999	0.588	-0.206
-157.720	227.121	0.217	-0.447
-156.706	-154.732	-0.278	-0.023
-155.691	81.641	-0.176	-0.241
-154.677	604.896	0.101	-0.318
-153.662	12.590	0.405	-0.395
-152.647	173.675	-0.242	-0.443
-151.633	15.974	-0.409	-0.408
-150.618	-51.677	-0.369	-0.217
-149.604	-93.818	0.082	0.028
-148.589	-123.470	0.351	0.070
-147.574	63.485	-0.179	0.227
-146.560	-200.000	0.027	-0.186
-145.545	254.472	0.071	0.154
-144.531	-151.569	0.115	0.011
-143.516	800.000	0.079	-0.300
-142.502	94.324	0.310	-0.445
-141.487	-12.322	-0.461	-0.381
-140.472	-155.196	0.302	0.025
-139.458	-55.508	-0.285	-0.161
-138.443	-52.688	0.392	0.228
-137.429	129.654	0.231	0.374
-136.414	-35.327	-0.043	-0.030
-135.399	-64.843	-0.082	-0.042
-134.385	-200.000	-0.019	0.466
-133.370	-200.000	0.005	0.089
-132.356	800.000	0.091	0.335
-131.341	7.586	-0.212	-0.200
-130.326	150.614	0.144	0.248
-129.312	-85.527	-0.533	-0.209
-128.297	10.237	0.385	0.370
-127.283	696.381	-0.179	0.598
-126.268	-115.100	0.379	-0.090
-125.253	-189.571	0.005	0.000
-124.239	0.785	-0.307	0.277
-123.224	688.595	0.080	-0.267
-122.210	800.000	0.068	-0.374
