DTS Sentinel unit serial number:	SN409020Multiplexer serial number:	ORYXHardware model number:	OX4-SRSoftware version number:	ORYX F/W v3.00 Oryx Data Collector v3.7.2.0data status	okinstallation	HaddamTimeLapsedifferential loss correction	single-endedforward channel	channel 3reverse channel	N/Adate	2011/06/21time	18:21:17forward acquisition time	30.00reverse acquisition time	0.00gamma	498.7831k internal	0.1823k external	0.1823temperature offset calibration	1.0074default loss term (dB/km)	0.3790temperature slope calibration	1.3530multiplexer offset coefficient	1.0000multiplexer slope coefficient	1.0000fibre end	0.00T internal ref (°C)	36.31T ext. ref 1 (°C)	28.17T ext. ref 2 (°C)	0.25length (m)	temperature (°C)	Stokes	anti-Stokes-747.200	-112.676	-0.041	-0.010
-746.185	216.897	0.325	0.662
-745.171	-120.952	-0.223	-0.047
-744.156	800.000	0.165	0.626
-743.142	-200.000	0.005	-0.028
-742.127	800.000	-0.076	0.325
-741.112	-91.820	-0.059	-0.021
-740.098	92.578	0.220	0.317
-739.083	-25.194	0.214	0.161
-738.069	-162.581	-0.154	-0.010
-737.054	278.937	-0.070	0.159
-736.039	153.629	-0.095	0.167
-735.025	-70.748	0.233	0.112
-734.010	33.122	0.382	0.423
-732.996	246.518	-0.203	0.439
-731.981	60.395	-0.198	0.250
-730.966	-155.073	0.421	0.035
-729.952	2.782	0.258	0.238
-728.937	-20.451	-0.158	-0.123
-727.923	65.442	-0.142	-0.183
-726.908	-87.971	0.341	0.130
-725.894	43.748	-0.140	-0.164
-724.879	-15.160	0.190	0.154
-723.864	-70.258	0.164	0.079
-722.850	800.000	-0.120	0.559
-721.835	800.000	0.044	-0.225
-720.821	143.808	0.045	0.077
-719.806	9.624	-0.200	-0.193
-718.791	221.650	0.149	-0.307
-717.777	256.566	0.188	0.412
-716.762	207.145	-0.276	0.549
-715.748	-173.960	0.201	-0.007
-714.733	-58.002	-0.270	0.150
-713.718	-134.416	-0.631	0.097
-712.704	24.628	0.302	0.318
-711.689	-42.958	0.358	-0.231
-710.675	-65.850	0.202	0.102
-709.660	-200.000	-0.000	-0.517
-708.645	-25.471	-0.270	-0.203
-707.631	-100.446	-0.595	0.187
-706.616	34.346	-0.413	0.460
-705.602	-8.404	-0.085	-0.072
-704.587	47.482	-0.409	-0.486
-703.572	800.000	0.114	-0.485
-702.558	-59.925	0.303	0.164
-701.543	-16.517	-0.320	0.258
-700.529	20.149	-0.266	0.273
-699.514	323.224	0.042	0.101
-698.499	319.953	0.165	-0.402
-697.485	-6.546	0.366	-0.317
-696.470	-200.000	0.045	0.393
-695.456	631.086	0.038	0.122
-694.441	-9.551	0.205	-0.174
-693.426	16.151	-0.077	0.078
-692.412	517.541	-0.171	0.512
-691.397	-47.728	0.459	0.282
-690.383	-17.172	-0.365	0.292
-689.368	-108.331	0.288	-0.079
-688.354	-144.447	-0.173	0.020
-687.339	-35.647	-0.603	-0.416
-686.324	-20.207	0.470	-0.368
-685.310	-89.356	0.480	0.179
-684.295	-18.351	-0.455	-0.362
-683.281	9.600	-0.179	0.172
-682.266	-78.924	-0.572	-0.247
-681.251	-200.000	-0.065	-0.378
-680.237	30.199	0.276	-0.300
-679.222	-200.000	-0.049	0.568
-678.208	-4.922	-0.316	0.277
-677.193	800.000	-0.100	0.354
-676.178	-36.442	0.272	0.186
-675.164	800.000	0.030	0.120
-674.149	149.888	0.080	-0.138
-673.135	10.275	0.200	-0.193
-672.120	46.885	0.185	0.219
-671.105	-200.000	0.011	0.087
-670.091	-36.886	-0.205	0.139
-669.076	-107.652	0.113	0.031
-668.062	415.406	0.120	-0.326
-667.047	800.000	0.011	0.048
-666.032	60.380	-0.091	-0.115
-665.018	-149.343	-0.054	-0.005
-664.003	16.549	0.673	-0.676
-662.989	246.805	0.032	-0.069
-661.974	-200.000	0.019	0.429
-660.959	525.793	0.103	0.311
-659.945	-22.079	-0.181	0.139
-658.930	196.896	0.211	0.410
-657.916	29.950	-0.204	-0.222
-656.901	-80.159	0.703	-0.298
-655.886	-127.879	0.205	-0.037
-654.872	-130.299	-0.661	-0.113
-653.857	-39.237	-0.301	0.200
-652.843	-200.000	-0.083	-0.661
-651.828	109.720	-0.088	0.134
-650.814	-121.781	-0.304	0.063
-649.799	53.610	0.144	-0.176
-648.784	-15.554	-0.117	-0.094
-647.770	-144.524	-0.634	-0.074
-646.755	-87.167	0.237	-0.091
-645.741	-22.438	-0.113	0.087
-644.726	-77.674	-0.082	-0.036
-643.711	-100.611	0.185	0.058
-642.697	-108.304	0.338	0.092
-641.682	-183.862	0.334	0.007
-640.668	-115.774	0.286	-0.068
-639.653	21.262	-0.421	-0.435
-638.638	-2.414	0.184	0.164
-637.624	-88.323	-0.173	0.065
-636.609	-73.406	0.338	-0.156
-635.595	60.701	-0.306	-0.385
-634.580	-172.542	0.188	-0.007
-633.565	237.587	0.117	-0.248
-632.551	172.699	0.078	0.142
-631.536	-79.636	0.507	-0.216
-630.522	639.956	0.157	0.512
-629.507	580.365	-0.094	0.295
-628.492	40.979	0.074	0.085
-627.478	-200.000	-0.017	-0.497
-626.463	379.836	-0.082	-0.213
-625.449	264.530	0.231	0.513
-624.434	-9.583	-0.200	-0.169
-623.419	123.954	-0.171	0.274
-622.405	144.643	-0.277	0.472
-621.390	309.444	0.174	0.415
-620.376	69.386	0.128	-0.168
-619.361	-104.309	-0.187	0.055
-618.346	-200.000	-0.055	-0.510
-617.332	-145.080	0.585	0.067
-616.317	-142.052	0.196	0.025
-615.303	196.286	0.123	-0.238
-614.288	-200.000	-0.033	0.451
-613.273	37.492	0.203	0.228
-612.259	-123.337	0.137	-0.028
-611.244	800.000	0.094	-0.389
-610.230	-200.000	-0.029	-0.215
-609.215	92.931	0.171	-0.245
-608.201	-93.821	0.529	-0.184
-607.186	-51.512	0.326	0.192
-606.171	-36.363	0.176	-0.120
-605.157	164.382	0.046	0.082
-604.142	225.686	0.081	0.166
-603.128	-52.530	0.483	0.282
-602.113	-175.675	0.569	-0.019
-601.098	-44.024	0.305	-0.194
-600.084	-122.790	0.360	0.073
-599.069	-102.658	0.149	0.045
-598.055	-200.000	0.002	-0.104
-597.040	-61.372	0.126	0.067
-596.025	-103.972	0.162	-0.048
-595.011	-40.474	-0.282	-0.185
-593.996	-164.672	0.242	0.014
-592.982	200.519	-0.312	0.611
-591.967	-6.039	-0.195	0.169
-590.952	146.424	-0.181	0.309
-589.938	-49.394	-0.314	-0.189
-588.923	101.595	0.154	0.228
-587.909	-102.812	-0.397	-0.119
-586.894	2.598	-0.025	0.023
-585.879	-132.688	0.321	0.052
-584.865	384.524	-0.017	-0.043
-583.850	228.036	0.160	0.331
-582.836	-140.311	0.471	0.062
-581.821	21.825	0.118	-0.122
-580.806	-200.000	-0.008	0.148
-579.792	345.960	-0.099	-0.248
-578.777	-5.441	0.219	-0.191
-577.763	334.887	0.102	0.252
-576.748	-200.000	-0.105	-0.681
-575.733	111.129	-0.067	-0.103
-574.719	-118.818	0.299	0.066
-573.704	-17.878	0.076	0.060
-572.690	-76.226	0.336	-0.149
-571.675	529.005	0.078	-0.235
-570.661	-159.630	0.772	-0.053
-569.646	-56.340	0.255	0.143
-568.631	24.043	0.072	-0.075
-567.617	18.938	0.159	-0.161
-566.602	-128.510	0.074	0.013
-565.588	-129.307	0.278	-0.049
-564.573	10.512	-0.203	0.196
-563.558	435.237	-0.088	-0.242
-562.544	-64.888	-0.241	-0.123
-561.529	-200.000	-0.106	0.620
-560.515	-200.000	0.061	0.583
-559.500	-114.099	0.375	0.091
-558.485	800.000	0.020	-0.096
-557.471	17.322	0.014	-0.014
-556.456	-200.000	0.021	-0.228
-555.442	165.364	0.312	-0.559
-554.427	157.697	0.243	-0.428
-553.412	119.146	-0.111	-0.174
-552.398	146.369	0.151	0.258
-551.383	440.432	-0.122	0.340
-550.369	-63.504	-0.408	-0.211
-549.354	-166.153	0.452	0.024
-548.339	794.476	0.052	-0.184
-547.325	-98.439	0.299	0.096
-546.310	-87.879	-0.373	-0.141
-545.296	49.464	-0.333	0.396
-544.281	800.000	-0.078	-0.338
-543.266	-137.319	-0.467	-0.066
-542.252	-27.831	-0.166	-0.122
-541.237	99.216	-0.164	0.240
-540.223	-100.816	0.434	-0.134
-539.208	175.788	-0.032	-0.059
-538.193	-190.108	-0.207	-0.003
-537.179	-157.340	0.258	-0.019
-536.164	501.645	-0.081	-0.237
-535.150	192.837	-0.176	-0.338
-534.135	-114.110	-0.178	0.043
-533.121	414.449	-0.075	-0.204
-532.106	91.032	0.160	0.227
-531.091	481.096	0.118	0.341
-530.077	-102.858	0.122	-0.036
-529.062	-122.557	0.416	-0.085
-528.048	-45.931	0.258	0.161
-527.033	82.783	0.185	0.254
-526.018	-30.797	-0.201	-0.143
-525.004	-200.000	0.023	-0.155
-523.989	589.038	-0.057	0.180
-522.975	-9.750	0.191	-0.161
-521.960	800.000	0.103	-0.362
-520.945	-188.056	-0.684	-0.011
-519.931	-46.384	-0.168	0.104
-518.916	-190.387	-0.587	-0.008
-517.902	-92.499	0.240	0.085
-516.887	-159.787	0.072	0.005
-515.872	70.255	0.052	0.068
-514.858	19.309	-0.095	-0.096
-513.843	-60.197	-0.394	0.212
-512.829	-105.929	-0.344	0.097
-511.814	-111.646	0.447	0.114
-510.799	-200.000	0.017	0.237
-509.785	0.686	0.098	-0.089
-508.770	800.000	-0.104	-0.485
-507.756	-114.481	-0.301	0.073
-506.741	-151.373	-0.119	0.011
-505.726	-119.236	-0.300	0.065
-504.712	208.079	0.141	0.279
-503.697	-105.682	0.546	-0.155
-502.683	542.121	0.133	-0.402
-501.668	-100.056	-0.335	-0.105
-500.653	-200.000	0.034	0.217
-499.639	-200.000	-0.313	-0.001
-498.624	-125.529	-0.297	-0.057
-497.610	682.306	-0.104	-0.346
-496.595	-138.305	-0.473	-0.065
-495.581	-76.980	0.483	-0.212
-494.566	-200.000	-0.010	-0.199
-493.551	-26.121	0.260	-0.193
-492.537	800.000	0.037	-0.137
-491.522	-200.000	-0.014	-0.478
-490.508	-200.000	0.025	0.213
-489.493	-171.632	0.138	-0.006
-488.478	-90.896	0.180	-0.065
-487.464	-128.464	0.458	-0.081
-486.449	-52.728	0.254	0.148
-485.435	126.973	-0.066	0.106
-484.420	320.884	0.155	-0.375
-483.405	-32.271	-0.391	-0.275
-482.391	90.547	-0.158	0.223
-481.376	-65.545	-0.140	-0.071
-480.362	42.176	0.210	-0.241
-479.347	48.715	-0.244	-0.290
-478.332	-127.803	-0.254	-0.046
-477.318	-125.233	0.479	-0.092
-476.303	543.907	0.129	-0.390
-475.289	-200.000	-0.001	-0.068
-474.274	44.660	-0.129	0.150
-473.259	-143.866	0.304	-0.036
-472.245	168.591	-0.387	0.698
-471.230	-76.821	-0.442	0.194
-470.216	-40.639	0.151	-0.098
-469.201	31.525	0.211	-0.228
-468.186	-200.000	0.117	0.738
-467.172	279.347	-0.062	0.141
-466.157	70.858	-0.273	-0.358
-465.143	-17.339	0.214	0.170
-464.128	-54.625	-0.105	-0.060
-463.113	-200.000	-0.056	-0.412
-462.099	-130.468	0.195	0.033
-461.084	147.617	0.067	-0.115
-460.070	-27.652	0.198	-0.145
-459.055	800.000	0.010	-0.035
-458.040	-83.606	0.423	0.170
-457.026	-69.933	-0.222	0.107
-456.011	-65.184	-0.260	0.132
-454.997	-51.881	0.472	-0.276
-453.982	29.290	0.153	0.164
-452.968	-111.499	0.371	-0.094
-451.953	-68.359	0.351	-0.171
-450.938	-115.659	-0.598	-0.140
-449.924	-116.485	-0.145	0.034
-448.909	180.857	0.141	0.261
-447.895	104.538	-0.222	0.330
-446.880	-109.193	-0.418	-0.111
-445.865	-200.000	-0.022	0.169
-444.851	-186.576	-0.401	0.007
-443.836	80.086	-0.117	-0.159
-442.822	-12.192	0.038	0.032
-441.807	52.978	0.122	0.147
-440.792	-139.531	-0.563	-0.075
-439.778	-94.826	0.447	0.152
-438.763	660.229	0.022	-0.072
-437.749	-30.255	-0.031	-0.022
-436.734	-148.511	-0.436	0.044
-435.719	-73.160	0.238	0.109
-434.705	54.813	-0.167	-0.203
-433.690	-200.000	0.025	0.140
-432.676	-91.344	-0.155	0.056
-431.661	-168.209	0.288	-0.014
-430.646	-200.000	0.044	-0.616
-429.632	-63.233	-0.065	-0.034
-428.617	-5.741	0.020	-0.017
-427.603	-88.556	-0.177	0.066
-426.588	-200.000	0.043	0.255
-425.573	-82.142	-0.150	-0.061
-424.559	800.000	-0.064	0.234
-423.544	52.396	-0.587	0.706
-422.530	800.000	-0.015	-0.069
-421.515	-61.192	-0.303	0.161
-420.500	-137.528	0.291	-0.041
-419.486	-200.000	0.010	-0.275
-418.471	76.557	-0.192	-0.256
-417.457	-174.665	-0.524	0.018
-416.442	-172.442	-0.137	0.005
-415.428	82.053	0.243	0.332
-414.413	-76.128	-0.318	0.141
-413.398	16.595	0.052	-0.052
-412.384	-119.416	-0.208	-0.045
-411.369	168.115	0.134	0.241
-410.355	-200.000	0.026	-0.187
-409.340	114.381	0.254	-0.390
-408.325	-121.260	0.823	0.172
-407.311	-19.467	0.223	-0.174
-406.296	218.669	0.123	0.249
-405.282	-200.000	-0.007	-0.338
-404.267	55.706	0.283	0.345
-403.252	-13.558	-0.243	0.198
-402.238	-52.332	-0.104	-0.060
-401.223	36.689	0.109	0.122
-400.209	164.736	0.083	-0.148
-399.194	-34.529	-0.360	0.248
-398.179	27.849	-0.041	-0.043
-397.165	800.000	0.081	-0.286
-396.150	678.149	-0.186	-0.613
-395.136	-56.900	0.241	-0.133
-394.121	-175.122	-0.210	0.007
-393.106	153.793	-0.051	-0.089
-392.092	-77.782	0.482	-0.209
-391.077	296.306	0.094	-0.217
-390.063	197.005	-0.074	0.143
-389.048	700.926	0.138	0.459
-388.033	279.807	-0.135	0.305
-387.019	-182.238	-0.515	-0.012
-386.004	134.108	-0.145	0.236
-384.990	68.877	0.539	0.696
-383.975	-200.000	0.045	0.353
-382.960	-2.211	0.098	-0.087
-381.946	93.934	-0.336	-0.480
-380.931	-129.051	-0.416	-0.073
-379.917	520.049	-0.129	-0.383
-378.902	387.287	0.183	-0.477
-377.888	-78.777	0.291	-0.124
-376.873	331.361	-0.187	0.457
-375.858	102.480	-0.205	0.301
-374.844	-166.957	-0.032	0.002
-373.829	-200.000	-0.010	0.270
-372.815	800.000	0.050	-0.236
-371.800	159.425	-0.085	-0.149
-370.785	-200.000	0.025	-0.260
-369.771	800.000	0.054	0.272
-368.756	-200.000	0.028	-0.350
-367.742	24.050	0.142	0.148
-366.727	473.161	-0.118	0.335
-365.712	-48.380	-0.540	-0.326
-364.698	-99.620	0.119	0.037
-363.683	780.180	0.045	0.155
-362.669	569.155	0.149	0.458
-361.654	-200.000	-0.012	-0.155
-360.639	-57.109	-0.114	-0.063
-359.625	-126.350	-0.224	-0.042
-358.610	-200.000	0.004	0.560
-357.596	-171.919	0.723	0.029
-356.581	-152.293	0.480	0.043
-355.566	399.832	0.086	-0.227
-354.552	-200.000	-0.048	0.299
-353.537	386.822	0.288	0.750
-352.523	112.960	0.084	0.129
-351.508	-23.300	-0.165	-0.124
-350.493	282.062	-0.154	-0.348
-349.479	800.000	0.062	0.284
-348.464	-51.283	-0.262	0.154
-347.450	-114.719	0.793	0.189
-346.435	-12.847	-0.200	0.163
-345.420	669.469	0.101	0.331
-344.406	-54.402	0.354	-0.201
-343.391	-200.000	0.080	0.453
-342.377	-19.127	-0.222	0.173
-341.362	270.761	0.179	0.398
-340.348	332.739	-0.096	-0.235
-339.333	3.527	-0.075	-0.069
-338.318	-62.448	-0.231	0.120
-337.304	-68.824	0.278	0.135
-336.289	-8.076	-0.280	0.237
-335.275	-157.884	-0.568	0.042
-334.260	179.729	-0.180	-0.333
-333.245	125.364	-0.113	0.180
-332.231	-135.974	0.015	0.002
-331.216	-200.000	0.043	-0.452
-330.202	-200.000	0.005	0.083
-329.187	-146.638	-0.496	-0.053
-328.172	0.973	-0.360	0.323
-327.158	-141.137	-0.393	-0.050
-326.143	-200.000	-0.001	-0.420
-325.129	-41.846	0.373	0.239
-324.114	-16.118	-0.445	0.355
-323.099	342.345	0.241	-0.594
-322.085	-200.000	0.063	-0.868
-321.070	711.341	-0.143	-0.478
-320.056	-106.721	0.136	-0.038
-319.041	-166.400	-0.266	0.014
-318.026	-39.041	-0.185	-0.122
-317.012	-111.302	-0.175	0.044
-315.997	-24.947	-0.525	-0.390
-314.983	-25.347	-0.440	-0.326
-313.968	114.366	0.109	-0.168
-312.953	77.922	-0.197	0.263
-311.939	-47.975	-0.146	-0.089
-310.924	372.642	-0.142	0.363
-309.910	242.881	0.057	0.121
-308.895	-200.000	-0.042	0.275
-307.880	-121.730	0.241	0.050
-306.866	-29.036	0.207	-0.149
-305.851	409.437	0.173	0.461
-304.837	-103.063	0.126	0.037
-303.822	385.100	0.062	0.160
-302.807	40.459	-0.279	-0.315
-301.793	-200.000	-0.058	-0.513
-300.778	45.144	-0.332	-0.384
-299.764	-134.151	-0.581	-0.089
-298.749	-52.402	-0.299	0.173
-297.735	-14.772	0.183	-0.147
-296.720	-134.708	-0.499	0.075
-295.705	-200.000	-0.031	0.401
-294.691	3.361	-0.145	0.133
-293.676	-73.158	0.208	-0.095
-292.662	-81.761	-0.167	-0.068
-291.647	128.157	-0.049	-0.079
-290.632	527.621	0.041	0.122
-289.618	793.659	0.131	-0.455
-288.603	-37.022	-0.059	0.039
-287.589	800.000	-0.053	0.266
-286.574	78.235	-0.214	0.287
-285.559	-168.760	-0.463	-0.022
-284.545	-136.244	-0.121	0.018
-283.530	85.192	0.053	-0.073
-282.516	-156.993	-0.424	-0.032
-281.501	-50.567	0.478	-0.281
-280.486	160.583	0.107	-0.188
-279.472	351.938	0.132	-0.328
-278.457	-81.779	0.445	-0.182
-277.443	-122.139	0.533	-0.109
-276.428	-200.000	-0.033	-0.526
-275.413	242.159	0.186	-0.391
-274.399	-81.048	-0.635	-0.262
-273.384	193.665	-0.028	-0.053
-272.370	13.440	0.189	-0.184
-271.355	-200.000	-0.001	-0.201
-270.340	-100.022	0.343	0.106
-269.326	190.420	-0.225	0.425
-268.311	-1.979	0.326	0.287
-267.297	-121.372	-0.575	0.119
-266.282	49.871	0.277	-0.327
-265.267	-200.000	-0.006	-0.393
-264.253	-60.674	-0.225	0.119
-263.238	797.967	-0.092	-0.321
-262.224	-200.000	-0.030	0.174
-261.209	95.418	0.261	0.373
-260.195	-7.868	-0.438	0.369
-259.180	85.479	-0.205	-0.282
-258.165	-6.036	0.496	-0.424
-257.151	-66.717	-0.359	0.177
-256.136	-200.000	0.017	0.336
-255.122	-88.070	-0.083	-0.031
-254.107	800.000	-0.032	-0.138
-253.092	-123.459	-0.274	0.054
-252.078	-200.000	-0.021	0.517
-251.063	800.000	-0.086	0.461
-250.049	328.516	0.131	-0.316
-249.034	-200.000	-0.025	-0.512
-248.019	505.645	0.101	-0.294
-247.005	-7.341	-0.230	-0.195
-245.990	-18.562	0.094	-0.074
-244.976	77.044	0.285	0.379
-243.961	109.469	0.170	0.255
-242.946	-200.000	-0.025	0.204
-241.932	-200.000	-0.019	0.257
-240.917	-141.827	-0.290	0.036
-239.903	-200.000	-0.033	0.330
-238.888	92.189	-0.285	0.402
-237.873	359.669	-0.088	0.220
-236.859	-80.137	-0.220	-0.092
-235.844	-97.538	0.280	-0.090
-234.830	-200.000	-0.038	-0.293
-233.815	78.569	-0.076	0.101
-232.800	-200.000	0.000	-0.104
-231.786	-166.904	0.229	-0.012
-230.771	-200.000	0.014	-0.295
-229.757	-185.822	0.156	-0.003
-228.742	-169.870	0.324	0.014
-227.727	-200.000	0.003	0.169
-226.713	-71.895	-0.214	-0.099
-225.698	61.972	0.271	0.338
-224.684	-142.545	0.159	0.019
-223.669	-70.058	-0.235	-0.111
-222.655	800.000	0.042	-0.183
-221.640	800.000	0.055	-0.204
-220.625	65.960	-0.167	-0.212
-219.611	-53.443	0.154	-0.088
-218.596	59.662	0.235	0.291
-217.582	117.098	0.350	-0.538
-216.567	-107.951	-0.205	-0.055
-215.552	-105.253	-0.338	0.096
-214.538	-136.344	-0.225	-0.032
-213.523	800.000	-0.123	0.442
-212.509	117.513	0.165	-0.254
-211.494	800.000	-0.219	-1.037
-210.479	-16.591	-0.102	0.081
-209.465	46.306	-0.119	0.138
-208.450	-80.949	0.200	-0.082
-207.436	-108.557	-0.368	0.098
-206.421	-34.709	-0.287	-0.195
-205.406	-108.610	0.331	0.088
-204.392	-82.984	0.171	0.069
-203.377	-60.735	0.306	0.162
-202.363	49.995	-0.255	-0.300
-201.348	-200.000	0.017	0.426
-200.333	-60.744	-0.504	-0.266
-199.319	-129.648	-0.295	-0.050
-198.304	375.050	-0.091	0.232
-197.290	-85.007	-0.427	-0.166
-196.275	-200.000	-0.015	-0.092
-195.260	-200.000	-0.054	-0.349
-194.246	-135.189	0.148	0.022
-193.231	17.565	0.315	0.313
-192.217	285.563	0.151	0.341
-191.202	-23.087	-0.246	0.185
-190.187	-79.698	0.266	-0.111
-189.173	800.000	0.049	0.202
-188.158	-31.941	-0.250	-0.174
-187.144	513.201	0.089	0.259
-186.129	-73.196	0.073	-0.033
-185.114	-93.731	0.033	-0.011
-184.100	-192.251	-0.326	0.004
-183.085	708.263	-0.130	-0.432
-182.071	100.594	-0.200	-0.291
-181.056	238.344	0.120	-0.249
-180.042	-80.787	0.123	0.051
-179.027	340.380	-0.113	0.276
-178.012	-200.000	-0.043	0.410
-176.998	-200.000	0.040	0.408
-175.983	75.031	0.316	0.417
-174.969	-200.000	-0.016	0.384
-173.954	-54.220	-0.379	0.214
-172.939	-83.698	-0.089	-0.035
-171.925	47.754	0.304	0.354
-170.910	35.116	0.259	0.283
-169.896	-200.000	0.068	0.483
-168.881	-59.421	-0.418	0.223
-167.866	-200.000	-0.016	-0.168
-166.852	800.000	-0.021	0.095
-165.837	56.060	0.158	0.191
-164.823	-200.000	-0.018	0.303
-163.808	75.331	0.065	-0.086
-162.793	0.833	-0.231	0.206
-161.779	-90.098	0.156	-0.057
-160.764	800.000	0.044	0.156
-159.750	83.818	-0.041	-0.056
-158.735	-45.694	-0.187	0.115
-157.720	30.384	0.428	-0.456
-156.706	-200.000	0.041	0.271
-155.691	-139.429	0.194	-0.026
-154.677	34.362	0.131	0.143
-153.662	-38.702	-0.061	-0.040
-152.647	-40.498	0.172	0.111
-151.633	-87.077	-0.221	-0.084
-150.618	-19.932	0.238	0.183
-149.604	232.585	-0.253	0.519
-148.589	565.552	-0.080	0.242
-147.574	-101.350	-0.529	0.160
-146.560	70.646	-0.193	-0.249
-145.545	-88.196	-0.298	-0.111
-144.531	-200.000	0.310	-0.001
-143.516	153.683	0.291	-0.497
-142.502	-74.132	-0.226	-0.102
-141.487	-21.230	-0.020	-0.015
-140.472	-105.468	0.120	-0.034
-139.458	-104.124	0.271	-0.078
-138.443	-103.659	0.446	0.130
-137.429	-43.891	0.215	-0.134
-136.414	102.264	0.324	0.472
-135.399	111.980	0.110	0.166
-134.385	-174.581	0.228	-0.008
-133.370	35.836	0.356	0.390
-132.356	-88.969	-0.174	-0.064
-131.341	-120.929	-0.296	-0.061
-130.326	176.507	0.328	0.596
-129.312	-114.182	0.493	-0.118
-128.297	-200.000	0.011	0.284
-127.283	98.232	-0.133	0.191
-126.268	-77.370	0.160	-0.069
-125.253	-27.230	-0.228	-0.165
-124.239	-61.589	-0.144	-0.075
-123.224	-200.000	0.027	0.462
-122.210	-4.004	-0.269	-0.232
