DTS Sentinel unit serial number:	SN409020Multiplexer serial number:	ORYXHardware model number:	OX4-SRSoftware version number:	ORYX F/W v3.00 Oryx Data Collector v3.7.2.0data status	okinstallation	HaddamTimeLapsedifferential loss correction	single-endedforward channel	channel 3reverse channel	N/Adate	2011/06/21time	16:26:17forward acquisition time	30.00reverse acquisition time	0.00gamma	498.7831k internal	0.1787k external	0.1787temperature offset calibration	1.0074default loss term (dB/km)	0.3790temperature slope calibration	1.3530multiplexer offset coefficient	1.0000multiplexer slope coefficient	1.0000fibre end	0.00T internal ref (°C)	33.37T ext. ref 1 (°C)	26.30T ext. ref 2 (°C)	0.23length (m)	temperature (°C)	Stokes	anti-Stokes-747.200	80.955	-0.165	0.231
-746.185	800.000	-0.139	0.511
-745.171	557.127	-0.095	0.299
-744.156	-81.541	0.196	0.083
-743.142	42.838	0.210	-0.250
-742.127	800.000	-0.151	0.643
-741.112	-149.721	-0.176	-0.018
-740.098	-48.218	0.083	0.052
-739.083	-149.778	-0.629	0.063
-738.069	642.752	-0.061	0.205
-737.054	-177.066	-0.602	-0.019
-736.039	137.696	-0.023	0.040
-735.025	284.829	0.182	-0.428
-734.010	363.347	0.269	-0.707
-732.996	55.427	-0.079	0.099
-731.981	800.000	0.033	0.127
-730.966	42.809	0.204	-0.242
-729.952	-200.000	0.002	-0.377
-728.937	46.854	-0.409	-0.494
-727.923	20.632	-0.198	-0.209
-726.908	-6.310	0.091	-0.081
-725.894	-85.320	-0.383	-0.155
-724.879	-12.442	-0.268	-0.228
-723.864	51.753	-0.237	-0.294
-722.850	357.118	-0.172	0.447
-721.835	100.346	-0.162	-0.245
-720.821	-61.220	0.311	-0.170
-719.806	-150.656	0.448	-0.044
-718.791	-60.627	0.519	-0.285
-717.777	-200.000	0.049	0.339
-716.762	-115.993	0.090	-0.022
-715.748	-50.320	0.349	-0.214
-714.733	-122.337	-0.426	-0.090
-713.718	251.235	0.112	-0.250
-712.704	-14.986	-0.430	-0.358
-711.689	-200.000	0.053	-0.425
-710.675	247.304	0.209	-0.460
-709.660	-47.140	-0.057	-0.036
-708.645	-72.756	-0.166	0.079
-707.631	-33.760	0.061	0.044
-706.616	-50.870	-0.604	-0.368
-705.602	335.430	0.067	0.169
-704.587	321.190	0.020	0.050
-703.572	-64.596	0.135	-0.071
-702.558	-49.142	0.184	-0.114
-701.543	-44.849	0.170	0.110
-700.529	-65.829	-0.134	0.069
-699.514	-48.911	0.197	0.122
-698.499	-200.000	-0.035	-0.252
-697.485	33.368	-0.012	-0.013
-696.470	-64.844	-0.779	-0.408
-695.456	-148.945	-0.160	0.017
-694.441	138.698	0.056	-0.096
-693.426	-27.642	-0.080	-0.060
-692.412	-175.202	-0.430	-0.015
-691.397	31.111	0.308	-0.343
-690.383	-72.519	0.466	-0.223
-689.368	800.000	-0.032	-0.125
-688.354	-50.882	0.330	-0.201
-687.339	-200.000	0.031	-0.318
-686.324	-80.028	-0.400	0.173
-685.310	-32.525	-0.252	0.182
-684.295	34.995	-0.269	0.306
-683.281	34.851	-0.075	-0.085
-682.266	800.000	0.102	0.552
-681.251	207.907	0.241	0.491
-680.237	399.439	-0.177	0.484
-679.222	263.326	-0.270	0.612
-678.208	91.031	0.284	0.414
-677.193	496.433	0.230	0.689
-676.178	159.174	-0.226	-0.409
-675.164	-200.000	0.024	0.202
-674.149	39.211	0.174	0.202
-673.135	-166.270	-0.489	-0.026
-672.120	94.345	0.240	0.354
-671.105	-159.005	0.397	0.029
-670.091	-200.000	-0.002	-0.356
-669.076	-200.000	-0.018	-0.307
-668.062	-113.760	-0.374	-0.094
-667.047	800.000	0.056	0.274
-666.032	5.100	-0.259	0.248
-665.018	-109.626	0.644	-0.175
-664.003	800.000	-0.099	-0.485
-662.989	-200.000	0.068	0.397
-661.974	2.656	-0.216	-0.203
-660.959	271.334	0.043	-0.099
-659.945	-148.868	-0.458	0.047
-658.930	211.621	0.124	-0.253
-657.916	201.032	-0.072	0.143
-656.901	-138.778	0.175	0.025
-655.886	-86.562	-0.015	0.006
-654.872	-17.908	0.308	-0.250
-653.857	-52.783	-0.308	-0.183
-652.843	132.318	-0.184	0.308
-651.828	-144.610	-0.331	0.039
-650.814	382.502	-0.077	0.207
-649.799	-200.000	-0.064	0.371
-648.784	-200.000	-0.009	0.119
-647.770	153.835	-0.049	0.087
-646.755	125.693	0.104	-0.171
-645.741	-26.110	-0.153	0.116
-644.726	800.000	-0.090	-0.454
-643.711	0.551	-0.210	-0.194
-642.697	411.867	-0.157	-0.435
-641.682	-36.328	0.554	-0.386
-640.668	-18.255	0.314	0.254
-639.653	-147.747	0.215	0.023
-638.638	50.081	0.037	-0.045
-637.624	121.239	-0.048	0.077
-636.609	-44.898	-0.264	0.170
-635.595	-92.137	0.400	0.146
-634.580	-128.907	-0.541	-0.098
-633.565	-39.301	-0.291	0.197
-632.551	-55.655	-0.578	0.334
-631.536	-200.000	-0.202	-0.001
-630.522	-5.066	0.387	-0.345
-629.507	712.726	0.041	-0.141
-628.492	233.267	-0.073	0.156
-627.478	157.636	-0.090	-0.162
-626.463	-17.748	0.065	0.053
-625.449	386.220	-0.132	-0.355
-624.434	-80.735	-0.121	-0.052
-623.419	454.466	0.072	-0.209
-622.405	89.378	-0.159	-0.230
-621.390	-77.935	0.344	0.153
-620.376	-68.413	0.410	0.205
-619.361	-4.485	-0.112	0.100
-618.346	-28.017	-0.506	0.379
-617.332	24.406	-0.147	-0.157
-616.317	-180.437	0.330	0.009
-615.303	41.562	-0.536	0.629
-614.288	-40.185	-0.048	-0.032
-613.273	800.000	-0.072	0.263
-612.259	101.246	-0.258	0.389
-611.244	-56.323	-0.219	-0.125
-610.230	-22.249	-0.236	0.185
-609.215	322.098	0.082	-0.202
-608.201	-73.962	-0.203	0.095
-607.186	-156.243	-0.486	0.039
-606.171	-40.217	0.109	-0.073
-605.157	-200.000	-0.215	-0.000
-604.142	644.901	0.108	0.357
-603.128	186.291	-0.019	0.038
-602.113	-16.566	0.285	-0.233
-601.098	191.328	0.046	0.090
-600.084	280.820	0.160	0.371
-599.069	555.476	0.064	-0.199
-598.055	-36.422	0.229	-0.159
-597.040	-64.009	0.340	-0.179
-596.025	-200.000	0.020	-0.333
-595.011	-168.033	-0.222	-0.011
-593.996	-171.814	0.395	0.016
-592.982	238.692	-0.043	-0.092
-591.967	-86.726	-0.392	0.154
-590.952	-156.912	-0.034	-0.003
-589.938	800.000	0.060	0.269
-588.923	-101.331	0.467	0.147
-587.909	-55.569	-0.307	0.177
-586.894	-84.183	-0.214	-0.087
-585.879	-128.547	-0.460	-0.084
-584.865	-142.931	-0.363	0.045
-583.850	-12.764	0.458	-0.386
-582.836	411.545	0.071	-0.195
-581.821	800.000	0.143	-0.520
-580.806	325.603	0.110	-0.272
-579.792	-28.522	-0.320	-0.238
-578.777	112.523	-0.124	-0.194
-577.763	-144.099	-0.248	-0.030
-576.748	151.364	-0.207	0.366
-575.733	-125.200	0.577	-0.113
-574.719	-181.799	0.454	-0.011
-573.704	34.675	-0.266	-0.300
-572.690	-200.000	0.005	-0.073
-571.675	-118.528	0.236	0.054
-570.661	-176.709	0.686	0.022
-569.646	-200.000	0.056	0.385
-568.631	51.015	0.248	0.305
-567.617	21.762	0.117	-0.123
-566.602	-116.026	-0.066	0.016
-565.588	10.776	-0.140	-0.138
-564.573	800.000	0.086	0.362
-563.558	-48.544	-0.400	0.248
-562.544	70.232	-0.287	-0.384
-561.529	567.419	0.093	0.293
-560.515	-68.066	0.302	0.152
-559.500	-200.000	-0.025	0.394
-558.485	-200.000	-0.074	0.490
-557.471	136.341	0.120	0.202
-556.456	4.228	0.214	-0.203
-555.442	-82.119	0.261	0.109
-554.427	-89.011	0.252	0.096
-553.412	63.043	-0.328	0.425
-552.398	800.000	-0.047	-0.180
-551.383	68.233	0.216	0.286
-550.369	-129.463	-0.302	-0.054
-549.354	-32.090	0.076	-0.055
-548.339	800.000	0.155	-0.633
-547.325	-61.069	0.054	-0.030
-546.310	800.000	0.065	-0.268
-545.296	571.767	-0.076	-0.239
-544.281	-200.000	0.008	-0.136
-543.266	-39.422	0.238	-0.161
-542.252	-106.477	0.489	0.140
-541.237	800.000	0.143	0.602
-540.223	-24.837	-0.324	0.248
-539.208	-157.920	0.243	-0.018
-538.193	-37.866	-0.337	-0.231
-537.179	800.000	0.073	0.311
-536.164	296.818	0.350	-0.833
-535.150	58.376	-0.252	-0.319
-534.135	100.709	-0.233	0.350
-533.121	-47.924	-0.257	0.160
-532.106	-200.000	0.060	-0.407
-531.091	-124.521	-0.312	0.062
-530.077	-31.688	-0.214	-0.155
-529.062	-5.834	-0.287	0.253
-528.048	-104.123	-0.045	0.014
-527.033	-54.367	-0.388	0.227
-526.018	172.224	-0.081	0.150
-525.004	263.119	0.178	-0.400
-523.989	146.607	-0.096	-0.166
-522.975	-95.936	-0.598	-0.204
-521.960	-118.537	0.444	0.100
-520.945	-36.015	-0.151	0.105
-519.931	743.047	0.134	0.466
-518.916	-59.353	0.206	-0.114
-517.902	-85.387	0.234	0.094
-516.887	3.116	0.384	-0.360
-515.872	97.017	-0.193	-0.285
-514.858	-200.000	-0.072	0.000
-513.843	-115.432	0.234	0.056
-512.829	-200.000	0.073	0.522
-511.814	-19.582	-0.190	-0.152
-510.799	-41.242	-0.196	-0.130
-509.785	-121.969	-0.343	-0.072
-508.770	386.443	0.090	-0.242
-507.756	223.962	-0.241	-0.504
-506.741	517.145	0.235	-0.712
-505.726	16.896	0.176	-0.179
-504.712	-87.266	0.238	-0.093
-503.697	-178.326	-0.078	-0.002
-502.683	-90.503	-0.160	0.059
-501.668	425.666	0.049	0.136
-500.653	148.957	0.173	-0.303
-499.639	-32.968	0.286	-0.204
-498.624	-8.979	-0.093	-0.080
-497.610	251.971	-0.102	-0.225
-496.595	273.488	0.138	-0.316
-495.581	218.024	-0.088	0.182
-494.566	-39.818	-0.231	-0.155
-493.551	-13.013	-0.341	-0.285
-492.537	8.490	-0.304	-0.295
-491.522	-104.986	0.417	-0.122
-490.508	17.892	0.463	-0.476
-489.493	256.495	0.094	0.209
-488.478	-80.681	-0.554	0.236
-487.464	-7.929	-0.201	-0.175
-486.449	78.088	-0.182	-0.250
-485.435	175.231	-0.212	0.397
-484.420	80.261	-0.021	-0.029
-483.405	800.000	0.149	0.622
-482.391	131.013	0.285	-0.472
-481.376	-73.844	0.218	-0.102
-480.362	465.223	0.119	0.345
-479.347	9.182	0.109	0.106
-478.332	-200.000	-0.026	0.196
-477.318	-200.000	0.015	0.201
-476.303	-88.860	0.164	-0.062
-475.289	-200.000	0.001	0.328
-474.274	-54.734	-0.251	-0.146
-473.259	49.365	0.051	0.061
-472.245	-34.111	0.121	0.085
-471.230	-56.730	0.052	-0.030
-470.216	359.674	0.254	0.657
-469.201	-13.980	-0.179	0.148
-468.186	-143.968	-0.614	-0.073
-467.172	800.000	0.046	-0.229
-466.157	-111.030	0.093	-0.024
-465.143	-160.952	-0.383	0.026
-464.128	-97.816	-0.490	-0.162
-463.113	58.365	0.071	0.090
-462.099	-125.837	-0.045	-0.009
-461.084	-159.391	0.889	-0.063
-460.070	15.310	-0.071	-0.072
-459.055	16.823	0.162	-0.165
-458.040	-76.804	-0.804	0.360
-457.026	-101.914	-0.216	0.067
-456.011	71.777	0.151	0.202
-454.997	-15.125	-0.318	0.262
-453.982	-117.537	0.331	-0.076
-452.968	4.316	-0.174	-0.164
-451.953	90.108	-0.319	0.460
-450.938	-128.947	-0.105	-0.019
-449.924	-14.170	-0.302	0.250
-448.909	50.967	0.185	-0.225
-447.895	-116.544	0.039	-0.009
-446.880	-76.146	0.481	-0.217
-445.865	39.884	0.181	-0.209
-444.851	575.771	-0.108	0.340
-443.836	-97.609	0.562	0.186
-442.822	209.440	0.166	0.335
-441.807	80.525	0.193	0.267
-440.792	219.542	0.167	-0.345
-439.778	394.347	-0.076	-0.204
-438.763	184.433	-0.155	-0.296
-437.749	47.027	0.264	-0.316
-436.734	-112.669	0.208	-0.053
-435.719	18.778	0.301	-0.310
-434.705	-43.314	-0.281	-0.182
-433.690	-193.587	-0.079	-0.001
-432.676	-65.871	-0.391	-0.200
-431.661	-34.696	-0.211	-0.148
-430.646	-136.991	-0.540	-0.079
-429.632	589.003	-0.032	-0.103
-428.617	-8.392	0.174	0.150
-427.603	800.000	-0.088	-0.324
-426.588	45.172	0.377	0.447
-425.573	22.345	-0.238	0.250
-424.559	-107.108	-0.127	0.036
-423.544	491.083	-0.149	0.441
-422.530	-108.394	-0.320	0.088
-421.515	800.000	0.007	-0.030
-420.500	-23.842	-0.259	-0.199
-419.486	393.495	-0.159	-0.428
-418.471	-68.299	0.132	-0.066
-417.457	-113.591	0.406	0.101
-416.442	-127.152	-0.044	-0.008
-415.428	-200.000	0.013	-0.094
-414.413	-112.474	-0.464	-0.118
-413.398	-135.192	-0.170	0.026
-412.384	45.323	-0.373	0.442
-411.369	-12.910	0.403	0.336
-410.355	64.304	0.136	-0.177
-409.340	-200.000	-0.010	-0.436
-408.325	-113.274	0.409	-0.102
-407.311	87.988	0.173	0.247
-406.296	77.471	-0.186	0.254
-405.282	2.514	-0.027	0.025
-404.267	800.000	0.073	0.283
-403.252	-14.525	-0.150	-0.123
-402.238	0.597	-0.278	-0.255
-401.223	-200.000	-0.018	0.110
-400.209	-200.000	0.002	0.030
-399.194	327.989	-0.254	0.629
-398.179	161.455	0.147	0.265
-397.165	-54.804	0.111	-0.064
-396.150	32.007	-0.249	-0.275
-395.136	-66.795	-0.352	0.178
-394.121	6.109	0.033	0.032
-393.106	18.608	-0.116	0.119
-392.092	-139.468	0.296	0.040
-391.077	-112.961	-0.042	0.011
-390.063	194.575	-0.233	0.456
-389.048	-71.345	-0.065	0.031
-388.033	410.601	0.187	-0.513
-387.019	32.096	0.136	-0.151
-386.004	137.461	-0.098	-0.166
-384.990	107.639	0.393	0.602
-383.975	7.190	0.337	0.323
-382.960	-200.000	0.009	-0.094
-381.946	481.140	-0.174	-0.511
-380.931	-200.000	-0.086	-0.549
-379.917	-148.370	0.316	0.033
-378.902	144.556	0.217	-0.373
-377.888	69.262	0.223	-0.295
-376.873	71.291	0.279	0.372
-375.858	-15.291	0.183	0.150
-374.844	-200.000	-0.028	0.223
-373.829	800.000	0.054	0.206
-372.815	209.406	-0.226	0.455
-371.800	-77.058	-0.122	-0.055
-370.785	-108.575	-0.169	0.046
-369.771	183.948	-0.130	0.247
-368.756	-82.523	0.193	-0.080
-367.742	-64.701	0.406	-0.210
-366.727	-20.285	-0.168	0.133
-365.712	-80.484	-0.366	0.156
-364.698	20.780	0.362	-0.376
-363.683	-93.256	-0.565	-0.200
-362.669	-13.669	0.067	-0.056
-361.654	-200.000	-0.029	0.331
-360.639	3.160	0.496	-0.462
-359.625	-200.000	-0.039	-0.390
-358.610	-24.681	-0.346	0.263
-357.596	-97.505	-0.437	0.145
-356.581	-143.579	-0.247	-0.030
-355.566	151.100	0.105	-0.184
-354.552	-176.760	0.135	-0.004
-353.537	-91.436	0.319	-0.116
-352.523	-15.274	-0.097	-0.080
-351.508	304.204	-0.204	0.487
-350.493	70.300	-0.037	0.049
-349.479	29.021	-0.326	-0.354
-348.464	-200.000	0.002	-0.293
-347.450	22.707	-0.130	0.137
-346.435	15.335	0.113	-0.114
-345.420	124.997	0.164	0.265
-344.406	-200.000	0.030	-0.513
-343.391	-166.916	-0.143	-0.007
-342.377	-0.503	-0.179	-0.162
-341.362	-134.589	0.196	-0.030
-340.348	240.004	-0.152	-0.325
-339.333	-200.000	-0.043	-0.745
-338.318	-200.000	-0.222	-0.001
-337.304	-151.066	-0.064	0.006
-336.289	800.000	0.090	0.362
-335.275	-200.000	0.017	-0.113
-334.260	458.831	0.116	0.333
-333.245	-104.821	0.458	0.134
-332.231	-82.651	-0.299	-0.123
-331.216	-200.000	-0.068	0.542
-330.202	-136.235	0.192	0.028
-329.187	-89.380	0.842	-0.316
-328.172	-55.850	-0.057	-0.032
-327.158	-48.485	-0.253	0.155
-326.143	-164.078	0.293	0.017
-325.129	-114.588	-0.007	-0.002
-324.114	-200.000	-0.033	-0.203
-323.099	321.392	-0.256	-0.627
-322.085	-200.000	0.065	0.441
-321.070	-200.000	-0.077	0.439
-320.056	-151.321	0.124	-0.012
-319.041	-59.679	0.053	0.029
-318.026	-11.953	0.318	-0.266
-317.012	103.619	0.212	0.319
-315.997	-105.379	0.185	0.053
-314.983	-115.604	0.347	0.083
-313.968	-115.658	-0.482	-0.115
-312.953	-200.000	0.035	0.307
-311.939	-43.957	-0.314	0.201
-310.924	-38.530	0.294	0.198
-309.910	62.939	0.274	-0.352
-308.895	-24.644	-0.373	-0.283
-307.880	155.071	0.156	-0.275
-306.866	-142.957	0.380	-0.047
-305.851	800.000	0.095	-0.465
-304.837	-9.907	0.287	-0.244
-303.822	800.000	0.056	-0.290
-302.807	-93.605	0.419	-0.147
-301.793	800.000	-0.017	0.086
-300.778	-200.000	-0.015	0.296
-299.764	45.251	0.262	-0.309
-298.749	-35.440	-0.201	-0.140
-297.735	270.615	0.199	0.449
-296.720	714.262	0.054	-0.184
-295.705	-121.278	-0.409	0.087
-294.691	89.980	-0.118	0.169
-293.676	-200.000	0.024	0.346
-292.662	-200.000	-0.038	0.291
-291.647	-200.000	-0.010	-0.075
-290.632	-120.866	0.055	-0.012
-289.618	158.310	-0.056	-0.099
-288.603	-36.018	0.216	-0.149
-287.589	527.929	0.076	0.231
-286.574	-200.000	0.019	0.382
-285.559	-129.637	-0.215	0.038
-284.545	-200.000	-0.059	0.430
-283.530	-114.916	0.209	-0.051
-282.516	-0.077	-0.249	-0.226
-281.501	-142.499	-0.354	-0.044
-280.486	-41.448	-0.496	-0.326
-279.472	251.697	-0.029	-0.062
-278.457	723.349	-0.064	-0.219
-277.443	539.317	-0.123	0.376
-276.428	351.919	0.051	-0.129
-275.413	296.973	0.086	0.203
-274.399	49.074	-0.061	0.074
-273.384	-39.033	-0.602	0.404
-272.370	744.478	-0.160	-0.553
-271.355	-98.811	0.262	-0.085
-270.340	-128.457	0.248	0.045
-269.326	-77.817	-0.270	-0.118
-268.311	88.141	0.075	0.107
-267.297	8.515	0.029	0.028
-266.282	45.676	0.341	0.403
-265.267	-119.414	0.363	0.080
-264.253	318.774	-0.106	-0.257
-263.238	-92.880	-0.577	-0.205
-262.224	-159.406	0.368	-0.026
-261.209	-200.000	-0.006	0.466
-260.195	-148.479	0.295	-0.030
-259.180	371.595	-0.172	-0.448
-258.165	-200.000	0.070	0.419
-257.151	-200.000	0.019	-0.640
-256.136	-2.761	0.323	-0.288
-255.122	-200.000	0.012	-0.084
-254.107	247.957	-0.254	0.551
-253.092	-200.000	0.033	-0.299
-252.078	-71.342	0.181	0.086
-251.063	70.945	0.279	0.369
-250.049	11.186	0.069	-0.067
-249.034	800.000	-0.084	0.347
-248.019	-16.488	-0.336	-0.272
-247.005	-53.547	-0.067	0.039
-245.990	-200.000	0.016	0.390
-244.976	-200.000	0.068	-0.525
-243.961	56.691	-0.244	-0.304
-242.946	-200.000	0.047	0.417
-241.932	-52.766	0.339	-0.199
-240.917	-200.000	-0.064	-0.380
-239.903	291.500	0.118	-0.276
-238.888	136.013	0.084	-0.140
-237.873	-2.887	-0.113	-0.101
-236.859	-25.202	0.382	-0.288
-235.844	-197.875	0.111	0.001
-234.830	-103.200	0.340	-0.102
-233.815	-125.132	0.527	-0.102
-232.800	-200.000	0.031	0.249
-231.786	-26.581	-0.644	0.480
-230.771	-125.565	0.460	0.088
-229.757	-92.635	0.285	-0.101
-228.742	-68.685	-0.164	-0.081
-227.727	567.559	-0.068	-0.210
-226.713	-98.348	-0.213	0.069
-225.698	167.898	0.048	0.087
-224.684	-176.435	0.299	0.010
-223.669	800.000	0.035	-0.183
-222.655	-141.109	0.260	0.034
-221.640	1.838	-0.122	0.112
-220.625	27.081	0.149	-0.160
-219.611	-105.503	0.430	-0.124
-218.596	586.894	-0.145	-0.458
-217.582	440.342	-0.263	0.735
-216.567	-200.000	-0.059	0.484
-215.552	78.613	-0.058	0.079
-214.538	-145.413	0.381	0.043
-213.523	800.000	-0.020	-0.073
-212.509	-125.603	-0.222	0.043
-211.494	-129.682	-0.634	0.110
-210.479	71.053	0.250	0.331
-209.465	42.227	-0.205	0.237
-208.450	800.000	-0.032	0.114
-207.436	387.282	0.105	-0.277
-206.421	-98.240	0.476	-0.155
-205.406	208.347	0.224	0.449
-204.392	8.150	0.156	-0.150
-203.377	-38.901	0.498	-0.333
-202.363	40.194	0.130	0.149
-201.348	-179.429	-0.419	-0.012
-200.333	-152.308	0.301	0.027
-199.319	-14.704	-0.246	0.201
-198.304	-17.276	-0.136	0.109
-197.290	50.641	0.148	0.178
-196.275	-50.336	0.348	0.209
-195.260	-200.000	-0.056	-0.370
-194.246	-200.000	-0.015	-0.379
-193.231	-71.893	-0.340	0.161
-192.217	-200.000	-0.517	0.000
-191.202	51.402	0.099	0.120
-190.187	195.208	-0.192	0.372
-189.173	-200.000	-0.400	0.000
-188.158	97.324	0.211	0.310
-187.144	-103.826	-0.082	0.024
-186.129	106.627	0.089	0.134
-185.114	-81.309	-0.315	-0.132
-184.100	-109.841	0.342	0.091
-183.085	-200.000	0.061	-0.473
-182.071	-39.949	-0.137	-0.091
-181.056	302.394	-0.107	0.253
-180.042	-103.222	0.031	0.009
-179.027	-146.143	-0.174	0.019
-178.012	-9.491	0.174	0.147
-176.998	554.167	-0.115	0.355
-175.983	182.519	-0.117	-0.220
-174.969	55.587	-0.194	-0.239
-173.954	768.543	0.081	-0.282
-172.939	115.241	-0.090	-0.141
-171.925	-200.000	-0.012	0.313
-170.910	334.500	0.039	-0.095
-169.896	96.283	0.326	0.476
-168.881	-52.813	0.552	0.323
-167.866	380.810	0.100	-0.261
-166.852	-200.000	0.033	-0.299
-165.837	1.671	0.157	-0.144
-164.823	800.000	0.077	0.293
-163.808	-115.711	-0.120	0.028
-162.793	236.576	-0.102	0.215
-161.779	-32.792	-0.162	-0.114
-160.764	-47.475	-0.341	-0.210
-159.750	-43.739	-0.309	-0.198
-158.735	7.187	0.202	-0.192
-157.720	105.523	0.246	0.370
-156.706	140.662	-0.155	0.262
-155.691	-92.788	-0.486	0.172
-154.677	-24.442	-0.183	-0.139
-153.662	68.862	0.136	-0.178
-152.647	215.392	0.337	0.682
-151.633	-125.304	-0.115	0.022
-150.618	-54.371	0.250	0.144
-149.604	-141.397	0.170	0.022
-148.589	-200.000	-0.023	0.135
-147.574	-200.000	-0.054	-0.810
-146.560	115.559	0.056	0.088
-145.545	10.015	-0.024	-0.023
-144.531	78.833	0.238	0.325
-143.516	-163.020	0.098	-0.006
-142.502	-29.596	0.132	-0.095
-141.487	-155.623	-0.380	0.031
-140.472	-200.000	0.002	0.036
-139.458	-137.872	-0.452	-0.064
-138.443	-43.450	-0.228	0.146
-137.429	-180.736	0.264	0.007
-136.414	180.018	-0.083	-0.154
-135.399	-200.000	-0.035	0.374
-134.385	-76.563	-0.207	-0.092
-133.370	-200.000	0.016	-0.283
-132.356	-78.799	0.222	-0.096
-131.341	-42.393	-0.087	0.056
-130.326	-169.991	-0.539	0.024
-129.312	0.265	0.148	-0.134
-128.297	-113.998	0.393	0.096
-127.283	-82.451	-0.268	0.110
-126.268	430.841	0.056	-0.156
-125.253	133.618	-0.100	-0.164
-124.239	-200.000	0.015	-0.118
-123.224	-77.603	0.116	0.051
-122.210	245.751	0.101	0.217
-121.195	459.487	-0.219	0.622
