DTS Sentinel unit serial number:	SN409020Multiplexer serial number:	ORYXHardware model number:	OX4-SRSoftware version number:	ORYX F/W v3.00 Oryx Data Collector v3.7.2.0data status	okinstallation	HaddamTimeLapsedifferential loss correction	single-endedforward channel	channel 3reverse channel	N/Adate	2011/06/22time	00:56:17forward acquisition time	30.00reverse acquisition time	0.00gamma	498.7831k internal	0.1751k external	0.1751temperature offset calibration	1.0074default loss term (dB/km)	0.3790temperature slope calibration	1.3530multiplexer offset coefficient	1.0000multiplexer slope coefficient	1.0000fibre end	0.00T internal ref (°C)	22.56T ext. ref 1 (°C)	17.93T ext. ref 2 (°C)	0.05length (m)	temperature (°C)	Stokes	anti-Stokes-747.200	191.832	-0.022	0.045
-746.185	-117.585	0.427	-0.102
-745.171	-70.727	-0.392	-0.196
-744.156	800.000	-0.089	0.519
-743.142	-33.917	-0.353	0.257
-742.127	90.022	-0.235	0.349
-741.112	-200.000	0.393	-0.001
-740.098	-170.298	-0.542	-0.025
-739.083	800.000	-0.041	-0.226
-738.069	615.313	-0.027	-0.089
-737.054	-110.374	-0.176	0.048
-736.039	-88.253	-0.324	0.128
-735.025	-21.019	0.139	0.113
-734.010	-200.000	-0.028	-0.211
-732.996	-118.751	0.721	-0.167
-731.981	-153.967	-0.468	0.042
-730.966	-102.079	-0.167	-0.053
-729.952	-75.403	0.200	-0.094
-728.937	-157.730	-0.079	-0.006
-727.923	-39.522	0.083	-0.057
-726.908	800.000	-0.032	-0.124
-725.894	-139.992	0.445	0.062
-724.879	-51.001	-0.320	-0.199
-723.864	-40.876	0.220	0.151
-722.850	-113.044	-0.289	0.075
-721.835	800.000	-0.052	-0.197
-720.821	-80.373	0.559	0.246
-719.806	65.284	0.079	-0.106
-718.791	-200.000	0.078	-0.491
-717.777	-11.442	-0.345	0.301
-716.762	230.415	0.111	-0.242
-715.748	371.073	-0.072	0.194
-714.733	-129.354	-0.504	-0.092
-713.718	-113.750	-0.370	0.095
-712.704	83.949	0.176	-0.255
-711.689	800.000	-0.153	-0.565
-710.675	179.388	-0.232	-0.451
-709.660	-183.726	0.285	-0.006
-708.645	-4.565	0.050	-0.046
-707.631	-200.000	0.035	-0.320
-706.616	-88.010	0.397	-0.157
-705.602	15.594	-0.157	-0.163
-704.587	-95.037	-0.244	0.087
-703.572	-43.246	-0.370	-0.248
-702.558	800.000	-0.041	-0.240
-701.543	-44.496	0.195	-0.129
-700.529	-105.368	-0.305	-0.091
-699.514	-134.360	-0.163	0.026
-698.499	-49.827	-0.273	-0.172
-697.485	-200.000	-0.027	-0.434
-696.470	-197.462	-0.658	-0.005
-695.456	800.000	-0.063	-0.266
-694.441	-157.920	0.388	0.030
-693.426	80.168	0.283	-0.404
-692.412	26.662	0.291	-0.323
-691.397	30.860	-0.243	-0.276
-690.383	-119.343	0.307	-0.070
-689.368	160.182	-0.258	0.478
-688.354	68.375	-0.247	-0.336
-687.339	-77.778	-0.541	0.247
-686.324	443.277	-0.140	-0.408
-685.310	262.513	-0.171	-0.394
-684.295	22.565	0.260	0.282
-683.281	-200.000	-0.033	0.269
-682.266	-66.519	-0.558	0.292
-681.251	-87.080	-0.179	0.072
-680.237	-200.000	-0.366	0.001
-679.222	-76.155	0.137	-0.064
-678.208	-10.079	0.247	0.217
-677.193	-19.385	-0.266	-0.218
-676.178	-62.648	0.048	0.026
-675.164	-200.000	-0.008	0.234
-674.149	-169.906	-0.324	0.015
-673.135	313.643	0.069	-0.172
-672.120	-52.417	-0.423	-0.259
-671.105	606.397	-0.161	-0.534
-670.091	111.993	-0.266	-0.427
-669.076	-9.969	-0.394	-0.347
-668.062	-200.000	-0.010	0.232
-667.047	133.368	0.186	0.320
-666.032	89.138	0.185	0.273
-665.018	-143.535	0.194	0.024
-664.003	-101.601	-0.507	-0.162
-662.989	-170.233	0.123	-0.006
-661.974	-157.602	0.494	-0.039
-660.959	-85.362	0.366	-0.150
-659.945	-96.959	0.238	-0.082
-658.930	162.158	-0.183	-0.340
-657.916	298.951	0.038	0.094
-656.901	-176.132	0.416	-0.014
-655.886	-25.240	-0.552	-0.432
-654.872	-52.113	-0.052	0.032
-653.857	-118.921	0.357	-0.082
-652.843	422.690	-0.062	-0.176
-651.828	-200.000	0.016	0.244
-650.814	-107.132	-0.134	0.039
-649.799	20.876	0.246	-0.264
-648.784	-123.903	-0.132	0.027
-647.770	-200.000	0.038	-0.461
-646.755	-134.349	-0.227	-0.036
-645.741	47.637	-0.162	0.200
-644.726	-51.911	-0.427	-0.262
-643.711	154.062	0.295	0.537
-642.697	800.000	-0.050	-0.197
-641.682	-176.402	-0.450	-0.015
-640.668	280.466	0.202	-0.479
-639.653	182.933	-0.168	-0.330
-638.638	-48.228	0.543	-0.346
-637.624	-200.000	0.012	-0.557
-636.609	-200.000	0.010	-0.181
-635.595	58.837	-0.085	-0.111
-634.580	-70.655	-0.509	-0.253
-633.565	515.565	-0.040	0.123
-632.551	-88.058	0.067	-0.026
-631.536	-200.000	-0.018	0.173
-630.522	-200.000	-0.007	0.115
-629.507	57.139	-0.261	0.337
-628.492	23.102	0.171	-0.185
-627.478	161.624	-0.102	-0.189
-626.463	-200.000	-0.017	-0.243
-625.449	352.845	0.154	-0.405
-624.434	-164.555	-0.205	0.012
-623.419	-149.340	0.192	-0.020
-622.405	281.138	-0.091	0.216
-621.390	-36.751	0.296	0.210
-620.376	-137.696	0.765	-0.112
-619.361	-63.682	0.503	-0.272
-618.346	-52.525	-0.562	0.342
-617.332	-200.000	0.045	-0.305
-616.317	-114.441	-0.427	0.108
-615.303	-160.257	0.323	-0.023
-614.288	-200.000	0.094	0.556
-613.273	11.199	0.167	0.168
-612.259	-134.591	0.244	-0.039
-611.244	-18.785	0.436	0.358
-610.230	-4.004	-0.163	0.149
-609.215	143.641	0.153	0.271
-608.201	-82.417	-0.166	0.071
-607.186	-15.840	-0.362	-0.304
-606.171	162.313	-0.091	0.169
-605.157	-103.782	-0.220	0.068
-604.142	-148.814	0.634	0.067
-603.128	-119.362	-0.051	-0.012
-602.113	-75.093	-0.255	0.120
-601.098	-131.300	-0.457	0.079
-600.084	-154.373	0.189	-0.017
-599.069	-25.632	-0.203	0.158
-598.055	1.829	-0.181	-0.172
-597.040	-172.473	0.225	-0.009
-596.025	626.272	0.214	0.717
-595.011	-139.035	-0.233	0.033
-593.996	-64.691	-0.109	-0.058
-592.982	-109.697	-0.357	-0.099
-591.967	239.771	-0.136	0.301
-590.952	-143.678	0.250	-0.031
-589.938	15.954	0.153	0.159
-588.923	-200.000	-0.003	0.236
-587.909	156.443	-0.123	-0.224
-586.894	74.516	-0.242	0.337
-585.879	257.300	-0.192	-0.439
-584.865	-119.681	-0.555	-0.126
-583.850	67.966	0.231	-0.313
-582.836	-75.136	-0.572	-0.268
-581.821	800.000	0.033	-0.192
-580.806	800.000	-0.047	0.229
-579.792	-136.467	0.258	0.039
-578.777	146.199	0.209	-0.371
-577.763	-200.000	-0.001	-0.094
-576.748	402.971	0.153	-0.426
-575.733	-103.721	-0.163	0.050
-574.719	-200.000	-0.006	0.192
-573.704	68.840	-0.173	0.234
-572.690	-99.538	0.273	0.090
-571.675	-31.363	-0.353	0.261
-570.661	-147.239	-0.355	-0.039
-569.646	-161.881	0.346	-0.023
-568.631	-125.430	-0.123	-0.025
-567.617	800.000	-0.060	-0.272
-566.602	8.036	-0.121	0.119
-565.588	7.585	-0.290	-0.286
-564.573	350.635	0.093	0.245
-563.558	-142.006	-0.492	-0.064
-562.544	80.761	-0.118	0.168
-561.529	-135.335	-0.163	0.025
-560.515	-99.123	0.592	0.196
-559.500	800.000	0.009	0.043
-558.485	294.403	-0.123	-0.298
-557.471	-136.988	0.432	-0.065
-556.456	-200.000	0.026	0.206
-555.442	-98.548	0.324	0.108
-554.427	42.266	-0.348	-0.417
-553.412	69.653	-0.297	-0.404
-552.398	456.356	-0.044	0.128
-551.383	-92.960	-0.248	0.091
-550.369	-115.359	-0.469	0.116
-549.354	215.303	-0.056	0.117
-548.339	165.173	0.030	0.056
-547.325	163.902	-0.263	0.490
-546.310	70.910	0.128	-0.176
-545.296	20.722	0.208	0.222
-544.281	34.045	-0.271	-0.311
-543.266	-78.710	-0.416	0.186
-542.252	-88.224	0.472	0.185
-541.237	612.829	-0.140	-0.465
-540.223	270.383	-0.095	-0.220
-539.208	-20.081	-0.336	-0.273
-538.193	-48.271	-0.351	0.222
-537.179	85.571	0.137	-0.199
-536.164	-163.501	0.085	0.005
-535.150	156.506	-0.179	0.326
-534.135	-12.627	0.493	0.423
-533.121	-30.553	0.400	0.298
-532.106	-142.022	0.212	0.027
-531.091	35.205	0.455	0.525
-530.077	33.610	0.108	-0.124
-529.062	88.708	-0.151	0.221
-528.048	-7.001	0.201	-0.179
-527.033	-85.664	-0.458	0.186
-526.018	-200.000	0.014	0.451
-525.004	-200.000	0.031	0.429
-523.989	-82.379	0.310	-0.132
-522.975	55.545	-0.351	-0.448
-521.960	-31.794	0.674	-0.497
-520.945	64.677	0.119	-0.158
-519.931	-84.464	-0.508	0.210
-518.916	-125.888	0.143	-0.028
-517.902	-200.000	0.058	-0.819
-516.887	179.103	0.145	0.281
-515.872	800.000	-0.073	0.285
-514.858	-80.688	-0.112	0.049
-513.843	-60.471	-0.092	0.051
-512.829	-91.897	0.230	0.085
-511.814	-200.000	-0.013	0.273
-510.799	-80.695	0.258	-0.112
-509.785	-200.000	-0.010	0.156
-508.770	-200.000	-0.062	-0.395
-507.756	34.139	-0.294	0.337
-506.741	539.674	0.132	0.415
-505.726	93.338	0.089	0.133
-504.712	314.122	-0.050	-0.125
-503.697	-74.133	0.211	-0.100
-502.683	-168.475	0.394	-0.020
-501.668	-76.103	-0.295	0.137
-500.653	-200.000	-0.049	0.309
-499.639	-200.000	-0.025	-0.384
-498.624	800.000	-0.083	-0.375
-497.610	32.013	0.118	-0.134
-496.595	6.381	0.288	-0.281
-495.581	110.916	-0.020	-0.031
-494.566	73.851	0.284	0.391
-493.551	-200.000	-0.008	-0.206
-492.537	800.000	-0.022	-0.122
-491.522	-200.000	0.016	0.213
-490.508	19.387	-0.312	0.330
-489.493	-119.387	0.265	-0.060
-488.478	-22.743	0.152	0.121
-487.464	-136.404	0.407	0.062
-486.449	256.269	0.058	0.131
-485.435	800.000	0.088	0.414
-484.420	-200.000	0.007	0.114
-483.405	144.956	0.066	-0.116
-482.391	-64.186	-0.171	0.091
-481.376	-88.443	0.339	0.132
-480.362	183.138	0.100	-0.195
-479.347	53.004	0.055	0.069
-478.332	171.303	0.225	0.426
-477.318	-200.000	-0.092	0.678
-476.303	-200.000	-0.019	-0.357
-475.289	-100.694	-0.553	0.178
-474.274	147.580	-0.171	0.304
-473.259	-29.103	0.250	0.188
-472.245	59.502	-0.221	-0.286
-471.230	254.671	-0.164	-0.371
-470.216	-157.432	0.354	0.028
-469.201	661.052	-0.035	-0.120
-468.186	151.816	-0.196	0.351
-467.172	-33.997	0.466	-0.336
-466.157	-200.000	-0.002	-0.043
-465.143	352.725	-0.021	0.056
-464.128	-200.000	0.005	-0.051
-463.113	-25.328	-0.244	0.189
-462.099	-76.059	-0.323	0.149
-461.084	800.000	-0.055	-0.250
-460.070	120.436	-0.099	0.162
-459.055	225.869	-0.142	-0.303
-458.040	209.401	-0.179	0.369
-457.026	-200.000	-0.002	-0.085
-456.011	-56.943	-0.656	-0.379
-454.997	-0.630	0.242	-0.226
-453.982	-150.825	-0.823	-0.081
-452.968	77.573	-0.140	-0.196
-451.953	-155.277	-0.251	-0.021
-450.938	-71.326	0.296	0.145
-449.924	-31.684	-0.177	0.130
-448.909	800.000	0.042	-0.241
-447.895	800.000	0.068	0.332
-446.880	-157.958	-0.500	0.038
-445.865	-150.062	0.401	-0.040
-444.851	56.327	-0.204	0.261
-443.836	-11.801	-0.276	-0.238
-442.822	-48.734	0.506	-0.318
-441.807	-56.697	0.454	-0.263
-440.792	-41.487	-0.315	-0.212
-439.778	673.695	-0.049	0.169
-438.763	-4.754	0.422	-0.381
-437.749	62.442	-0.272	-0.356
-436.734	-200.000	0.034	0.316
-435.719	-200.000	-0.015	-0.174
-434.705	-152.292	-0.236	0.022
-433.690	89.645	0.196	-0.287
-432.676	25.793	0.177	-0.193
-431.661	-78.741	0.164	0.073
-430.646	3.561	-0.393	0.376
-429.632	-200.000	-0.009	0.403
-428.617	390.924	0.289	0.790
-427.603	-152.540	-0.310	-0.029
-426.588	-15.858	0.128	-0.107
-425.573	247.100	-0.269	0.598
-424.559	800.000	-0.129	0.605
-423.544	-200.000	-0.078	0.510
-422.530	52.031	-0.495	0.619
-421.515	-8.293	0.101	-0.089
-420.500	20.353	-0.094	0.100
-419.486	282.528	0.167	0.395
-418.471	800.000	-0.043	0.199
-417.457	-104.456	-0.603	0.182
-416.442	20.323	-0.153	0.162
-415.428	111.334	-0.164	0.259
-414.413	185.089	-0.130	-0.254
-413.398	248.914	-0.153	-0.342
-412.384	-98.157	-0.340	-0.114
-411.369	800.000	0.022	-0.096
-410.355	647.801	-0.089	-0.300
-409.340	646.667	-0.131	0.440
-408.325	-40.934	-0.420	0.284
-407.311	-126.459	-0.371	0.072
-406.296	-66.629	0.298	0.154
-405.282	-39.090	0.124	0.085
-404.267	405.698	0.107	0.298
-403.252	10.654	-0.055	-0.055
-402.238	206.487	-0.248	0.507
-401.223	-16.368	0.165	0.137
-400.209	434.541	0.113	0.323
-399.194	786.052	-0.075	0.272
-398.179	-105.782	0.258	-0.076
-397.165	-11.263	0.318	-0.274
-396.150	242.357	0.128	-0.282
-395.136	-153.454	0.097	0.009
-394.121	800.000	-0.062	-0.265
-393.106	-12.146	-0.124	-0.106
-392.092	402.869	-0.152	-0.420
-391.077	-60.612	0.096	0.053
-390.063	800.000	-0.102	-0.401
-389.048	3.076	0.128	-0.122
-388.033	369.472	0.062	0.166
-387.019	800.000	0.077	-0.362
-386.004	-71.630	-0.329	-0.160
-384.990	-41.616	0.228	0.153
-383.975	1.808	-0.590	0.557
-382.960	-104.965	0.208	-0.062
-381.946	324.012	0.102	-0.257
-380.931	-66.248	-0.266	0.138
-379.917	438.798	0.083	-0.237
-378.902	413.828	-0.026	-0.073
-377.888	-200.000	0.064	0.505
-376.873	-92.884	0.125	-0.045
-375.858	-200.000	0.024	-0.234
-374.844	-172.843	-0.799	-0.032
-373.829	59.136	0.155	0.200
-372.815	-6.692	0.151	0.134
-371.800	800.000	-0.099	0.381
-370.785	264.193	0.042	0.096
-369.771	-200.000	0.028	0.276
-368.756	-200.000	0.012	-0.375
-367.742	66.403	-0.131	0.174
-366.727	-133.793	0.155	-0.025
-365.712	440.968	0.059	0.171
-364.698	47.857	0.440	-0.538
-363.683	84.874	-0.153	-0.220
-362.669	-168.926	-0.162	-0.008
-361.654	-200.000	0.025	-0.296
-360.639	-104.808	0.249	-0.075
-359.625	-169.879	-0.213	0.010
-358.610	800.000	-0.026	0.102
-357.596	-14.162	-0.466	0.392
-356.581	-125.154	-0.395	-0.078
-355.566	210.878	0.093	0.192
-354.552	-112.479	0.183	-0.048
-353.537	-74.901	-0.425	0.198
-352.523	-77.042	0.268	-0.122
-351.508	-104.864	0.299	-0.089
-350.493	-149.178	0.268	-0.028
-349.479	800.000	0.088	-0.483
-348.464	637.338	0.093	0.311
-347.450	49.960	-0.095	0.117
-346.435	-101.345	0.155	-0.049
-345.420	206.454	0.096	-0.197
-344.406	153.231	0.039	-0.070
-343.391	-49.001	-0.281	0.176
-342.377	-80.007	-0.439	-0.192
-341.362	126.359	-0.093	-0.155
-340.348	-57.456	0.098	-0.056
-339.333	-33.771	-0.308	0.222
-338.318	-42.142	0.501	0.334
-337.304	-30.649	0.383	-0.283
-336.289	386.915	-0.105	-0.285
-335.275	91.647	-0.123	0.180
-334.260	-146.403	-0.049	0.006
-333.245	-102.550	0.049	-0.015
-332.231	-54.434	-0.281	0.166
-331.216	265.126	0.065	-0.148
-330.202	277.805	0.175	-0.409
-329.187	-200.000	0.023	-0.268
-328.172	800.000	-0.046	0.168
-327.158	64.937	0.109	-0.144
-326.143	-53.189	-0.219	-0.131
-325.129	-145.204	-0.273	0.032
-324.114	155.054	0.065	-0.117
-323.099	800.000	0.015	-0.065
-322.085	-50.933	0.268	0.164
-321.070	-120.753	-0.367	0.080
-320.056	220.651	0.157	-0.331
-319.041	-86.485	0.173	-0.069
-318.026	-79.603	0.292	0.128
-317.012	-200.000	0.010	0.383
-315.997	73.103	0.124	0.170
-314.983	-160.484	0.604	0.042
-313.968	-85.135	0.227	-0.092
-312.953	-27.198	0.122	-0.093
-311.939	-9.724	0.287	-0.250
-310.924	-51.192	0.467	-0.285
-309.910	-200.000	-0.007	-0.085
-308.895	-200.000	0.045	-0.447
-307.880	-200.000	-0.069	-0.456
-306.866	800.000	-0.106	-0.450
-305.851	220.815	0.169	-0.356
-304.837	-114.937	-0.236	0.058
-303.822	462.962	0.148	0.435
-302.807	131.755	0.196	0.330
-301.793	-75.812	-0.063	-0.029
-300.778	-136.858	-0.238	0.035
-299.764	186.664	-0.095	-0.186
-298.749	-200.000	0.003	-0.183
-297.735	-141.294	-0.194	0.025
-296.720	60.150	-0.421	0.544
-295.705	-200.000	-0.007	0.060
-294.691	-164.931	0.322	-0.018
-293.676	45.853	0.316	0.382
-292.662	-105.981	0.611	-0.178
-291.647	45.374	-0.417	-0.503
-290.632	-89.806	0.276	-0.105
-289.618	296.983	-0.148	0.356
-288.603	233.047	-0.095	0.205
-287.589	-117.542	0.707	0.165
-286.574	-22.587	0.165	0.130
-285.559	-50.042	0.415	-0.256
-284.545	-65.583	0.160	0.083
-283.530	10.095	-0.236	0.234
-282.516	-27.250	-0.331	0.251
-281.501	74.770	0.264	-0.363
-280.486	-200.000	0.089	-0.606
-279.472	6.129	0.170	-0.164
-278.457	800.000	0.102	-0.408
-277.443	-125.621	0.294	-0.058
-276.428	-102.695	0.368	-0.114
-275.413	-55.664	-0.222	0.129
-274.399	-84.149	0.732	-0.301
-273.384	728.210	0.186	-0.652
-272.370	-158.146	-0.175	-0.013
-271.355	3.897	0.237	-0.226
-270.340	-66.167	-0.224	0.116
-269.326	-25.593	-0.136	-0.104
-268.311	-76.104	0.479	0.220
-267.297	-67.605	-0.301	0.153
-266.282	101.611	0.391	0.595
-265.267	335.504	0.197	0.499
-264.253	-200.000	0.019	0.368
-263.238	99.884	0.111	-0.167
-262.224	800.000	-0.102	0.387
-261.209	-44.222	-0.430	0.280
-260.195	58.377	0.185	-0.237
-259.180	326.852	-0.046	0.116
-258.165	307.616	0.064	0.157
-257.151	-44.881	0.341	0.221
-256.136	-60.016	-0.601	-0.333
-255.122	-200.000	-0.017	0.407
-254.107	-200.000	-0.021	0.455
-253.092	-42.053	-0.168	0.112
-252.078	-0.983	0.364	0.335
-251.063	-70.764	0.187	-0.092
-250.049	-179.559	-0.414	-0.012
-249.034	-146.147	0.299	0.034
-248.019	800.000	-0.039	0.170
-247.005	-62.264	0.101	0.055
-245.990	485.178	-0.168	-0.501
-244.976	-143.840	0.370	-0.045
-243.961	-72.444	-0.183	-0.088
-242.946	800.000	-0.041	0.174
-241.932	-200.000	0.041	-0.333
-240.917	21.565	0.117	0.124
-239.903	-73.503	-0.140	-0.066
-238.888	7.623	0.048	0.047
-237.873	-183.058	-0.333	0.008
-236.859	800.000	-0.059	-0.285
-235.844	800.000	0.061	-0.230
-234.830	646.528	-0.096	-0.323
-233.815	800.000	0.150	-0.547
-232.800	-104.491	0.549	-0.164
-231.786	-155.436	0.059	0.005
-230.771	-179.464	-0.578	-0.016
-229.757	271.320	-0.220	-0.507
-228.742	-154.731	0.268	0.023
-227.727	-40.195	0.559	0.378
-226.713	-155.545	0.136	-0.011
-225.698	-103.389	-0.234	-0.071
-224.684	-97.845	-0.142	-0.047
-223.669	-200.000	-0.002	-0.324
-222.655	-58.033	0.545	-0.309
-221.640	800.000	0.079	0.332
-220.625	-90.735	0.231	-0.086
-219.611	14.114	0.212	0.214
-218.596	-200.000	0.034	-0.310
-217.582	16.096	-0.295	0.303
-216.567	99.949	0.257	-0.388
-215.552	-74.759	0.339	-0.158
-214.538	82.367	0.066	0.094
-213.523	-107.641	-0.656	0.185
-212.509	-81.232	-0.289	0.123
-211.494	625.701	0.060	-0.197
-210.479	100.145	-0.109	-0.165
-209.465	726.921	-0.102	0.355
-208.450	-61.677	-0.114	-0.062
-207.436	-149.494	0.280	0.028
-206.421	-157.100	-0.285	-0.022
-205.406	90.578	0.358	0.523
-204.392	-200.000	-0.012	-0.134
-203.377	-62.363	0.309	-0.167
-202.363	-200.000	0.042	0.492
-201.348	43.051	0.415	0.493
-200.333	-131.810	0.392	-0.066
-199.319	-63.154	0.205	0.110
-198.304	237.622	0.116	0.250
-197.290	235.389	-0.211	-0.456
-196.275	800.000	-0.047	-0.237
-195.260	-91.419	-0.117	0.043
-194.246	-121.875	-0.389	-0.083
-193.231	-11.298	0.178	0.152
-192.217	51.192	0.150	0.185
-191.202	24.514	-0.053	-0.057
-190.187	800.000	0.084	-0.322
-189.173	-14.848	-0.282	0.235
-188.158	596.533	-0.107	-0.347
-187.144	114.910	0.158	-0.252
-186.129	78.375	0.044	-0.061
-185.114	-122.718	0.308	-0.064
-184.100	-95.907	-0.526	0.181
-183.085	-200.000	0.022	-0.386
-182.071	-200.000	0.027	0.189
-181.056	-46.438	-0.175	-0.111
-180.042	520.348	0.047	-0.143
-179.027	-68.326	-0.373	0.188
-178.012	83.801	0.180	0.255
-176.998	41.980	-0.111	-0.131
-175.983	-63.114	-0.073	-0.039
-174.969	593.027	0.222	-0.717
-173.954	64.173	0.042	0.055
-172.939	326.073	0.035	-0.088
-171.925	-130.490	0.279	-0.048
-170.910	63.228	0.317	-0.413
-169.896	-84.742	-0.440	-0.179
-168.881	800.000	-0.046	0.231
-167.866	-23.214	-0.462	0.360
-166.852	73.179	-0.029	-0.040
-165.837	58.437	-0.186	-0.237
-164.823	360.134	-0.109	-0.284
-163.808	497.072	-0.135	-0.405
-162.793	305.343	0.063	-0.153
-161.779	-124.932	-0.354	-0.070
-160.764	-200.000	-0.003	0.118
-159.750	-71.737	0.263	0.127
-158.735	-6.022	0.192	-0.170
-157.720	-176.203	0.396	-0.013
-156.706	404.583	0.059	0.163
-155.691	210.466	-0.066	0.136
-154.677	-166.443	-0.381	0.020
-153.662	324.026	-0.153	0.381
-152.647	79.097	-0.252	-0.351
-151.633	-110.445	0.367	-0.098
-150.618	-200.000	-0.030	-0.403
-149.604	-138.733	-0.468	0.066
-148.589	408.186	-0.041	0.114
-147.574	-46.414	-0.360	0.229
-146.560	167.032	0.121	0.223
-145.545	-39.403	-0.226	-0.153
-144.531	-84.094	-0.166	0.068
-143.516	133.192	-0.200	-0.336
-142.502	800.000	0.077	0.296
-141.487	-200.000	0.013	0.083
-140.472	-152.390	0.564	0.052
-139.458	-15.513	-0.057	0.047
-138.443	-72.414	-0.113	-0.054
-137.429	73.479	0.322	-0.437
-136.414	13.777	0.129	-0.130
-135.399	129.456	-0.105	0.174
-134.385	-10.097	0.161	0.138
-133.370	84.953	0.288	0.409
-132.356	229.523	-0.056	0.118
-131.341	72.699	0.061	0.083
-130.326	-200.000	-0.070	0.408
-129.312	-184.686	0.134	0.003
-128.297	255.333	-0.078	0.174
-127.283	-118.325	-0.087	-0.020
-126.268	-192.714	-0.452	0.005
-125.253	-200.000	0.026	-0.235
-124.239	-28.447	-0.043	-0.032
-123.224	-200.000	0.006	0.258
-122.210	-1.102	0.249	0.228
