DTS Sentinel unit serial number:	SN409020Multiplexer serial number:	ORYXHardware model number:	OX4-SRSoftware version number:	ORYX F/W v3.00 Oryx Data Collector v3.7.2.0data status	okinstallation	HaddamTimeLapsedifferential loss correction	single-endedforward channel	channel 3reverse channel	N/Adate	2011/06/22time	02:21:17forward acquisition time	30.00reverse acquisition time	0.00gamma	498.7831k internal	0.1751k external	0.1751temperature offset calibration	1.0074default loss term (dB/km)	0.3790temperature slope calibration	1.3530multiplexer offset coefficient	1.0000multiplexer slope coefficient	1.0000fibre end	0.00T internal ref (°C)	22.37T ext. ref 1 (°C)	17.54T ext. ref 2 (°C)	0.01length (m)	temperature (°C)	Stokes	anti-Stokes-747.200	800.000	-0.111	-0.615
-746.185	-106.698	0.555	-0.163
-745.171	29.108	0.209	0.236
-744.156	535.061	-0.162	0.514
-743.142	-98.898	-0.271	-0.091
-742.127	-77.494	0.634	-0.291
-741.112	-200.000	0.022	-0.278
-740.098	31.161	-0.401	0.458
-739.083	-120.511	0.184	0.041
-738.069	14.455	0.499	0.517
-737.054	-21.847	-0.302	0.243
-736.039	-150.345	-0.351	0.035
-735.025	262.632	0.242	0.559
-734.010	-103.750	0.151	-0.047
-732.996	-200.000	0.037	-0.551
-731.981	41.169	-0.110	-0.132
-730.966	-134.929	-0.435	-0.069
-729.952	-65.320	0.100	0.053
-728.937	109.858	-0.087	0.139
-727.923	187.228	-0.111	0.220
-726.908	-100.619	-0.536	-0.175
-725.894	-55.494	-0.305	-0.181
-724.879	130.469	-0.153	-0.261
-723.864	51.707	-0.214	0.270
-722.850	-200.000	0.022	-0.485
-721.835	47.556	-0.051	-0.063
-720.821	-31.866	0.149	-0.111
-719.806	34.622	0.241	-0.279
-718.791	-141.866	-0.116	-0.015
-717.777	-200.000	-0.021	-0.186
-716.762	685.919	0.057	-0.198
-715.748	-200.000	0.043	-0.323
-714.733	-18.493	-0.469	-0.388
-713.718	76.898	-0.113	-0.159
-712.704	66.657	0.162	-0.219
-711.689	-146.022	-0.434	0.050
-710.675	-87.682	-0.253	-0.101
-709.660	-158.666	-0.271	0.020
-708.645	-70.363	-0.128	-0.064
-707.631	-68.018	-0.093	0.048
-706.616	763.623	0.127	-0.459
-705.602	-193.425	-0.358	0.004
-704.587	176.563	0.099	0.191
-703.572	-93.885	0.363	-0.132
-702.558	800.000	0.039	-0.161
-701.543	-200.000	0.010	0.165
-700.529	73.357	0.419	0.582
-699.514	-18.547	-0.367	0.303
-698.499	692.196	0.080	0.278
-697.485	-70.152	-0.280	0.140
-696.470	150.952	-0.118	-0.213
-695.456	32.274	0.016	-0.018
-694.441	-62.046	-0.518	0.286
-693.426	145.270	0.190	-0.338
-692.412	356.751	0.118	-0.312
-691.397	-64.983	-0.241	-0.129
-690.383	-98.802	-0.184	0.062
-689.368	260.558	-0.136	0.314
-688.354	800.000	-0.054	-0.224
-687.339	-1.875	0.169	-0.157
-686.324	-200.000	-0.031	0.497
-685.310	-27.994	-0.132	-0.101
-684.295	20.751	0.115	-0.123
-683.281	100.160	-0.169	0.260
-682.266	55.718	-0.166	-0.214
-681.251	428.928	-0.207	-0.596
-680.237	70.117	-0.363	0.498
-679.222	202.087	0.031	-0.063
-678.208	-107.245	0.098	-0.028
-677.193	378.650	-0.199	0.542
-676.178	-200.000	-0.039	0.389
-675.164	105.237	-0.275	0.431
-674.149	-200.000	0.022	0.311
-673.135	800.000	0.038	0.159
-672.120	800.000	0.162	0.629
-671.105	-66.069	-0.265	0.139
-670.091	-41.544	-0.127	-0.087
-669.076	-200.000	0.017	0.153
-668.062	-200.000	-0.037	-0.343
-667.047	-13.542	-0.325	-0.279
-666.032	-200.000	-0.024	-0.222
-665.018	-123.885	-0.431	0.089
-664.003	200.189	0.095	0.193
-662.989	-58.700	0.084	-0.048
-661.974	-29.985	0.484	-0.365
-660.959	29.961	0.124	-0.140
-659.945	-161.994	-0.529	0.035
-658.930	98.244	0.256	0.390
-657.916	543.022	0.078	0.249
-656.901	-26.206	0.505	0.392
-655.886	-73.104	0.331	-0.160
-654.872	67.181	0.095	0.129
-653.857	-200.000	-0.019	0.211
-652.843	-181.685	0.358	-0.009
-651.828	-200.000	0.036	0.328
-650.814	-110.283	-0.299	0.082
-649.799	-143.662	-0.499	-0.062
-648.784	231.329	0.109	-0.236
-647.770	-200.000	-0.006	-0.236
-646.755	800.000	-0.112	-0.542
-645.741	-173.492	-0.280	-0.011
-644.726	-200.000	0.006	-0.151
-643.711	-101.432	-0.125	-0.040
-642.697	-106.088	0.492	-0.145
-641.682	-38.487	0.086	0.060
-640.668	12.858	-0.257	0.263
-639.653	285.549	0.166	0.397
-638.638	-200.000	-0.013	0.269
-637.624	-55.979	0.283	0.167
-636.609	32.466	0.184	-0.210
-635.595	-117.057	-0.234	0.056
-634.580	-200.000	-0.049	-0.484
-633.565	2.335	-0.068	0.065
-632.551	-38.310	-0.120	0.084
-631.536	-142.618	-0.591	0.076
-630.522	-85.026	-0.096	0.040
-629.507	-110.284	-0.194	-0.053
-628.492	391.270	-0.010	-0.028
-627.478	75.925	-0.192	0.268
-626.463	800.000	-0.101	-0.482
-625.449	35.105	-0.100	0.116
-624.434	800.000	0.034	-0.182
-623.419	800.000	0.083	-0.389
-622.405	-59.720	-0.540	-0.305
-621.390	-14.324	0.335	0.285
-620.376	42.279	-0.128	-0.154
-619.361	44.643	0.157	-0.191
-618.346	-175.188	0.241	0.009
-617.332	28.175	-0.210	0.234
-616.317	-56.065	-0.405	0.238
-615.303	-101.953	0.113	0.036
-614.288	-121.952	-0.355	-0.077
-613.273	63.414	-0.134	0.178
-612.259	134.908	-0.169	-0.291
-611.244	42.713	0.228	-0.275
-610.230	-200.000	-0.045	0.383
-609.215	800.000	0.042	0.163
-608.201	-200.000	0.018	0.125
-607.186	-116.500	0.518	0.125
-606.171	97.535	0.041	0.062
-605.157	-34.484	-0.228	-0.165
-604.142	-145.503	0.214	0.025
-603.128	147.072	-0.068	-0.122
-602.113	-99.982	0.545	0.178
-601.098	72.035	-0.250	0.344
-600.084	-54.198	0.251	0.150
-599.069	75.709	0.224	0.313
-598.055	800.000	0.055	0.290
-597.040	-126.770	-0.505	-0.098
-596.025	-71.415	0.294	-0.145
-595.011	242.853	-0.258	0.573
-593.996	17.436	0.107	0.113
-592.982	-85.055	-0.407	-0.167
-591.967	66.105	0.126	-0.169
-590.952	-66.948	0.148	0.077
-589.938	36.770	-0.326	-0.380
-588.923	-132.000	-0.548	0.093
-587.909	-106.774	-0.148	0.043
-586.894	-75.047	-0.302	0.142
-585.879	90.174	-0.048	0.071
-584.865	-82.511	0.351	-0.150
-583.850	-118.675	-0.154	0.035
-582.836	134.613	-0.103	-0.176
-581.821	-200.000	0.054	-0.369
-580.806	800.000	0.044	-0.221
-579.792	56.463	0.118	-0.152
-578.777	-122.502	-0.493	0.105
-577.763	-65.101	-0.586	0.311
-576.748	-153.560	-0.280	0.025
-575.733	206.730	0.098	-0.202
-574.719	-167.764	-0.262	-0.013
-573.704	406.322	-0.051	0.142
-572.690	473.022	-0.105	-0.315
-571.675	-142.374	0.237	0.031
-570.661	-137.599	0.131	0.019
-569.646	224.442	-0.159	0.341
-568.631	-200.000	0.025	0.221
-567.617	-200.000	-0.006	0.277
-566.602	-160.564	0.129	0.009
-565.588	-145.017	0.217	-0.026
-564.573	360.528	0.141	-0.374
-563.558	-70.044	0.178	-0.089
-562.544	101.805	0.162	-0.250
-561.529	-134.775	-0.676	-0.107
-560.515	-180.140	-0.430	0.012
-559.500	108.711	-0.094	-0.148
-558.485	53.787	0.380	-0.482
-557.471	-135.094	-0.408	-0.064
-556.456	800.000	0.034	0.158
-555.442	-37.920	-0.507	0.354
-554.427	-51.438	-0.380	0.233
-553.412	-200.000	-0.012	0.102
-552.398	-95.665	0.361	0.127
-551.383	271.934	-0.116	0.270
-550.369	-147.042	0.334	-0.037
-549.354	-69.224	0.511	-0.258
-548.339	-0.003	0.230	0.216
-547.325	727.947	-0.031	-0.108
-546.310	-93.106	0.237	-0.086
-545.296	-163.791	0.353	-0.021
-544.281	546.192	-0.146	0.461
-543.266	-22.827	0.276	-0.219
-542.252	-34.618	-0.423	-0.304
-541.237	-200.000	0.049	-0.288
-540.223	670.505	0.103	-0.354
-539.208	15.084	-0.164	-0.170
-538.193	239.976	-0.075	0.165
-537.179	-73.696	0.158	0.075
-536.164	114.181	-0.099	0.159
-535.150	32.572	0.293	0.334
-534.135	144.610	0.274	0.484
-533.121	-162.560	-0.282	0.018
-532.106	83.364	-0.330	0.474
-531.091	-170.468	0.417	-0.019
-530.077	-6.822	-0.370	-0.331
-529.062	-1.924	-0.244	-0.225
-528.048	47.277	-0.169	-0.208
-527.033	97.677	0.408	0.619
-526.018	-88.020	0.189	0.075
-525.004	-70.018	0.142	0.071
-523.989	-69.416	0.385	0.194
-522.975	-200.000	-0.074	0.605
-521.960	-20.801	0.124	-0.100
-520.945	312.902	0.188	0.467
-519.931	-42.229	0.657	0.441
-518.916	-58.370	-0.374	-0.213
-517.902	40.568	0.224	-0.266
-516.887	-191.005	0.521	0.007
-515.872	160.967	-0.091	0.168
-514.858	-61.800	-0.650	0.357
-513.843	414.135	0.047	0.131
-512.829	137.029	0.112	-0.194
-511.814	-142.397	-0.329	0.042
-510.799	-14.882	-0.571	-0.482
-509.785	-168.864	0.648	-0.032
-508.770	-14.446	0.141	0.120
-507.756	800.000	-0.109	0.599
-506.741	-200.000	-0.007	0.322
-505.726	-126.754	0.336	0.065
-504.712	-64.526	0.122	0.065
-503.697	-105.636	-0.280	-0.083
-502.683	-24.809	-0.119	0.093
-501.668	115.846	-0.122	-0.196
-500.653	-158.214	-0.546	0.041
-499.639	81.805	-0.112	-0.159
-498.624	-48.068	0.400	0.254
-497.610	-60.280	0.164	0.091
-496.595	194.430	-0.219	0.439
-495.581	-127.819	0.352	0.066
-494.566	-200.000	0.065	0.808
-493.551	94.409	0.159	-0.237
-492.537	-113.796	0.082	0.021
-491.522	792.098	-0.105	-0.384
-490.508	-1.796	-0.246	-0.228
-489.493	33.912	0.213	-0.244
-488.478	-69.272	-0.276	0.139
-487.464	-32.624	0.133	-0.097
-486.449	-82.308	-0.112	-0.048
-485.435	346.911	-0.047	-0.123
-484.420	13.200	0.224	0.228
-483.405	-200.000	0.013	-0.181
-482.391	-33.170	0.205	-0.149
-481.376	-44.494	-0.399	0.262
-480.362	-80.861	0.040	0.017
-479.347	-200.000	0.053	-0.544
-478.332	534.903	-0.046	-0.143
-477.318	-110.959	-0.389	-0.104
-476.303	-78.527	-0.181	0.081
-475.289	658.901	-0.092	0.313
-474.274	-133.718	0.189	-0.031
-473.259	800.000	0.046	-0.227
-472.245	-61.448	-0.240	-0.132
-471.230	66.720	0.040	0.054
-470.216	-200.000	-0.018	0.109
-469.201	800.000	0.129	0.506
-468.186	-27.658	0.341	-0.259
-467.172	181.782	-0.060	0.117
-466.157	263.232	-0.084	0.193
-465.143	464.058	-0.177	-0.522
-464.128	71.576	-0.130	0.177
-463.113	607.463	-0.145	-0.479
-462.099	59.657	-0.111	0.144
-461.084	-183.799	-0.073	-0.002
-460.070	-153.393	-0.151	0.014
-459.055	-111.991	-0.520	-0.137
-458.040	5.813	0.323	-0.313
-457.026	-127.462	-0.341	-0.065
-456.011	-13.370	0.083	0.071
-454.997	-109.520	-0.675	0.186
-453.982	-143.510	0.652	-0.081
-452.968	-130.345	0.312	0.055
-451.953	-25.057	-0.434	0.338
-450.938	-114.163	0.296	0.075
-449.924	156.562	0.080	-0.146
-448.909	34.499	-0.239	0.274
-447.895	-24.153	-0.154	0.121
-446.880	-200.000	-0.161	-0.000
-445.865	-125.837	-0.202	-0.040
-444.851	77.341	0.243	0.340
-443.836	57.144	-0.174	0.223
-442.822	759.478	0.035	-0.125
-441.807	-67.390	-0.412	0.212
-440.792	428.133	-0.063	0.178
-439.778	-152.080	-0.163	0.015
-438.763	713.640	0.055	-0.193
-437.749	-74.190	0.151	-0.071
-436.734	208.804	-0.134	-0.276
-435.719	-72.780	0.487	-0.234
-434.705	127.425	0.330	0.552
-433.690	449.411	-0.204	0.592
-432.676	181.484	-0.237	-0.459
-431.661	-66.389	-0.161	-0.084
-430.646	-87.435	-0.350	-0.138
-429.632	-56.025	0.211	0.123
-428.617	180.745	-0.156	0.301
-427.603	42.894	-0.090	-0.107
-426.588	-28.872	0.373	-0.281
-425.573	-162.405	-0.284	-0.018
-424.559	675.091	0.110	0.377
-423.544	123.208	0.126	-0.207
-422.530	800.000	0.091	0.487
-421.515	-88.845	0.661	-0.256
-420.500	128.846	0.076	-0.127
-419.486	800.000	0.075	-0.332
-418.471	800.000	0.042	-0.193
-417.457	-51.353	-0.127	-0.078
-416.442	283.131	0.184	0.436
-415.428	168.044	-0.244	0.457
-414.413	98.542	-0.120	-0.182
-413.398	-9.778	-0.117	0.102
-412.384	-105.962	-0.105	0.031
-411.369	475.837	-0.110	-0.327
-410.355	774.481	-0.048	0.172
-409.340	129.417	-0.161	-0.270
-408.325	117.392	0.389	-0.629
-407.311	227.956	0.160	-0.342
-406.296	68.229	-0.210	0.283
-405.282	193.961	0.034	0.067
-404.267	155.915	0.260	-0.472
-403.252	-129.329	-0.127	-0.023
-402.238	800.000	0.041	0.212
-401.223	-114.424	0.347	0.087
-400.209	-109.639	0.542	-0.149
-399.194	-200.000	0.012	-0.107
-398.179	-185.990	0.194	0.004
-397.165	-200.000	-0.010	0.155
-396.150	767.835	-0.134	0.481
-395.136	-92.633	0.079	-0.029
-394.121	-102.337	-0.310	-0.097
-393.106	-162.823	0.326	-0.021
-392.092	-6.073	-0.086	-0.077
-391.077	13.182	0.443	-0.450
-390.063	104.456	0.094	0.146
-389.048	88.035	0.088	0.128
-388.033	-200.000	-0.001	0.089
-387.019	-146.124	-0.223	0.025
-386.004	292.979	-0.115	-0.275
-384.990	407.086	-0.184	-0.512
-383.975	78.299	-0.225	-0.316
-382.960	-147.322	0.282	0.031
-381.946	-200.000	0.082	-0.476
-380.931	-60.286	-0.160	-0.089
-379.917	-100.469	0.392	-0.126
-378.902	221.906	0.233	-0.492
-377.888	-200.000	0.108	-0.780
-376.873	99.584	0.316	-0.480
-375.858	-160.172	-0.577	0.040
-374.844	24.933	-0.433	0.471
-373.829	78.958	-0.193	-0.270
-372.815	776.631	0.155	-0.557
-371.800	-112.541	0.347	0.090
-370.785	-172.740	-0.186	-0.007
-369.771	-36.270	0.308	0.217
-368.756	176.935	-0.080	-0.152
-367.742	190.660	0.071	-0.141
-366.727	96.372	0.122	0.183
-365.712	-109.374	-0.297	-0.082
-364.698	416.734	-0.120	-0.336
-363.683	308.379	-0.080	-0.197
-362.669	-125.065	-0.424	0.085
-361.654	-165.358	0.261	-0.015
-360.639	659.810	0.045	0.153
-359.625	61.296	0.371	-0.483
-358.610	-102.039	-0.315	-0.099
-357.596	800.000	-0.008	-0.039
-356.581	132.047	0.074	-0.125
-355.566	-147.308	-0.329	-0.036
-354.552	22.775	0.215	0.231
-353.537	-69.014	0.136	-0.068
-352.523	-30.289	-0.393	-0.292
-351.508	-138.877	-0.214	0.030
-350.493	54.974	0.302	0.382
-349.479	-200.000	-0.007	0.184
-348.464	84.163	0.223	-0.320
-347.450	800.000	0.068	-0.333
-346.435	67.134	-0.213	-0.284
-345.420	185.462	0.227	-0.443
-344.406	161.348	0.129	0.236
-343.391	800.000	0.037	0.140
-342.377	11.834	0.194	-0.194
-341.362	112.805	0.270	-0.428
-340.348	295.623	-0.017	-0.040
-339.333	-86.365	0.258	0.103
-338.318	-97.241	-0.208	-0.070
-337.304	800.000	-0.030	-0.144
-336.289	58.449	-0.245	-0.315
-335.275	-97.427	0.211	-0.071
-334.260	24.274	-0.273	0.295
-333.245	-68.367	-0.280	-0.142
-332.231	-200.000	0.034	0.308
-331.216	800.000	0.102	-0.576
-330.202	800.000	0.006	0.023
-329.187	136.186	0.108	0.185
-328.172	-125.789	0.366	0.072
-327.158	152.171	0.136	0.244
-326.143	-84.713	-0.473	0.194
-325.129	-29.821	-0.092	-0.068
-324.114	282.691	0.120	0.283
-323.099	-87.934	-0.280	0.109
-322.085	-200.000	-0.058	-0.419
-321.070	6.544	0.331	-0.321
-320.056	800.000	-0.115	0.618
-319.041	19.831	-0.188	0.198
-318.026	-162.606	0.232	0.015
-317.012	-2.504	-0.148	0.136
-315.997	-90.090	-0.501	0.190
-314.983	-17.777	-0.231	0.189
-313.968	-0.528	0.312	-0.289
-312.953	-95.242	0.544	0.190
-311.939	185.057	0.084	0.163
-310.924	-87.246	0.284	0.112
-309.910	91.683	0.338	0.498
-308.895	-200.000	-0.010	-0.396
-307.880	-33.648	0.049	0.035
-306.866	-108.021	0.127	0.036
-305.851	-147.014	0.416	0.046
-304.837	-200.000	0.007	0.152
-303.822	42.621	-0.167	0.199
-302.807	800.000	-0.087	0.374
-301.793	-185.492	0.536	0.010
-300.778	-113.236	0.929	-0.237
-299.764	525.906	0.105	-0.323
-298.749	-200.000	-0.071	-0.429
-297.735	114.653	0.148	0.237
-296.720	-163.276	0.301	-0.019
-295.705	-125.769	0.164	-0.032
-294.691	-200.000	0.057	-0.456
-293.676	-200.000	-0.016	0.283
-292.662	-200.000	0.031	0.245
-291.647	-59.084	0.326	0.183
-290.632	-191.246	-0.348	-0.005
-289.618	-200.000	0.034	0.290
-288.603	39.241	0.043	0.050
-287.589	-200.000	0.003	0.079
-286.574	-170.092	-0.273	-0.012
-285.559	559.738	0.072	-0.228
-284.545	-57.484	-0.242	0.138
-283.530	-78.664	0.371	0.165
-282.516	3.904	0.216	-0.206
-281.501	-200.000	0.034	0.233
-280.486	-67.721	-0.078	0.040
-279.472	-57.706	0.238	-0.135
-278.457	776.053	-0.102	0.365
-277.443	-37.043	-0.386	-0.269
-276.428	401.537	0.095	0.260
-275.413	1.707	0.292	0.274
-274.399	-64.451	0.546	0.288
-273.384	360.454	0.118	-0.310
-272.370	-181.711	0.029	0.001
-271.355	800.000	-0.035	-0.197
-270.340	-73.798	-0.139	0.065
-269.326	-149.912	0.290	0.029
-268.311	128.230	0.242	0.402
-267.297	79.642	-0.258	0.361
-266.282	-121.977	0.384	-0.082
-265.267	487.199	0.073	0.217
-264.253	-38.435	0.194	-0.133
-263.238	-87.657	0.290	-0.114
-262.224	-13.557	0.259	0.219
-261.209	-200.000	0.008	0.346
-260.195	-175.839	0.170	0.006
-259.180	-28.598	0.520	0.390
-258.165	563.947	0.037	0.116
-257.151	-14.259	-0.336	0.282
-256.136	-200.000	-0.036	-0.356
-255.122	279.428	0.098	0.230
-254.107	86.094	0.357	0.512
-253.092	108.509	-0.295	0.460
-252.078	206.259	-0.293	0.597
-251.063	16.513	-0.029	-0.029
-250.049	-95.219	0.510	-0.178
-249.034	-26.704	0.414	-0.315
-248.019	128.333	-0.131	-0.218
-247.005	15.896	-0.338	-0.346
-245.990	-163.074	-0.102	0.006
-244.976	-122.430	-0.433	0.091
-243.961	559.576	-0.130	-0.412
-242.946	-82.781	0.070	-0.029
-241.932	16.842	0.097	-0.100
-240.917	657.991	0.089	0.300
-239.903	109.390	-0.227	-0.355
-238.888	33.125	-0.147	0.167
-237.873	-71.128	0.106	-0.052
-236.859	-60.793	-0.241	0.133
-235.844	-200.000	-0.038	-0.228
-234.830	-23.977	-0.258	-0.200
-233.815	151.219	-0.069	-0.122
-232.800	283.011	0.120	-0.281
-231.786	583.316	-0.098	-0.316
-230.771	6.431	-0.158	0.152
-229.757	358.737	0.070	0.183
-228.742	41.405	-0.235	-0.277
-227.727	-74.651	-0.394	0.184
-226.713	59.863	-0.176	-0.226
-225.698	-47.675	-0.179	0.113
-224.684	-84.837	0.223	-0.091
-223.669	-200.000	-0.025	0.233
-222.655	314.538	0.086	-0.213
-221.640	-47.626	-0.357	-0.225
-220.625	-33.323	0.285	0.205
-219.611	-74.524	0.578	0.270
-218.596	128.981	0.337	-0.561
-217.582	113.532	0.133	-0.211
-216.567	394.507	-0.074	-0.200
-215.552	-42.807	-0.159	-0.105
-214.538	-200.000	-0.069	-0.741
-213.523	-70.354	-0.119	-0.059
-212.509	684.572	0.087	-0.299
-211.494	-200.000	-0.027	0.565
-210.479	144.406	-0.151	0.263
-209.465	-144.601	-0.515	0.061
-208.450	-146.688	0.378	-0.042
-207.436	-80.287	-0.324	0.140
-206.421	-112.563	-0.451	-0.116
-205.406	-165.171	-0.815	0.046
-204.392	7.242	-0.134	0.130
-203.377	512.464	-0.101	0.308
-202.363	-110.574	-0.306	0.082
-201.348	11.623	-0.373	-0.372
-200.333	-53.737	0.601	0.356
-199.319	-158.301	-0.195	0.015
-198.304	791.033	-0.051	0.183
-197.290	145.121	0.436	0.761
-196.275	153.902	-0.208	0.372
-195.260	103.704	0.193	-0.295
-194.246	-111.119	0.617	0.163
-193.231	-59.104	-0.307	-0.172
-192.217	-103.731	0.155	0.047
-191.202	35.902	0.146	0.167
-190.187	-82.275	0.266	0.112
-189.173	-38.371	0.229	0.157
-188.158	333.272	0.079	0.199
-187.144	-124.079	0.162	-0.033
-186.129	132.237	0.035	0.059
-185.114	79.346	0.255	0.356
-184.100	-50.099	0.360	0.221
-183.085	-133.135	-0.235	-0.038
-182.071	153.980	0.118	-0.211
-181.056	-27.052	0.225	-0.170
-180.042	-127.696	-0.481	-0.090
-179.027	-70.753	0.343	0.168
-178.012	800.000	0.076	-0.341
-176.998	576.491	0.078	0.248
-175.983	107.811	0.100	-0.155
-174.969	234.191	0.115	-0.247
-173.954	-40.979	-0.339	0.227
-172.939	-149.523	0.290	-0.029
-171.925	209.661	-0.048	-0.098
-170.910	-73.686	0.145	-0.068
-169.896	86.409	-0.153	-0.219
-168.881	-107.234	-0.545	-0.155
-167.866	109.415	0.103	0.160
-166.852	-76.600	-0.075	0.034
-165.837	-60.338	-0.666	-0.367
-164.823	-71.259	0.205	0.100
-163.808	49.418	-0.150	-0.184
-162.793	662.281	-0.075	-0.252
-161.779	-67.784	-0.273	-0.138
-160.764	7.031	0.060	-0.058
-159.750	-99.681	-0.368	-0.119
-158.735	31.692	-0.442	0.493
-157.720	229.189	0.240	-0.509
-156.706	-132.742	0.401	-0.066
-155.691	-104.146	0.095	-0.029
-154.677	800.000	0.049	0.212
-153.662	62.461	-0.102	0.132
-152.647	27.001	-0.089	0.096
-151.633	94.771	-0.208	-0.307
-150.618	58.311	-0.383	0.488
-149.604	73.915	0.301	0.411
-148.589	762.673	-0.064	-0.229
-147.574	119.502	-0.091	0.146
-146.560	-106.439	0.295	0.085
-145.545	88.115	-0.012	0.017
-144.531	324.775	-0.139	0.346
-143.516	-173.418	0.638	0.025
-142.502	-124.582	-0.306	-0.061
-141.487	-92.533	-0.695	-0.252
-140.472	-28.130	-0.262	-0.196
-139.458	-86.863	0.095	0.037
-138.443	186.610	-0.240	-0.464
-137.429	84.706	0.182	-0.259
-136.414	800.000	0.067	-0.300
-135.399	6.125	0.305	-0.293
-134.385	-200.000	0.039	0.601
-133.370	-109.291	-0.484	0.132
-132.356	800.000	0.035	-0.155
-131.341	-67.098	-0.214	0.109
-130.326	-112.076	0.253	0.065
-129.312	-21.496	0.274	-0.217
-128.297	-200.000	0.002	-0.340
-127.283	80.720	-0.364	-0.509
-126.268	-195.727	-0.355	-0.003
-125.253	-1.274	-0.359	-0.329
-124.239	-100.793	0.050	-0.016
-123.224	-145.220	-0.326	-0.038
-122.210	-29.021	-0.380	0.282
-121.195	-80.620	0.206	-0.089
