DTS Sentinel unit serial number:	SN409020Multiplexer serial number:	ORYXHardware model number:	OX4-SRSoftware version number:	ORYX F/W v3.00 Oryx Data Collector v3.7.2.0data status	okinstallation	HaddamTimeLapsedifferential loss correction	single-endedforward channel	channel 3reverse channel	N/Adate	2011/06/21time	13:26:44forward acquisition time	30.00reverse acquisition time	0.00gamma	498.7831k internal	0.1798k external	0.1798temperature offset calibration	1.2081default loss term (dB/km)	0.3790temperature slope calibration	1.3581multiplexer offset coefficient	1.0000multiplexer slope coefficient	1.0000fibre end	0.00T internal ref (°C)	33.09T ext. ref 1 (°C)	29.91T ext. ref 2 (°C)	0.24length (m)	temperature (°C)	Stokes	anti-Stokes-747.200	-40.936	-0.140	0.093
-746.185	7.357	0.351	0.339
-745.171	-200.000	-0.008	0.180
-744.156	800.000	-0.111	0.428
-743.142	-36.639	-0.294	0.204
-742.127	-52.064	-0.187	-0.112
-741.112	-200.000	0.019	-0.682
-740.098	-200.000	0.076	0.464
-739.083	174.929	-0.254	0.477
-738.069	800.000	0.036	0.171
-737.054	385.110	-0.012	0.033
-736.039	800.000	0.050	0.267
-735.025	800.000	0.080	0.336
-734.010	69.733	-0.259	0.346
-732.996	-180.606	-0.288	-0.008
-731.981	14.630	0.164	0.165
-730.966	-81.505	-0.086	0.036
-729.952	107.056	0.113	-0.174
-728.937	73.685	0.115	-0.156
-727.923	101.707	0.126	0.191
-726.908	800.000	0.069	0.371
-725.894	457.085	0.144	0.416
-724.879	33.348	-0.479	0.538
-723.864	-87.433	0.307	-0.120
-722.850	800.000	0.079	-0.297
-721.835	-164.062	-0.525	-0.031
-720.821	800.000	-0.040	-0.197
-719.806	-87.317	0.768	0.300
-718.791	800.000	-0.089	0.441
-717.777	-152.257	0.135	0.012
-716.762	-77.080	0.278	0.125
-715.748	-200.000	0.023	0.186
-714.733	-111.167	0.432	-0.113
-713.718	-62.324	0.268	0.144
-712.704	-200.000	-0.043	-0.450
-711.689	-85.445	-0.549	-0.220
-710.675	-57.072	0.114	0.065
-709.660	-50.430	0.206	0.125
-708.645	-200.000	-0.019	0.640
-707.631	-200.000	0.018	0.412
-706.616	-89.456	-0.194	0.073
-705.602	-200.000	-0.062	0.373
-704.587	-142.627	-0.308	-0.038
-703.572	123.486	0.287	0.466
-702.558	-89.909	0.114	0.043
-701.543	112.831	-0.216	0.339
-700.529	765.879	-0.119	-0.421
-699.514	2.840	-0.186	0.174
-698.499	-170.277	0.127	-0.006
-697.485	276.424	-0.143	-0.329
-696.470	-76.434	-0.190	0.086
-695.456	-129.383	-0.442	0.079
-694.441	32.820	-0.192	0.214
-693.426	-178.282	0.332	0.010
-692.412	-135.466	-0.469	0.072
-691.397	230.917	0.098	-0.209
-690.383	-200.000	-0.010	0.118
-689.368	7.190	-0.104	0.100
-688.354	0.731	0.141	-0.130
-687.339	673.695	-0.109	0.366
-686.324	-200.000	0.038	-0.234
-685.310	476.587	0.252	-0.741
-684.295	703.713	0.160	-0.549
-683.281	-107.025	-0.114	0.032
-682.266	31.763	-0.490	-0.544
-681.251	124.181	0.248	-0.404
-680.237	-29.483	0.494	-0.364
-679.222	-91.531	0.272	-0.100
-678.208	60.083	0.216	-0.276
-677.193	800.000	-0.044	0.217
-676.178	-200.000	0.077	-0.515
-675.164	-70.185	-0.353	0.173
-674.149	130.416	-0.079	0.131
-673.135	-49.893	0.172	0.105
-672.120	128.796	0.281	0.463
-671.105	484.256	-0.107	0.317
-670.091	-200.000	0.051	0.422
-669.076	-200.000	0.029	0.490
-668.062	-200.000	0.007	0.142
-667.047	-200.000	0.002	0.274
-666.032	227.778	0.116	0.244
-665.018	-8.415	-0.246	0.213
-664.003	-200.000	-0.221	0.001
-662.989	-45.160	0.055	-0.035
-661.974	317.078	0.092	0.225
-660.959	144.160	-0.244	-0.421
-659.945	-5.997	0.302	-0.266
-658.930	-22.994	0.196	0.152
-657.916	75.917	0.202	0.275
-656.901	68.131	0.319	-0.422
-655.886	760.312	0.031	0.108
-654.872	-88.653	-0.252	0.096
-653.857	263.812	0.079	0.177
-652.843	800.000	-0.079	0.403
-651.828	800.000	-0.064	-0.359
-650.814	-74.944	0.048	-0.022
-649.799	27.318	-0.221	-0.239
-648.784	126.089	-0.083	-0.135
-647.770	-126.736	-0.368	-0.069
-646.755	-47.491	-0.438	0.274
-645.741	61.496	-0.138	-0.176
-644.726	-105.793	0.155	0.045
-643.711	800.000	0.120	-0.542
-642.697	-147.572	0.486	0.052
-641.682	-30.948	-0.307	-0.223
-640.668	40.510	-0.045	-0.052
-639.653	50.666	-0.200	-0.244
-638.638	-1.289	-0.348	-0.317
-637.624	-11.664	-0.171	-0.145
-636.609	800.000	0.053	0.214
-635.595	-12.370	0.296	0.249
-634.580	327.956	0.123	-0.306
-633.565	800.000	-0.043	0.180
-632.551	800.000	-0.081	0.332
-631.536	800.000	0.062	-0.237
-630.522	-200.000	-0.011	0.423
-629.507	546.750	-0.081	-0.251
-628.492	-75.541	0.063	-0.029
-627.478	-171.604	0.250	0.010
-626.463	-200.000	0.045	0.472
-625.449	-200.000	0.007	-0.205
-624.434	-53.128	0.121	0.071
-623.419	-73.440	0.265	0.124
-622.405	-143.017	-0.167	0.021
-621.390	-180.681	0.487	0.013
-620.376	-200.000	-0.014	-0.469
-619.361	36.452	0.356	-0.405
-618.346	-123.733	0.103	0.021
-617.332	-172.785	-0.198	-0.008
-616.317	-128.448	-0.405	-0.073
-615.303	14.583	0.339	-0.340
-614.288	98.742	-0.094	0.140
-613.273	55.863	-0.197	0.246
-612.259	108.129	0.139	-0.214
-611.244	800.000	-0.044	0.227
-610.230	-81.242	-0.142	-0.060
-609.215	-49.714	-0.087	0.053
-608.201	449.047	0.016	0.046
-607.186	-98.405	0.120	0.039
-606.171	154.954	0.147	0.261
-605.157	338.078	-0.048	0.120
-604.142	108.850	-0.170	-0.262
-603.128	-200.000	0.002	-0.405
-602.113	598.605	0.097	0.312
-601.098	800.000	-0.053	-0.289
-600.084	-157.466	-0.451	0.034
-599.069	-141.517	0.411	-0.053
-598.055	-50.709	-0.090	0.054
-597.040	-129.416	-0.258	-0.046
-596.025	-200.000	0.006	0.203
-595.011	23.454	-0.141	-0.149
-593.996	-74.290	-0.371	0.172
-592.982	-100.479	-0.594	0.188
-591.967	-69.073	0.329	0.162
-590.952	482.512	-0.076	0.223
-589.938	-200.000	0.037	0.267
-588.923	-86.463	-0.399	0.157
-587.909	-200.000	-0.001	0.161
-586.894	-200.000	0.046	-0.338
-585.879	-95.407	-0.110	0.038
-584.865	-133.306	0.193	0.031
-583.850	420.086	0.084	-0.232
-582.836	-167.216	-0.500	-0.026
-581.821	-78.959	0.246	-0.107
-580.806	133.424	-0.066	-0.111
-579.792	57.836	0.074	0.093
-578.777	-111.155	-0.213	0.056
-577.763	-89.720	-0.412	-0.154
-576.748	-116.966	-0.346	0.081
-575.733	-46.136	-0.038	-0.024
-574.719	547.766	0.240	-0.741
-573.704	-9.952	0.377	-0.322
-572.690	351.671	-0.077	-0.196
-571.675	185.256	0.315	-0.602
-570.661	108.581	0.123	0.189
-569.646	-92.568	0.737	-0.264
-568.631	-26.755	-0.203	0.153
-567.617	310.807	-0.159	-0.383
-566.602	-41.796	-0.071	0.047
-565.588	17.433	0.056	0.057
-564.573	232.809	-0.160	0.339
-563.558	93.928	0.090	0.132
-562.544	-120.688	0.357	-0.077
-561.529	-200.000	0.021	-0.370
-560.515	800.000	0.029	0.151
-559.500	-7.650	-0.122	-0.106
-558.485	163.051	0.118	-0.213
-557.471	127.376	-0.063	0.103
-556.456	-151.488	0.559	0.053
-555.442	-29.869	0.470	-0.343
-554.427	427.614	0.219	-0.611
-553.412	-200.000	0.024	0.172
-552.398	36.541	-0.116	-0.132
-551.383	-161.497	-0.509	-0.033
-550.369	54.099	-0.189	-0.234
-549.354	125.117	0.177	-0.287
-548.339	-200.000	-0.080	0.666
-547.325	-200.000	0.031	0.210
-546.310	8.480	0.102	-0.099
-545.296	422.823	-0.047	-0.130
-544.281	-9.850	-0.117	-0.100
-543.266	-116.605	0.280	0.066
-542.252	-16.091	-0.398	0.324
-541.237	457.781	-0.013	0.038
-540.223	800.000	0.043	-0.228
-539.208	14.354	0.070	-0.070
-538.193	436.519	-0.132	0.370
-537.179	-36.632	0.125	0.086
-536.164	-79.737	-0.549	0.236
-535.150	-138.782	-0.190	-0.026
-534.135	-41.662	-0.190	-0.125
-533.121	127.117	0.139	0.226
-532.106	196.221	0.246	-0.482
-531.091	-54.792	-0.186	-0.107
-530.077	-66.854	0.172	-0.087
-529.062	-105.091	0.106	0.031
-528.048	61.854	-0.583	0.746
-527.033	113.956	-0.346	0.541
-526.018	264.061	-0.062	-0.139
-525.004	800.000	-0.010	0.058
-523.989	102.249	0.302	0.454
-522.975	-43.894	-0.200	0.129
-521.960	-155.818	0.131	0.011
-520.945	-140.501	-0.128	0.017
-519.931	-69.285	-0.018	-0.009
-518.916	297.279	0.143	-0.338
-517.902	-200.000	-0.059	-0.344
-516.887	-99.636	0.499	-0.160
-515.872	-63.560	0.174	0.091
-514.858	-32.872	0.187	0.133
-513.843	100.535	-0.070	-0.105
-512.829	-51.433	-0.163	0.097
-511.814	-30.295	0.664	0.483
-510.799	66.049	-0.164	0.214
-509.785	4.769	-0.250	-0.235
-508.770	-80.786	-0.323	-0.137
-507.756	447.960	0.186	0.528
-506.741	-78.201	0.373	0.164
-505.726	800.000	-0.054	0.217
-504.712	-67.029	-0.350	-0.176
-503.697	-77.321	0.329	0.146
-502.683	-147.549	0.352	-0.038
-501.668	-186.823	-0.569	-0.010
-500.653	-111.787	-0.467	-0.120
-499.639	-70.706	-0.368	0.177
-498.624	-87.632	-0.396	0.152
-497.610	373.651	-0.092	-0.242
-496.595	77.762	-0.160	-0.218
-495.581	135.540	0.073	-0.122
-494.566	-110.152	-0.332	0.088
-493.551	4.178	-0.236	0.221
-492.537	-17.411	-0.058	-0.046
-491.522	-200.000	-0.001	0.050
-490.508	33.655	-0.290	0.323
-489.493	-200.000	0.012	-0.404
-488.478	17.142	0.222	0.225
-487.464	-10.691	-0.194	-0.164
-486.449	800.000	0.114	0.493
-485.435	42.073	0.395	0.459
-484.420	-97.385	0.216	0.071
-483.405	-200.000	0.097	0.611
-482.391	-141.130	-0.201	-0.026
-481.376	800.000	-0.074	-0.343
-480.362	-21.488	0.238	0.186
-479.347	192.031	-0.137	-0.266
-478.332	288.139	0.110	0.257
-477.318	-60.666	0.098	-0.053
-476.303	-200.000	-0.060	0.544
-475.289	-2.779	-0.303	0.271
-474.274	-76.241	-0.089	0.040
-473.259	-41.020	-0.201	0.133
-472.245	-131.416	-0.487	0.082
-471.230	-200.000	-0.050	-0.297
-470.216	-87.025	0.207	0.080
-469.201	-40.886	0.314	0.207
-468.186	-195.291	0.314	0.003
-467.172	140.195	-0.248	0.419
-466.157	-132.541	-0.198	-0.032
-465.143	248.376	0.112	-0.243
-464.128	800.000	0.046	-0.165
-463.113	254.722	-0.133	-0.293
-462.099	-200.000	0.012	-0.217
-461.084	800.000	0.126	-0.519
-460.070	-85.014	0.446	0.178
-459.055	128.382	-0.209	-0.341
-458.040	800.000	0.095	-0.461
-457.026	2.476	0.595	-0.551
-456.011	22.425	0.374	-0.391
-454.997	99.346	0.109	0.161
-453.982	-65.255	0.158	-0.081
-452.968	800.000	0.094	0.354
-451.953	-116.472	0.357	-0.084
-450.938	89.777	0.130	-0.185
-449.924	-200.000	0.038	-0.305
-448.909	134.116	0.213	-0.355
-447.895	-113.898	0.378	-0.093
-446.880	238.390	-0.197	-0.419
-445.865	99.531	0.140	0.207
-444.851	-200.000	-0.011	0.244
-443.836	-200.000	0.035	-0.403
-442.822	800.000	-0.036	0.137
-441.807	-147.880	-0.619	-0.065
-440.792	-200.000	-0.003	0.222
-439.778	-116.989	-0.240	-0.056
-438.763	-46.301	0.392	-0.246
-437.749	-64.350	-0.284	-0.147
-436.734	-200.000	-0.005	0.051
-435.719	-45.268	0.182	-0.115
-434.705	146.855	0.160	-0.276
-433.690	800.000	0.118	0.532
-432.676	-118.205	0.373	0.084
-431.661	-200.000	0.012	-0.163
-430.646	216.095	0.320	0.652
-429.632	-200.000	0.034	-0.336
-428.617	-69.647	-0.195	-0.095
-427.603	-86.272	-0.498	0.195
-426.588	16.470	-0.172	-0.173
-425.573	457.988	-0.049	-0.140
-424.559	-12.185	-0.396	0.331
-423.544	-108.879	-0.190	-0.052
-422.530	-200.000	-0.053	0.327
-421.515	23.562	0.113	-0.119
-420.500	-75.601	-0.296	0.134
-419.486	-133.203	-0.464	0.074
-418.471	-146.120	0.196	-0.022
-417.457	800.000	0.026	-0.136
-416.442	-76.988	-0.272	0.121
-415.428	800.000	0.036	0.134
-414.413	-77.136	0.097	-0.043
-413.398	6.337	-0.091	-0.086
-412.384	-57.806	0.264	-0.147
-411.369	-96.160	-0.328	0.111
-410.355	-54.833	0.239	0.138
-409.340	-35.608	0.278	-0.192
-408.325	58.319	0.202	0.253
-407.311	-59.407	-0.152	-0.083
-406.296	420.288	-0.155	-0.427
-405.282	-200.000	-0.138	-0.000
-404.267	-77.240	0.147	0.065
-403.252	-131.581	-0.032	0.005
-402.238	-88.374	0.143	0.054
-401.223	430.551	-0.077	-0.214
-400.209	-65.941	-0.081	-0.041
-399.194	-66.034	-0.295	-0.150
-398.179	-111.484	-0.228	0.059
-397.165	-200.000	0.035	-0.434
-396.150	461.739	-0.184	0.526
-395.136	109.174	0.156	0.238
-394.121	109.633	0.147	-0.226
-393.106	-139.531	0.271	0.037
-392.092	47.538	0.134	-0.160
-391.077	-40.001	-0.306	0.203
-390.063	0.142	0.260	0.236
-389.048	-162.721	-0.473	0.029
-388.033	-79.779	-0.787	0.336
-387.019	347.473	-0.198	0.501
-386.004	47.838	0.220	0.262
-384.990	157.262	-0.087	-0.155
-383.975	407.200	0.162	0.439
-382.960	87.909	-0.116	-0.165
-381.946	-200.000	-0.065	0.447
-380.931	-45.864	-0.178	0.112
-379.917	-122.960	-0.125	-0.025
-378.902	706.371	-0.183	-0.618
-377.888	237.479	-0.211	-0.447
-376.873	-19.705	-0.511	-0.403
-375.858	-153.093	0.237	-0.021
-374.844	1.086	0.125	0.114
-373.829	-200.000	0.029	0.296
-372.815	609.282	0.103	0.329
-371.800	168.545	0.066	0.120
-370.785	-74.111	0.110	-0.050
-369.771	-166.502	-0.369	-0.019
-368.756	-4.543	0.078	0.069
-367.742	-129.376	-0.291	-0.051
-366.727	351.909	-0.117	-0.298
-365.712	-2.194	0.386	0.345
-364.698	-200.000	0.003	0.107
-363.683	-88.369	0.337	-0.128
-362.669	-103.687	0.715	0.212
-361.654	-164.289	0.164	-0.009
-360.639	-14.317	-0.355	0.291
-359.625	111.190	0.131	-0.201
-358.610	-53.679	0.473	-0.274
-357.596	-157.966	0.214	0.016
-356.581	-200.000	0.033	-0.564
-355.566	-200.000	0.083	-0.545
-354.552	800.000	-0.075	-0.329
-353.537	-58.790	-0.768	0.422
-352.523	224.362	-0.133	0.274
-351.508	-15.596	-0.191	-0.155
-350.493	6.937	-0.100	-0.095
-349.479	-117.600	0.225	0.051
-348.464	-51.898	-0.316	-0.186
-347.450	-106.329	-0.352	-0.100
-346.435	-1.986	0.129	-0.116
-345.420	-23.247	0.424	0.325
-344.406	-114.713	0.072	0.017
-343.391	-187.525	-0.313	-0.005
-342.377	95.042	-0.120	-0.174
-341.362	-200.000	-0.064	0.000
-340.348	-136.921	0.584	-0.085
-339.333	-36.318	0.315	0.216
-338.318	-41.901	0.103	-0.067
-337.304	215.033	0.061	0.123
-336.289	-37.028	-0.236	0.161
-335.275	39.889	0.200	0.229
-334.260	357.988	0.109	0.278
-333.245	-51.834	0.085	0.050
-332.231	-68.667	-0.130	0.064
-331.216	-94.199	-0.252	-0.087
-330.202	743.598	-0.172	-0.591
-329.187	-157.459	-0.791	0.060
-328.172	800.000	0.080	-0.350
-327.158	-93.901	0.159	-0.055
-326.143	-13.422	-0.516	-0.425
-325.129	-116.680	0.493	0.115
-324.114	32.850	0.295	0.325
-323.099	-67.798	0.155	0.077
-322.085	300.709	-0.032	-0.075
-321.070	-158.815	-0.279	0.020
-320.056	800.000	0.117	0.416
-319.041	-50.680	-0.258	-0.154
-318.026	378.330	-0.112	0.293
-317.012	-53.467	-0.398	0.231
-315.997	-69.149	-0.358	0.175
-314.983	800.000	-0.055	-0.220
-313.968	24.556	-0.227	0.239
-312.953	-51.643	-0.273	0.162
-311.939	632.361	0.141	-0.457
-310.924	655.520	0.091	0.300
-309.910	354.876	0.073	-0.185
-308.895	-78.878	-0.067	0.029
-307.880	-200.000	-0.020	-0.308
-306.866	-73.086	-0.098	-0.045
-305.851	52.534	-0.320	-0.389
-304.837	-11.913	-0.133	-0.110
-303.822	-100.770	-0.126	-0.039
-302.807	-200.000	-0.010	-0.095
-301.793	131.204	0.275	0.450
-300.778	800.000	-0.070	-0.310
-299.764	-200.000	-0.013	-0.129
-298.749	151.248	-0.154	-0.267
-297.735	-75.164	0.544	0.246
-296.720	69.655	0.367	-0.482
-295.705	-138.495	0.214	0.030
-294.691	65.124	0.243	0.313
-293.676	-20.032	-0.342	0.268
-292.662	-154.183	0.397	0.034
-291.647	50.445	0.254	0.306
-290.632	800.000	-0.054	0.301
-289.618	-90.104	0.314	-0.116
-288.603	-200.000	-0.035	0.217
-287.589	-105.830	0.319	-0.091
-286.574	94.993	-0.155	-0.225
-285.559	147.870	0.284	-0.488
-284.545	-96.431	-0.411	-0.137
-283.530	37.368	-0.200	0.225
-282.516	-133.818	0.549	-0.086
-281.501	-47.548	0.565	0.347
-280.486	-200.000	-0.051	0.387
-279.472	-142.534	0.256	0.032
-278.457	378.860	0.188	-0.491
-277.443	-114.781	0.094	-0.023
-276.428	131.627	0.211	0.345
-275.413	151.076	0.210	-0.364
-274.399	83.892	-0.110	0.153
-273.384	-147.080	0.412	0.044
-272.370	232.036	-0.064	-0.133
-271.355	-200.000	0.065	-0.387
-270.340	424.183	-0.134	-0.367
-269.326	-31.701	0.328	-0.234
-268.311	-115.550	-0.208	-0.049
-267.297	-52.368	0.668	0.391
-266.282	-113.751	-0.197	0.048
-265.267	559.389	0.034	0.106
-264.253	-75.225	0.348	0.157
-263.238	-45.425	-0.328	-0.206
-262.224	-200.000	-0.011	-0.129
-261.209	-84.148	0.413	-0.166
-260.195	-93.316	0.319	-0.112
-259.180	-200.000	-0.473	-0.000
-258.165	490.787	-0.178	0.519
-257.151	-66.568	0.388	0.194
-256.136	148.152	0.237	0.406
-255.122	-49.245	0.380	0.230
-254.107	-200.000	-0.000	0.076
-253.092	37.398	-0.108	0.122
-252.078	269.266	-0.190	0.424
-251.063	-200.000	0.070	0.426
-250.049	-66.065	-0.037	-0.019
-249.034	-110.636	-0.460	0.120
-248.019	-126.062	0.315	0.060
-247.005	194.736	-0.192	-0.371
-245.990	-146.434	-0.136	-0.015
-244.976	219.721	-0.098	-0.200
-243.961	47.390	0.269	-0.318
-242.946	483.253	-0.116	0.337
-241.932	157.610	0.127	0.224
-240.917	-51.162	-0.501	-0.297
-239.903	117.876	-0.124	-0.194
-238.888	265.084	0.047	0.105
-237.873	-7.970	-0.469	-0.400
-236.859	126.457	0.300	0.483
-235.844	-34.091	0.064	-0.044
-234.830	51.600	0.154	0.186
-233.815	65.913	-0.238	-0.306
-232.800	-134.469	0.215	0.033
-231.786	-61.644	-0.123	0.065
-230.771	-153.095	0.161	0.014
-229.757	-128.173	-0.363	-0.065
-228.742	-81.697	0.270	0.112
-227.727	-71.117	0.498	-0.236
-226.713	189.003	-0.042	0.080
-225.698	-127.843	0.514	-0.093
-224.684	-70.027	-0.256	0.123
-223.669	-80.429	-0.305	-0.128
-222.655	393.673	-0.185	0.490
-221.640	-95.553	-0.298	0.101
-220.625	138.594	0.177	0.296
-219.611	-16.529	-0.343	0.275
-218.596	-11.634	-0.352	-0.293
-217.582	252.905	0.236	-0.511
-216.567	-2.337	-0.118	-0.104
-215.552	203.682	-0.085	-0.167
-214.538	-200.000	0.045	-0.325
-213.523	42.435	0.079	-0.091
-212.509	-44.285	-0.564	0.357
-211.494	-124.534	-0.525	-0.103
-210.479	353.832	-0.104	0.263
-209.465	-165.915	0.581	-0.031
-208.450	-200.000	-0.001	-0.158
-207.436	-62.991	0.114	0.059
-206.421	62.197	-0.048	-0.061
-205.406	-67.716	0.202	-0.100
-204.392	800.000	0.067	0.331
-203.377	-6.811	-0.173	0.149
-202.363	-200.000	0.046	0.333
-201.348	800.000	0.072	-0.257
-200.333	800.000	-0.018	-0.072
-199.319	154.169	-0.098	0.170
-198.304	-79.981	0.377	-0.160
-197.290	17.378	-0.102	0.103
-196.275	-81.909	0.119	0.049
-195.260	-141.562	-0.259	0.033
-194.246	-22.122	0.391	0.300
-193.231	546.241	0.095	-0.289
-192.217	-62.562	0.284	-0.149
-191.202	-92.486	-0.086	0.031
-190.187	-66.023	-0.448	-0.225
-189.173	-106.798	0.240	-0.067
-188.158	-32.662	-0.060	-0.043
-187.144	-159.093	0.634	0.045
-186.129	-112.039	0.474	0.120
-185.114	-200.000	-0.002	-0.180
-184.100	800.000	-0.037	0.190
-183.085	-200.000	0.003	-0.018
-182.071	-69.555	0.098	-0.047
-181.056	-137.274	0.634	0.090
-180.042	-53.636	0.195	-0.113
-179.027	-20.638	-0.287	0.223
-178.012	409.131	-0.196	-0.528
-176.998	800.000	-0.078	0.349
-175.983	611.021	0.158	0.503
-174.969	57.678	0.049	0.060
-173.954	-101.597	-0.196	-0.060
-172.939	-148.777	0.417	-0.042
-171.925	-91.205	-0.285	-0.103
-170.910	-200.000	0.033	0.415
-169.896	-200.000	-0.009	0.068
-168.881	501.678	-0.070	0.206
-167.866	177.241	-0.282	-0.520
-166.852	-46.921	-0.334	-0.206
-165.837	79.333	-0.122	0.166
-164.823	800.000	0.114	0.491
-163.808	-122.479	-0.269	0.055
-162.793	-84.402	0.633	-0.252
-161.779	144.361	0.225	0.382
-160.764	169.440	0.300	-0.543
-159.750	-51.219	-0.114	-0.067
-158.735	-24.767	0.060	-0.045
-157.720	-70.806	-0.527	0.250
-156.706	-146.939	0.452	0.048
-155.691	-87.149	0.288	0.110
-154.677	-31.337	-0.280	-0.199
-153.662	146.880	0.172	-0.293
-152.647	-200.000	-0.011	0.353
-151.633	72.249	-0.129	0.170
-150.618	213.166	0.226	0.453
-149.604	16.101	0.291	0.290
-148.589	403.877	-0.138	0.369
-147.574	-91.939	-0.068	-0.024
-146.560	-200.000	-0.008	-0.090
-145.545	-159.570	-0.154	0.011
-144.531	-200.000	-0.034	0.266
-143.516	-15.744	0.188	-0.151
-142.502	-200.000	0.037	0.371
-141.487	-164.632	0.254	0.014
-140.472	800.000	0.058	0.204
-139.458	-200.000	-0.021	0.350
-138.443	-20.233	0.104	-0.081
-137.429	-41.221	0.431	0.280
-136.414	80.694	-0.182	0.248
-135.399	-200.000	0.013	-0.206
-134.385	-134.085	-0.247	0.038
-133.370	-101.883	0.280	0.085
-132.356	-120.992	0.255	0.054
-131.341	-143.507	0.074	0.009
-130.326	-38.668	0.211	-0.140
-129.312	-62.225	0.323	-0.170
-128.297	441.496	0.121	0.336
-127.283	-106.493	-0.300	-0.084
-126.268	-200.000	-0.024	-0.297
-125.253	800.000	0.023	-0.103
-124.239	93.305	0.179	0.256
-123.224	278.630	-0.138	0.311
-122.210	-54.159	-0.218	0.125
-121.195	-159.895	-0.253	0.017
