DTS Sentinel unit serial number:	SN409020Multiplexer serial number:	ORYXHardware model number:	OX4-SRSoftware version number:	ORYX F/W v3.00 Oryx Data Collector v3.7.2.0data status	okinstallation	HaddamTimeLapsedifferential loss correction	single-endedforward channel	channel 3reverse channel	N/Adate	2011/06/22time	08:36:17forward acquisition time	30.00reverse acquisition time	0.00gamma	498.7831k internal	0.1785k external	0.1785temperature offset calibration	1.0074default loss term (dB/km)	0.3790temperature slope calibration	1.3530multiplexer offset coefficient	1.0000multiplexer slope coefficient	1.0000fibre end	0.00T internal ref (°C)	26.22T ext. ref 1 (°C)	23.87T ext. ref 2 (°C)	0.17length (m)	temperature (°C)	Stokes	anti-Stokes-747.200	-200.000	0.011	-0.195
-746.185	412.284	-0.048	0.133
-745.171	240.660	-0.058	-0.127
-744.156	-129.277	0.465	0.084
-743.142	-109.057	-0.335	-0.092
-742.127	-200.000	0.041	0.678
-741.112	800.000	0.061	0.296
-740.098	-200.000	0.008	0.584
-739.083	-60.734	0.492	0.271
-738.069	800.000	0.059	0.215
-737.054	-3.768	-0.173	-0.157
-736.039	111.936	0.278	-0.438
-735.025	-76.183	-0.576	-0.263
-734.010	223.291	0.134	0.283
-732.996	463.663	0.121	0.353
-731.981	-4.773	-0.259	-0.233
-730.966	-200.000	0.007	-0.307
-729.952	135.994	-0.151	-0.258
-728.937	77.546	0.163	0.227
-727.923	126.713	-0.264	0.436
-726.908	56.575	-0.332	-0.421
-725.894	-88.993	-0.291	0.112
-724.879	800.000	-0.055	-0.283
-723.864	800.000	-0.096	0.455
-722.850	37.950	-0.097	0.112
-721.835	-45.738	0.152	0.098
-720.821	-61.065	0.111	-0.061
-719.806	-43.935	0.288	0.188
-718.791	-19.420	-0.383	-0.308
-717.777	-200.000	0.028	0.490
-716.762	-52.561	0.295	-0.177
-715.748	800.000	0.061	0.283
-714.733	800.000	0.064	0.316
-713.718	17.628	0.167	-0.173
-712.704	-200.000	0.065	0.541
-711.689	800.000	-0.047	0.233
-710.675	-69.432	-0.136	-0.068
-709.660	-200.000	0.021	0.134
-708.645	-21.084	-0.362	0.288
-707.631	-25.528	0.300	0.230
-706.616	-200.000	-0.024	-0.437
-705.602	-119.514	-0.046	0.010
-704.587	-48.186	-0.431	-0.270
-703.572	-200.000	-0.449	0.001
-702.558	800.000	-0.097	0.396
-701.543	272.757	-0.111	-0.256
-700.529	105.023	-0.086	-0.132
-699.514	800.000	-0.059	-0.311
-698.499	-69.826	-0.308	0.152
-697.485	-24.020	0.203	-0.158
-696.470	-89.592	0.198	-0.075
-695.456	-161.602	0.707	-0.046
-694.441	-200.000	-0.178	0.000
-693.426	-200.000	0.027	0.235
-692.412	9.376	-0.211	-0.208
-691.397	-74.278	-0.488	-0.228
-690.383	-11.603	-0.344	0.294
-689.368	-19.221	-0.405	0.327
-688.354	-168.558	0.448	0.022
-687.339	489.346	0.073	0.218
-686.324	-97.603	0.529	-0.177
-685.310	96.949	-0.337	-0.503
-684.295	-68.385	0.070	-0.035
-683.281	-52.047	-0.117	-0.071
-682.266	172.604	0.151	-0.284
-681.251	-200.000	-0.004	-0.373
-680.237	70.112	0.139	-0.187
-679.222	-128.094	0.271	-0.050
-678.208	-159.415	-0.388	-0.028
-677.193	391.371	0.008	-0.021
-676.178	-62.161	-0.100	0.054
-675.164	-67.272	-0.030	-0.015
-674.149	800.000	-0.267	-1.002
-673.135	-137.119	0.142	-0.021
-672.120	-122.625	-0.311	-0.065
-671.105	-1.613	-0.148	-0.136
-670.091	538.625	-0.165	0.513
-669.076	-87.092	-0.207	0.082
-668.062	14.377	-0.148	-0.150
-667.047	87.294	0.178	0.256
-666.032	-186.288	0.390	0.007
-665.018	-12.367	0.268	0.227
-664.003	-200.000	-0.016	0.470
-662.989	-200.000	0.025	-0.459
-661.974	-43.211	0.065	-0.042
-660.959	-200.000	-0.010	-0.213
-659.945	-138.087	-0.126	-0.018
-658.930	-99.607	-0.252	0.082
-657.916	148.793	-0.264	0.465
-656.901	-10.599	0.202	-0.174
-655.886	-99.411	-0.173	0.056
-654.872	-120.205	-0.343	-0.076
-653.857	-174.900	0.228	0.008
-652.843	-83.632	-0.258	-0.106
-651.828	-200.000	-0.039	0.495
-650.814	-140.630	0.366	0.049
-649.799	-122.583	0.065	-0.014
-648.784	220.476	0.063	0.132
-647.770	722.093	0.072	-0.250
-646.755	759.370	-0.075	-0.264
-645.741	-200.000	-0.049	-0.418
-644.726	-200.000	0.011	0.359
-643.711	111.472	-0.012	-0.019
-642.697	-55.574	0.235	0.136
-641.682	-200.000	0.021	-0.261
-640.668	210.873	0.162	0.332
-639.653	-122.257	-0.389	-0.082
-638.638	663.084	-0.118	0.397
-637.624	-200.000	-0.004	0.121
-636.609	-0.259	0.382	-0.352
-635.595	-12.050	-0.240	-0.204
-634.580	-117.536	-0.286	0.066
-633.565	800.000	0.100	0.372
-632.551	-127.115	-0.193	-0.036
-631.536	-18.353	-0.286	0.231
-630.522	18.630	-0.068	0.071
-629.507	-30.915	0.217	0.159
-628.492	-13.158	-0.627	0.528
-627.478	800.000	-0.037	-0.190
-626.463	44.041	0.150	0.178
-625.449	625.758	0.125	0.410
-624.434	-91.525	0.529	0.195
-623.419	800.000	0.026	-0.096
-622.405	114.299	-0.090	0.143
-621.390	-45.942	0.343	-0.219
-620.376	800.000	-0.075	0.372
-619.361	-57.829	0.165	0.093
-618.346	800.000	0.112	-0.482
-617.332	40.967	-0.101	0.118
-616.317	282.134	-0.141	-0.328
-615.303	-136.824	-0.504	-0.074
-614.288	34.982	-0.076	0.086
-613.273	-85.390	0.601	0.242
-612.259	108.967	0.089	-0.138
-611.244	-7.203	-0.111	-0.098
-610.230	-122.808	-0.126	-0.026
-609.215	62.916	0.106	0.138
-608.201	-200.000	-0.052	0.494
-607.186	-1.718	-0.206	0.188
-606.171	-58.273	-0.510	-0.287
-605.157	-181.553	0.344	0.008
-604.142	-108.094	0.240	-0.067
-603.128	101.970	-0.307	-0.465
-602.113	-89.110	0.339	0.129
-601.098	-200.000	0.013	0.217
-600.084	-95.248	0.218	-0.076
-599.069	-93.360	0.254	-0.091
-598.055	-200.000	0.009	-0.276
-597.040	-22.425	0.306	0.240
-596.025	421.767	-0.045	0.125
-595.011	-200.000	0.011	0.252
-593.996	800.000	-0.044	-0.163
-592.982	-162.773	-0.455	-0.028
-591.967	-200.000	-0.048	0.589
-590.952	-73.723	0.407	0.191
-589.938	-65.232	0.731	-0.380
-588.923	-18.099	-0.376	0.304
-587.909	697.568	-0.051	-0.176
-586.894	-179.047	0.787	-0.022
-585.879	67.876	-0.263	-0.349
-584.865	141.767	-0.099	0.171
-583.850	-56.081	-0.613	0.352
-582.836	20.238	0.047	-0.049
-581.821	220.593	0.131	-0.273
-580.806	-72.340	-0.429	-0.205
-579.792	-86.117	0.278	0.110
-578.777	-111.611	-0.293	-0.076
-577.763	-35.565	0.090	0.063
-576.748	100.464	0.144	0.217
-575.733	35.872	0.254	0.290
-574.719	-147.920	-0.091	0.010
-573.704	394.140	-0.070	0.191
-572.690	-60.547	-0.468	-0.256
-571.675	-80.389	0.376	0.162
-570.661	327.937	0.178	-0.445
-569.646	374.300	-0.048	-0.128
-568.631	-160.074	-0.302	-0.021
-567.617	-118.856	-0.090	0.020
-566.602	800.000	-0.085	-0.342
-565.588	5.810	0.376	-0.360
-564.573	58.101	-0.551	-0.699
-563.558	-43.222	0.320	-0.209
-562.544	-65.875	-0.188	-0.097
-561.529	-200.000	-0.107	-0.650
-560.515	12.432	-0.179	-0.178
-559.500	-145.882	0.370	0.042
-558.485	-200.000	-0.099	0.588
-557.471	-156.565	0.422	-0.033
-556.456	-24.798	0.217	0.167
-555.442	308.452	0.103	-0.250
-554.427	88.458	0.348	0.500
-553.412	380.252	-0.156	0.415
-552.398	-29.347	0.283	0.209
-551.383	-200.000	0.026	0.208
-550.369	-125.783	-0.082	0.016
-549.354	-200.000	0.056	0.459
-548.339	372.800	0.236	0.624
-547.325	519.924	-0.153	0.466
-546.310	24.663	-0.044	-0.047
-545.296	-5.966	0.098	0.087
-544.281	89.295	0.100	0.144
-543.266	-171.840	0.459	-0.019
-542.252	-53.949	0.284	0.167
-541.237	800.000	0.180	1.002
-540.223	240.993	0.230	0.497
-539.208	-34.662	0.319	0.225
-538.193	145.253	-0.026	0.045
-537.179	-96.452	0.482	0.164
-536.164	82.697	0.230	-0.323
-535.150	-32.806	0.403	-0.289
-534.135	404.206	0.187	-0.510
-533.121	135.513	0.051	0.086
-532.106	-146.246	0.305	-0.034
-531.091	-134.232	0.277	0.044
-530.077	247.111	-0.166	0.364
-529.062	-200.000	0.027	-0.651
-528.048	800.000	-0.116	-0.430
-527.033	190.733	-0.138	-0.268
-526.018	-76.532	0.281	0.127
-525.004	-200.000	-0.034	-0.324
-523.989	800.000	0.075	-0.367
-522.975	-200.000	-0.025	0.295
-521.960	-28.825	-0.144	0.107
-520.945	-34.167	-0.385	0.273
-519.931	-200.000	-0.035	0.601
-518.916	478.116	-0.163	0.478
-517.902	39.427	0.354	-0.409
-516.887	46.446	-0.034	0.041
-515.872	-91.003	-0.560	-0.207
-514.858	-200.000	-0.050	0.335
-513.843	121.529	0.148	-0.238
-512.829	86.306	0.195	0.278
-511.814	19.923	0.248	0.258
-510.799	-178.991	-0.502	0.014
-509.785	-52.262	-0.528	0.315
-508.770	154.928	-0.197	0.351
-507.756	19.515	0.317	-0.329
-506.741	-87.529	-0.306	-0.119
-505.726	187.052	0.190	-0.366
-504.712	297.274	-0.109	-0.260
-503.697	-200.000	0.073	0.638
-502.683	-63.705	-0.382	-0.201
-501.668	557.389	-0.079	0.247
-500.653	800.000	0.077	-0.334
-499.639	-42.396	-0.483	0.317
-498.624	-200.000	0.023	-0.590
-497.610	800.000	-0.080	0.322
-496.595	-43.391	-0.146	0.095
-495.581	122.135	-0.238	-0.384
-494.566	-77.617	-0.207	-0.092
-493.551	-86.699	-0.289	-0.114
-492.537	-45.206	-0.378	0.242
-491.522	219.461	-0.263	0.544
-490.508	494.790	0.043	-0.129
-489.493	5.212	-0.067	-0.063
-488.478	-200.000	-0.004	0.372
-487.464	-102.233	0.140	0.043
-486.449	800.000	0.042	-0.159
-485.435	-12.566	-0.252	0.212
-484.420	-115.031	-0.413	0.100
-483.405	-99.028	0.231	-0.075
-482.391	131.469	0.160	0.265
-481.376	252.345	-0.184	-0.405
-480.362	-8.729	-0.107	-0.093
-479.347	-200.000	-0.027	-0.275
-478.332	-105.948	-0.495	0.143
-477.318	800.000	-0.180	-0.713
-476.303	-200.000	-0.010	0.101
-475.289	155.634	0.217	-0.386
-474.274	90.113	-0.168	0.243
-473.259	89.953	-0.165	0.238
-472.245	403.538	0.126	0.344
-471.230	-81.188	-0.170	0.072
-470.216	-61.761	-0.126	-0.068
-469.201	-59.370	0.396	0.219
-468.186	-50.985	0.563	-0.340
-467.172	-3.944	0.255	-0.228
-466.157	260.709	-0.110	0.246
-465.143	91.686	-0.243	0.353
-464.128	374.093	0.088	0.231
-463.113	33.398	0.257	0.288
-462.099	397.140	0.150	-0.405
-461.084	-93.528	0.344	0.122
-460.070	-92.606	-0.235	-0.085
-459.055	-102.744	-0.497	-0.152
-458.040	80.511	-0.156	-0.217
-457.026	-141.841	0.145	0.019
-456.011	-106.229	-0.526	0.151
-454.997	800.000	-0.071	-0.363
-453.982	-160.531	-0.504	-0.034
-452.968	-58.625	-0.182	-0.101
-451.953	-180.764	0.148	0.004
-450.938	800.000	0.080	0.454
-449.924	2.492	-0.275	0.257
-448.909	-200.000	0.053	0.431
-447.895	8.758	0.203	0.197
-446.880	-200.000	0.030	0.346
-445.865	-102.862	0.206	0.063
-444.851	-106.242	0.547	0.157
-443.836	87.225	-0.039	0.056
-442.822	-71.847	0.490	-0.234
-441.807	170.901	-0.254	-0.471
-440.792	718.685	-0.026	-0.089
-439.778	196.836	-0.149	0.293
-438.763	332.728	0.190	0.474
-437.749	-64.237	0.099	-0.052
-436.734	-159.782	0.058	-0.004
-435.719	52.347	0.127	-0.156
-434.705	496.871	0.062	0.185
-433.690	-94.927	-0.334	0.116
-432.676	-61.617	-0.537	0.289
-431.661	-140.598	0.358	0.047
-430.646	-147.845	0.223	0.024
-429.632	189.299	-0.129	-0.249
-428.617	-52.986	-0.217	-0.128
-427.603	39.819	-0.337	0.390
-426.588	-143.306	0.323	0.039
-425.573	-200.000	0.037	-0.221
-424.559	712.418	0.109	-0.373
-423.544	-154.702	0.221	0.019
-422.530	-76.966	0.461	0.206
-421.515	60.098	-0.225	0.286
-420.500	-144.412	-0.188	0.022
-419.486	-59.992	0.210	0.115
-418.471	-189.047	-0.355	0.005
-417.457	-73.958	-0.191	-0.089
-416.442	800.000	-0.071	0.394
-415.428	15.340	-0.321	0.324
-414.413	74.351	-0.111	0.150
-413.398	-43.342	-0.116	0.075
-412.384	394.760	0.133	0.359
-411.369	800.000	0.150	-0.585
-410.355	181.561	0.143	0.271
-409.340	-87.200	-0.093	0.036
-408.325	3.876	0.119	-0.112
-407.311	8.026	0.437	-0.422
-406.296	-123.442	0.144	0.029
-405.282	662.737	-0.137	-0.458
-404.267	174.511	-0.057	-0.106
-403.252	26.477	0.191	0.205
-402.238	-173.254	-0.699	0.027
-401.223	118.115	0.166	-0.264
-400.209	-76.825	0.244	0.109
-399.194	-47.027	0.080	-0.050
-398.179	84.936	-0.282	-0.398
-397.165	35.732	-0.276	-0.312
-396.150	93.794	0.137	0.201
-395.136	-200.000	-0.051	-0.361
-394.121	-19.143	0.227	0.181
-393.106	-67.460	-0.292	-0.147
-392.092	96.041	0.106	0.155
-391.077	800.000	0.118	0.541
-390.063	-200.000	0.003	0.484
-389.048	-75.537	-0.638	0.290
-388.033	57.340	-0.215	0.269
-387.019	192.336	-0.284	0.553
-386.004	168.307	0.300	0.551
-384.990	-193.154	0.638	0.007
-383.975	-142.198	0.316	-0.040
-382.960	-43.200	-0.188	0.122
-381.946	15.862	-0.164	-0.166
-380.931	-200.000	-0.015	-0.159
-379.917	78.404	0.169	0.232
-378.902	-41.187	-0.360	-0.238
-377.888	-110.511	-0.191	0.050
-376.873	-90.735	0.435	0.160
-375.858	-26.223	0.041	0.031
-374.844	-45.420	-0.165	0.105
-373.829	149.879	-0.173	-0.302
-372.815	-191.003	0.391	0.005
-371.800	-163.305	-0.162	-0.010
-370.785	-127.156	-0.067	-0.013
-369.771	-110.445	0.458	0.121
-368.756	22.398	0.071	-0.074
-367.742	800.000	-0.078	0.414
-366.727	188.267	-0.073	-0.140
-365.712	416.091	0.169	-0.464
-364.698	-137.275	-0.044	-0.006
-363.683	106.341	-0.305	-0.464
-362.669	-78.962	-0.183	-0.080
-361.654	-174.869	-0.007	0.000
-360.639	-200.000	-0.000	-0.149
-359.625	628.198	-0.115	-0.376
-358.610	-200.000	0.007	-0.530
-357.596	92.152	0.166	-0.240
-356.581	-35.676	0.185	0.128
-355.566	-155.547	0.437	0.036
-354.552	0.859	0.419	-0.385
-353.537	800.000	-0.077	-0.314
-352.523	-78.383	-0.162	-0.071
-351.508	545.417	-0.157	-0.484
-350.493	-200.000	0.017	-0.420
-349.479	-106.001	-0.218	-0.062
-348.464	-26.434	0.254	-0.191
-347.450	328.476	0.128	0.316
-346.435	-84.353	-0.072	0.029
-345.420	129.123	0.133	0.218
-344.406	800.000	0.047	-0.244
-343.391	-166.824	-0.223	0.012
-342.377	-200.000	0.025	0.396
-341.362	391.944	0.072	-0.193
-340.348	-6.001	0.264	-0.232
-339.333	-177.906	-0.084	-0.003
-338.318	19.614	-0.158	-0.163
-337.304	187.048	0.057	-0.109
-336.289	63.366	0.092	0.118
-335.275	800.000	-0.066	0.312
-334.260	382.763	-0.104	-0.277
-333.245	800.000	0.024	0.103
-332.231	-18.679	0.157	-0.125
-331.216	-148.699	-0.202	-0.021
-330.202	-116.830	-0.181	0.042
-329.187	230.276	-0.067	-0.141
-328.172	-123.359	0.253	0.051
-327.158	-125.265	0.379	0.074
-326.143	-200.000	0.000	-0.192
-325.129	53.499	0.103	0.127
-324.114	114.870	-0.280	0.439
-323.099	-146.029	0.154	-0.017
-322.085	79.071	-0.038	-0.053
-321.070	562.817	0.146	0.454
-320.056	800.000	-0.103	0.537
-319.041	-25.147	-0.367	0.278
-318.026	81.494	0.081	-0.113
-317.012	-200.000	0.008	-0.064
-315.997	-200.000	0.025	0.252
-314.983	545.610	0.116	-0.358
-313.968	102.058	-0.360	-0.539
-312.953	800.000	-0.092	0.337
-311.939	17.768	-0.199	0.203
-310.924	-200.000	-0.002	0.222
-309.910	-52.600	0.164	0.097
-308.895	130.869	-0.225	-0.370
-307.880	439.604	0.095	-0.268
-306.866	-55.001	0.479	-0.276
-305.851	-148.128	0.511	0.054
-304.837	-59.541	0.152	-0.083
-303.822	-61.650	0.401	-0.215
-302.807	165.496	0.064	0.116
-301.793	292.309	-0.243	-0.569
-300.778	800.000	0.081	0.381
-299.764	52.575	0.289	0.353
-298.749	-31.933	0.331	-0.237
-297.735	15.388	-0.086	-0.087
-296.720	150.928	0.163	-0.285
-295.705	395.355	0.092	-0.248
-294.691	120.993	-0.223	-0.356
-293.676	-98.624	-0.266	-0.086
-292.662	-150.010	-0.452	-0.045
-291.647	68.873	-0.303	0.399
-290.632	-84.677	-0.444	0.178
-289.618	800.000	-0.110	-0.540
-288.603	-200.000	0.006	-0.869
-287.589	-7.856	0.303	-0.261
-286.574	800.000	-0.134	-0.516
-285.559	-117.505	-0.146	-0.034
-284.545	177.663	-0.071	0.133
-283.530	-200.000	-0.007	-0.236
-282.516	30.182	0.154	0.168
-281.501	-80.170	0.166	0.071
-280.486	165.950	-0.190	0.346
-279.472	-29.636	-0.187	-0.136
-278.457	-200.000	0.098	-0.661
-277.443	800.000	-0.058	-0.235
-276.428	-116.446	-0.099	0.023
-275.413	-30.586	0.266	0.193
-274.399	-200.000	-0.010	-0.285
-273.384	-121.148	0.326	-0.069
-272.370	800.000	-0.018	0.074
-271.355	-100.215	-0.354	-0.112
-270.340	800.000	-0.133	0.494
-269.326	52.084	-0.111	0.136
-268.311	131.636	-0.130	-0.215
-267.297	312.623	0.100	0.242
-266.282	739.375	0.021	-0.074
-265.267	-42.637	-0.164	0.107
-264.253	-180.947	0.179	-0.005
-263.238	-200.000	-0.033	-0.382
-262.224	-200.000	0.052	-0.460
-261.209	108.714	-0.260	0.397
-260.195	47.172	0.183	-0.218
-259.180	-174.717	0.065	0.002
-258.165	-129.084	-0.382	-0.068
-257.151	-114.476	0.185	0.045
-256.136	800.000	0.087	-0.456
-255.122	-182.516	-0.350	-0.008
-254.107	-49.716	-0.417	0.253
-253.092	643.982	-0.124	0.407
-252.078	40.460	0.070	-0.080
-251.063	-86.971	-0.295	-0.114
-250.049	-58.249	0.300	0.166
-249.034	309.939	-0.149	0.357
-248.019	-111.237	-0.192	-0.050
-247.005	64.924	0.128	0.165
-245.990	-110.663	-0.361	0.095
-244.976	-112.743	0.178	0.045
-243.961	-19.801	-0.327	-0.258
-242.946	214.567	-0.192	-0.389
-241.932	-124.396	-0.259	-0.051
-240.917	-89.007	0.130	-0.049
-239.903	-93.528	-0.576	-0.202
-238.888	33.799	0.232	-0.258
-237.873	21.319	0.218	0.227
-236.859	-35.053	0.404	0.281
-235.844	-41.033	-0.415	0.273
-234.830	124.165	0.131	0.211
-233.815	-6.460	0.312	0.272
-232.800	-123.798	-0.320	-0.064
-231.786	-200.000	-0.017	-0.130
-230.771	40.832	0.058	0.067
-229.757	191.428	0.228	0.440
-228.742	800.000	-0.041	-0.163
-227.727	-84.725	-0.098	0.039
-226.713	-12.261	-0.300	-0.250
-225.698	800.000	-0.101	-0.379
-224.684	-33.972	-0.256	-0.179
-223.669	-52.260	0.815	0.481
-222.655	-28.163	0.204	-0.151
-221.640	-33.252	0.282	0.199
-220.625	-90.524	0.206	-0.076
-219.611	-200.000	0.024	0.317
-218.596	127.635	0.096	0.156
-217.582	-164.258	0.335	0.019
-216.567	-200.000	0.065	-0.497
-215.552	-14.244	-0.244	-0.201
-214.538	-16.876	-0.376	0.303
-213.523	-165.356	0.315	-0.017
-212.509	243.033	-0.355	0.762
-211.494	-21.352	0.144	0.112
-210.479	-87.265	0.157	-0.061
-209.465	-10.934	0.283	0.238
-208.450	-200.000	-0.079	-0.539
-207.436	800.000	-0.021	-0.077
-206.421	-200.000	0.012	0.234
-205.406	-200.000	0.007	-0.298
-204.392	-35.373	-0.197	0.136
-203.377	-183.705	0.304	-0.006
-202.363	234.576	-0.226	0.476
-201.348	145.043	-0.129	-0.221
-200.333	149.090	-0.043	-0.074
-199.319	800.000	0.059	0.239
-198.304	6.205	-0.301	-0.284
-197.290	37.314	0.331	-0.375
-196.275	-200.000	-0.004	-0.052
-195.260	544.159	-0.047	0.145
-194.246	-160.102	0.301	0.021
-193.231	-14.658	0.108	-0.088
-192.217	-97.816	0.258	0.085
-191.202	-179.314	0.371	-0.010
-190.187	-100.616	0.414	-0.129
-189.173	-200.000	-0.108	-0.634
-188.158	124.890	-0.290	-0.466
-187.144	-72.368	-0.139	-0.065
-186.129	800.000	-0.059	-0.294
-185.114	86.244	-0.377	-0.530
-184.100	-200.000	0.299	0.001
-183.085	-200.000	0.053	-0.303
-182.071	-200.000	0.028	-0.544
-181.056	-11.562	-0.231	0.194
-180.042	236.294	-0.085	0.180
-179.027	-117.662	-0.350	0.080
-178.012	299.460	-0.145	-0.341
-176.998	-52.373	0.009	-0.005
-175.983	-50.286	0.288	-0.173
-174.969	-200.000	0.036	-0.423
-173.954	39.966	-0.380	-0.435
-172.939	172.080	-0.015	0.027
-171.925	-9.754	-0.465	0.394
-170.910	141.301	-0.333	-0.563
-169.896	-81.191	0.554	-0.232
-168.881	-153.369	-0.355	0.031
-167.866	-29.982	-0.155	0.113
-166.852	270.067	0.179	-0.403
-165.837	800.000	0.106	0.433
-164.823	-135.088	0.163	0.025
-163.808	742.086	-0.083	0.287
-162.793	624.786	0.207	0.668
-161.779	-26.746	0.505	0.375
-160.764	-164.533	-0.496	0.028
-159.750	-200.000	0.025	-0.379
-158.735	-20.380	0.147	0.115
-157.720	800.000	0.093	0.394
-156.706	-89.154	-0.135	-0.051
-155.691	-62.556	0.411	-0.216
-154.677	-6.235	-0.071	0.062
-153.662	-130.209	-0.135	0.023
-152.647	124.781	-0.163	-0.262
-151.633	-36.526	0.476	0.325
-150.618	-143.023	0.270	-0.033
-149.604	37.783	0.477	-0.540
-148.589	-70.929	-0.369	0.176
-147.574	-83.719	0.073	-0.029
-146.560	-200.000	-0.012	-0.172
-145.545	13.442	-0.032	-0.032
-144.531	-200.000	0.017	-0.250
-143.516	68.633	0.276	0.361
-142.502	-200.000	0.016	0.212
-141.487	-152.266	-0.252	0.023
-140.472	22.962	0.373	-0.390
-139.458	-200.000	0.046	0.375
-138.443	-48.485	0.412	-0.252
-137.429	81.920	0.153	-0.211
-136.414	22.321	0.067	0.070
-135.399	-29.991	0.083	0.060
-134.385	140.234	-0.185	0.311
-133.370	-158.728	-0.130	-0.009
-132.356	-200.000	0.255	-0.001
-131.341	437.811	0.246	0.687
-130.326	180.366	0.405	0.759
-129.312	553.034	0.034	0.106
-128.297	-136.701	0.148	-0.021
-127.283	-100.924	0.386	0.120
-126.268	-68.531	-0.209	0.103
-125.253	-67.179	-0.404	-0.201
-124.239	-125.695	0.616	-0.118
-123.224	2.124	0.029	-0.027
-122.210	10.421	-0.546	0.529
-121.195	58.994	-0.210	0.262
