DTS Sentinel unit serial number:	SN409020Multiplexer serial number:	ORYXHardware model number:	OX4-SRSoftware version number:	ORYX F/W v3.00 Oryx Data Collector v3.7.2.0data status	okinstallation	HaddamTimeLapsedifferential loss correction	single-endedforward channel	channel 3reverse channel	N/Adate	2011/06/22time	11:26:01forward acquisition time	30.00reverse acquisition time	0.00gamma	498.7831k internal	0.1759k external	0.1759temperature offset calibration	1.0074default loss term (dB/km)	0.3790temperature slope calibration	1.3530multiplexer offset coefficient	1.0000multiplexer slope coefficient	1.0000fibre end	0.00T internal ref (°C)	28.75T ext. ref 1 (°C)	23.76T ext. ref 2 (°C)	-0.09length (m)	temperature (°C)	Stokes	anti-Stokes-747.200	-200.000	0.022	-0.209
-746.185	-71.614	-0.280	0.138
-745.171	-15.502	-0.383	-0.323
-744.156	-123.924	0.114	-0.024
-743.142	94.589	-0.102	0.154
-742.127	800.000	-0.064	0.320
-741.112	-66.150	-0.536	0.281
-740.098	-200.000	-0.090	0.714
-739.083	25.749	0.232	0.256
-738.069	32.969	0.356	0.408
-737.054	27.290	0.229	-0.255
-736.039	-17.730	-0.057	0.047
-735.025	-40.981	0.337	-0.230
-734.010	-26.194	0.323	-0.250
-732.996	55.120	-0.302	0.385
-731.981	505.396	0.195	-0.602
-730.966	-49.543	-0.181	0.113
-729.952	-163.857	-0.185	-0.011
-728.937	51.203	-0.052	0.065
-727.923	800.000	-0.030	-0.169
-726.908	-2.901	-0.215	-0.198
-725.894	800.000	-0.043	0.196
-724.879	341.346	0.137	-0.355
-723.864	-200.000	0.041	0.411
-722.850	-52.171	0.353	0.216
-721.835	-123.691	-0.299	0.062
-720.821	-95.509	0.494	0.174
-719.806	424.848	-0.078	-0.224
-718.791	173.798	0.079	-0.152
-717.777	-71.659	0.298	0.146
-716.762	-37.904	0.168	0.118
-715.748	-141.311	-0.682	-0.091
-714.733	-200.000	-0.009	0.140
-713.718	54.613	-0.170	0.217
-712.704	-10.806	-0.084	-0.073
-711.689	-157.094	-0.142	0.011
-710.675	50.673	-0.166	-0.208
-709.660	-53.974	-0.318	0.191
-708.645	800.000	-0.121	-0.466
-707.631	-25.289	-0.278	-0.217
-706.616	-200.000	-0.002	-0.633
-705.602	-23.592	-0.272	-0.215
-704.587	74.081	-0.198	-0.274
-703.572	800.000	0.146	-0.551
-702.558	95.537	0.226	0.340
-701.543	63.804	-0.099	-0.131
-700.529	217.327	0.204	-0.431
-699.514	38.940	-0.280	0.331
-698.499	189.707	0.167	0.331
-697.485	96.034	0.149	-0.224
-696.470	189.610	-0.281	0.557
-695.456	-63.964	-0.408	0.219
-694.441	-200.000	-0.035	0.407
-693.426	1.058	0.371	0.351
-692.412	-60.983	0.540	0.300
-691.397	-150.048	0.559	-0.057
-690.383	-172.476	-0.182	0.007
-689.368	-200.000	0.225	-0.001
-688.354	-154.174	0.320	0.028
-687.339	-119.662	-0.063	0.014
-686.324	-80.430	-0.145	0.064
-685.310	-88.833	0.106	-0.041
-684.295	-109.258	-0.300	-0.083
-683.281	-200.000	-0.030	-0.320
-682.266	-157.440	-0.197	0.015
-681.251	0.294	-0.294	-0.276
-680.237	22.416	-0.372	-0.401
-679.222	-105.900	-0.387	0.114
-678.208	-200.000	-0.003	0.244
-677.193	-99.477	-0.266	0.088
-676.178	-24.865	0.655	-0.512
-675.164	90.776	-0.051	-0.076
-674.149	446.114	0.138	0.402
-673.135	-113.776	0.462	0.118
-672.120	53.181	-0.022	0.027
-671.105	183.645	-0.100	0.195
-670.091	-200.000	0.020	0.524
-669.076	-95.352	-0.261	0.092
-668.062	54.168	0.265	0.337
-667.047	234.136	-0.071	0.154
-666.032	800.000	0.070	-0.327
-665.018	48.262	-0.290	0.358
-664.003	-53.455	-0.060	0.036
-662.989	-94.974	0.443	-0.157
-661.974	-109.216	-0.125	0.035
-660.959	-22.976	-0.078	-0.062
-659.945	72.581	0.111	-0.153
-658.930	526.745	-0.014	0.042
-657.916	-166.321	0.677	-0.037
-656.901	471.813	-0.118	0.351
-655.886	-158.047	0.337	-0.026
-654.872	116.806	-0.026	0.041
-653.857	205.692	-0.255	-0.523
-652.843	42.867	-0.116	0.140
-651.828	-200.000	-0.079	-0.459
-650.814	800.000	0.080	-0.312
-649.799	-72.257	-0.183	-0.089
-648.784	77.723	-0.158	0.222
-647.770	-178.944	0.166	0.005
-646.755	-200.000	0.009	0.249
-645.741	800.000	0.018	-0.105
-644.726	26.718	-0.152	-0.168
-643.711	-120.706	-0.257	0.057
-642.697	-148.556	-0.659	0.070
-641.682	-118.157	-0.373	0.087
-640.668	-171.338	0.541	0.023
-639.653	-93.582	0.297	0.108
-638.638	264.065	0.104	0.238
-637.624	-168.709	0.220	0.011
-636.609	237.529	-0.127	-0.278
-635.595	-134.243	-0.561	0.090
-634.580	33.651	-0.096	0.110
-633.565	131.360	0.032	0.053
-632.551	-81.980	-0.203	-0.087
-631.536	-117.491	-0.698	-0.165
-630.522	-50.707	-0.493	0.305
-629.507	59.600	-0.254	-0.330
-628.492	800.000	-0.038	-0.207
-627.478	-200.000	-0.020	0.346
-626.463	459.792	-0.167	0.492
-625.449	-152.459	0.234	0.022
-624.434	-200.000	-0.012	0.173
-623.419	8.655	0.233	0.230
-622.405	-200.000	0.041	0.319
-621.390	-200.000	-0.009	0.053
-620.376	-23.648	-0.306	-0.241
-619.361	-177.141	-0.058	0.002
-618.346	37.970	-0.307	-0.359
-617.332	-63.609	-0.340	0.183
-616.317	800.000	-0.070	0.277
-615.303	291.775	0.107	0.258
-614.288	-131.761	0.536	-0.092
-613.273	255.973	-0.081	-0.183
-612.259	-167.914	-0.439	-0.022
-611.244	241.821	0.175	0.387
-610.230	-62.702	-0.243	-0.132
-609.215	24.605	-0.235	-0.256
-608.201	-42.309	-0.434	0.290
-607.186	-200.000	0.021	0.215
-606.171	108.975	0.239	0.377
-605.157	-84.739	-0.309	-0.127
-604.142	73.502	0.411	-0.567
-603.128	284.355	-0.226	0.536
-602.113	-53.842	0.228	-0.136
-601.098	-137.961	-0.294	0.043
-600.084	-154.751	-0.357	-0.031
-599.069	-32.738	0.558	-0.408
-598.055	250.737	-0.130	-0.293
-597.040	124.429	0.129	-0.214
-596.025	-22.952	0.390	-0.308
-595.011	51.329	-0.313	-0.391
-593.996	41.882	-0.095	0.113
-592.982	800.000	-0.050	0.261
-591.967	110.625	0.261	0.414
-590.952	-107.372	-0.642	0.184
-589.938	33.197	0.084	-0.096
-588.923	-200.000	0.039	-0.417
-587.909	-116.833	0.230	-0.055
-586.894	4.980	0.290	-0.280
-585.879	-52.999	0.391	-0.236
-584.865	800.000	0.072	-0.277
-583.850	-200.000	0.003	-0.101
-582.836	598.198	0.072	0.237
-581.821	39.510	0.054	0.064
-580.806	-46.317	0.151	-0.097
-579.792	-145.295	0.128	-0.015
-578.777	800.000	0.045	0.193
-577.763	-121.758	-0.154	-0.033
-576.748	800.000	-0.037	0.159
-575.733	-116.569	0.414	0.099
-574.719	-13.118	0.268	-0.229
-573.704	-17.590	-0.154	0.127
-572.690	-75.378	0.349	-0.162
-571.675	-61.911	-0.583	0.319
-570.661	-144.829	0.228	0.027
-569.646	498.595	-0.068	0.205
-568.631	800.000	0.139	-0.519
-567.617	-144.245	-0.420	-0.051
-566.602	-39.152	-0.200	0.137
-565.588	102.452	-0.072	0.111
-564.573	40.611	0.143	0.169
-563.558	-78.389	-0.135	-0.061
-562.544	800.000	0.053	0.272
-561.529	83.397	0.120	-0.172
-560.515	-118.175	-0.227	0.053
-559.500	-76.290	-0.063	0.029
-558.485	-130.196	-0.374	-0.066
-557.471	-42.107	0.305	-0.204
-556.456	-149.236	-0.590	0.061
-555.442	-200.000	-0.055	-0.370
-554.427	273.600	-0.192	-0.448
-553.412	-61.768	-0.381	-0.209
-552.398	-42.413	-0.339	-0.227
-551.383	-45.752	0.124	0.080
-550.369	47.225	0.329	-0.403
-549.354	50.417	-0.239	0.297
-548.339	159.229	-0.057	-0.104
-547.325	-149.092	0.148	0.015
-546.310	-153.418	-0.112	0.010
-545.296	800.000	-0.073	-0.302
-544.281	-146.000	-0.380	0.044
-543.266	-195.089	0.295	0.003
-542.252	-84.193	-0.262	0.108
-541.237	475.528	0.093	0.276
-540.223	65.013	-0.221	0.293
-539.208	-118.862	0.235	-0.054
-538.193	139.530	0.153	-0.265
-537.179	378.469	0.105	0.284
-536.164	187.067	0.268	-0.526
-535.150	4.107	0.401	-0.385
-534.135	59.025	-0.198	0.256
-533.121	-81.598	-0.134	-0.058
-532.106	-200.000	0.008	-0.395
-531.091	-101.078	0.326	-0.104
-530.077	800.000	-0.073	-0.317
-529.062	-55.500	-0.291	-0.171
-528.048	-139.400	0.205	0.029
-527.033	54.059	-0.200	0.253
-526.018	800.000	0.051	0.239
-525.004	379.816	0.096	-0.260
-523.989	-200.000	0.018	-0.122
-522.975	-108.982	0.323	0.090
-521.960	-77.169	-0.270	-0.123
-520.945	-177.853	-0.594	0.018
-519.931	800.000	-0.008	-0.031
-518.916	128.816	-0.162	0.271
-517.902	223.841	0.256	-0.544
-516.887	-97.994	0.797	-0.268
-515.872	160.398	0.095	-0.174
-514.858	-29.427	0.344	-0.257
-513.843	25.258	0.522	-0.568
-512.829	76.346	0.166	-0.231
-511.814	127.180	0.090	-0.150
-510.799	-121.523	0.355	-0.077
-509.785	800.000	-0.079	0.333
-508.770	288.223	-0.084	-0.200
-507.756	-2.138	-0.255	-0.235
-506.741	407.203	-0.081	0.225
-505.726	-200.000	0.230	-0.001
-504.712	-80.102	0.393	0.172
-503.697	438.417	0.101	0.291
-502.683	-74.746	-0.148	0.069
-501.668	-200.000	-0.041	-0.274
-500.653	19.898	-0.426	0.450
-499.639	-141.288	0.241	-0.032
-498.624	-90.210	0.143	-0.054
-497.610	-65.288	-0.313	0.164
-496.595	-103.001	-0.310	-0.096
-495.581	8.988	-0.319	0.315
-494.566	-38.805	-0.447	0.308
-493.551	-170.170	0.157	-0.007
-492.537	800.000	0.080	-0.304
-491.522	800.000	0.073	-0.330
-490.508	-86.107	0.175	-0.070
-489.493	162.671	0.194	0.357
-488.478	-122.026	0.678	-0.145
-487.464	-126.017	0.216	-0.042
-486.449	249.191	-0.144	0.321
-485.435	-163.790	0.189	-0.011
-484.420	-200.000	0.036	-0.577
-483.405	-146.673	-0.174	-0.020
-482.391	208.863	0.145	-0.298
-481.376	-106.439	-0.298	-0.086
-480.362	21.909	-0.277	-0.295
-479.347	272.437	0.130	0.301
-478.332	800.000	-0.078	-0.330
-477.318	-58.320	0.130	-0.074
-476.303	30.526	-0.244	-0.273
-475.289	-143.831	0.435	0.053
-474.274	115.608	-0.108	0.174
-473.259	800.000	-0.061	0.228
-472.245	75.461	-0.228	-0.315
-471.230	-198.827	-0.478	0.003
-470.216	-200.000	0.096	1.012
-469.201	800.000	-0.122	0.629
-468.186	-2.208	0.404	0.370
-467.172	-200.000	0.028	0.521
-466.157	-170.315	-0.486	-0.022
-465.143	47.040	-0.154	0.188
-464.128	-177.035	-0.294	-0.009
-463.113	-49.369	0.243	0.151
-462.099	292.258	0.088	0.212
-461.084	-191.525	0.558	0.007
-460.070	-122.133	-0.410	-0.087
-459.055	-200.000	-0.130	-0.756
-458.040	263.864	0.291	-0.664
-457.026	357.787	-0.173	-0.455
-456.011	-200.000	0.010	0.095
-454.997	755.114	0.065	-0.233
-453.982	-17.957	0.182	0.149
-452.968	-75.098	-0.326	0.152
-451.953	-139.361	0.403	0.056
-450.938	-129.361	0.196	0.035
-449.924	589.835	-0.036	-0.115
-448.909	-151.089	0.376	0.036
-447.895	-106.107	-0.337	0.098
-446.880	-200.000	-0.023	-0.160
-445.865	291.919	-0.177	-0.424
-444.851	-124.241	0.429	0.087
-443.836	49.599	-0.064	-0.078
-442.822	-200.000	-0.033	0.433
-441.807	-120.519	0.209	-0.046
-440.792	57.227	-0.040	0.051
-439.778	-111.075	-0.348	-0.093
-438.763	-42.341	-0.251	0.167
-437.749	-185.839	0.548	0.010
-436.734	-86.747	-0.384	0.153
-435.719	-47.282	0.427	-0.271
-434.705	189.063	-0.140	-0.275
-433.690	-139.412	-0.067	-0.009
-432.676	-127.853	0.237	-0.044
-431.661	-18.728	-0.308	-0.250
-430.646	-122.261	0.139	-0.029
-429.632	486.451	-0.129	-0.387
-428.617	-89.705	0.133	-0.050
-427.603	230.376	0.052	0.112
-426.588	-3.865	0.270	-0.245
-425.573	-50.308	0.126	0.078
-424.559	219.398	-0.227	0.475
-423.544	646.083	0.086	0.289
-422.530	-160.254	0.380	-0.026
-421.515	57.071	-0.120	0.153
-420.500	-157.204	-0.184	0.014
-419.486	-200.000	0.022	-0.330
-418.471	800.000	0.142	0.593
-417.457	-21.725	-0.189	0.150
-416.442	800.000	-0.089	0.500
-415.428	-200.000	-0.015	0.123
-414.413	522.288	0.128	-0.394
-413.398	216.115	-0.069	0.144
-412.384	-138.350	-0.546	-0.078
-411.369	-118.162	0.533	0.123
-410.355	424.244	0.193	0.545
-409.340	-34.131	-0.321	0.230
-408.325	377.903	0.109	0.292
-407.311	-75.278	-0.582	-0.270
-406.296	-142.727	-0.396	-0.050
-405.282	-111.524	0.485	0.128
-404.267	16.618	0.384	0.396
-403.252	-87.615	-0.226	0.089
-402.238	19.791	-0.269	-0.283
-401.223	44.647	-0.110	-0.132
-400.209	259.338	-0.201	0.454
-399.194	-200.000	0.018	-0.210
-398.179	59.251	-0.152	0.195
-397.165	51.420	-0.089	-0.110
-396.150	164.694	-0.122	-0.226
-395.136	-117.645	0.138	0.032
-394.121	-91.424	0.272	-0.101
-393.106	221.844	0.151	0.317
-392.092	-109.608	0.426	0.116
-391.077	-200.000	0.001	0.195
-390.063	462.779	-0.096	0.280
-389.048	21.080	0.149	0.158
-388.033	10.973	-0.094	0.094
-387.019	-179.978	0.184	0.005
-386.004	-34.682	-0.221	0.157
-384.990	24.808	0.292	-0.315
-383.975	-200.000	-0.004	0.220
-382.960	16.646	-0.212	-0.218
-381.946	800.000	-0.100	-0.384
-380.931	-83.917	-0.291	0.120
-379.917	52.275	-0.094	-0.117
-378.902	71.180	-0.279	-0.377
-377.888	-150.515	-0.530	-0.052
-376.873	44.433	0.085	-0.102
-375.858	-92.848	0.573	-0.208
-374.844	-70.670	0.755	0.370
-373.829	-159.970	-0.184	-0.013
-372.815	201.292	-0.092	-0.185
-371.800	35.681	0.275	-0.315
-370.785	-200.000	-0.022	0.226
-369.771	-47.743	0.452	0.285
-368.756	150.893	-0.141	-0.251
-367.742	800.000	-0.086	0.456
-366.727	-86.180	-0.252	0.101
-365.712	800.000	-0.035	0.172
-364.698	140.294	0.139	0.240
-363.683	-10.795	0.214	0.184
-362.669	88.463	-0.227	-0.330
-361.654	-50.639	-0.219	-0.134
-360.639	-145.046	0.525	-0.062
-359.625	7.589	-0.364	0.355
-358.610	-48.150	-0.072	-0.045
-357.596	-200.000	0.001	-0.078
-356.581	-47.498	0.567	-0.358
-355.566	698.334	-0.091	-0.312
-354.552	-39.305	-0.388	-0.264
-353.537	-200.000	0.086	-0.495
-352.523	20.407	-0.190	-0.200
-351.508	237.973	-0.147	0.319
-350.493	498.072	0.055	0.167
-349.479	-91.664	0.217	-0.080
-348.464	435.596	-0.131	0.374
-347.450	-152.566	0.227	-0.021
-346.435	-50.742	-0.303	0.185
-345.420	-71.078	0.100	-0.049
-344.406	22.026	0.161	0.171
-343.391	130.161	-0.431	0.720
-342.377	-200.000	-0.033	0.234
-341.362	44.894	0.357	-0.428
-340.348	-151.096	0.113	-0.011
-339.333	-200.000	-0.029	0.178
-338.318	759.452	-0.024	-0.085
-337.304	-36.617	0.111	-0.078
-336.289	-75.857	0.141	0.065
-335.275	-200.000	0.069	-0.549
-334.260	-28.358	0.114	0.086
-333.245	-54.849	-0.226	0.132
-332.231	-185.678	-0.364	0.007
-331.216	-110.564	0.452	0.121
-330.202	-92.920	0.288	0.104
-329.187	-22.085	0.295	-0.233
-328.172	-145.448	0.096	-0.011
-327.158	8.671	0.225	0.220
-326.143	-200.000	-0.009	-0.409
-325.129	162.679	-0.152	0.278
-324.114	357.813	-0.044	0.114
-323.099	404.622	0.116	-0.318
-322.085	-200.000	0.047	-0.486
-321.070	800.000	0.121	0.580
-320.056	-13.483	0.142	-0.120
-319.041	313.060	-0.037	0.092
-318.026	-123.999	0.663	0.134
-317.012	18.020	-0.262	-0.271
-315.997	35.578	-0.219	-0.250
-314.983	261.111	-0.214	-0.484
-313.968	-48.044	-0.202	-0.127
-312.953	177.644	0.164	0.313
-311.939	-200.000	-0.052	-0.516
-310.924	-39.361	-0.186	0.127
-309.910	-200.000	0.056	0.478
-308.895	-131.758	-0.283	-0.048
-307.880	448.575	0.086	-0.246
-306.866	9.403	-0.090	-0.088
-305.851	800.000	-0.058	-0.258
-304.837	1.576	0.296	-0.276
-303.822	26.725	-0.140	0.152
-302.807	106.674	-0.082	-0.127
-301.793	-157.189	-0.348	-0.027
-300.778	-124.081	-0.256	-0.052
-299.764	634.115	-0.082	0.272
-298.749	800.000	-0.045	0.187
-297.735	119.840	-0.271	-0.437
-296.720	61.314	-0.071	0.091
-295.705	-129.573	-0.575	-0.102
-294.691	-200.000	-0.062	0.438
-293.676	4.917	-0.094	-0.090
-292.662	-45.891	-0.332	-0.212
-291.647	148.981	0.189	-0.332
-290.632	106.562	-0.109	0.168
-289.618	397.760	0.244	0.666
-288.603	800.000	-0.096	-0.399
-287.589	800.000	0.087	-0.374
-286.574	-162.242	-0.514	0.033
-285.559	50.130	0.225	-0.276
-284.545	-200.000	0.012	0.363
-283.530	-22.714	0.475	0.372
-282.516	-93.263	-0.196	0.070
-281.501	-127.114	-0.283	0.053
-280.486	-95.439	0.386	0.134
-279.472	-45.638	-0.163	-0.104
-278.457	-162.736	0.706	-0.044
-277.443	85.297	0.082	0.118
-276.428	-25.488	0.314	0.240
-275.413	-138.904	0.408	0.057
-274.399	30.468	-0.525	0.583
-273.384	35.260	0.211	-0.240
-272.370	-164.250	0.166	0.010
-271.355	-79.205	-0.211	-0.092
-270.340	-149.270	0.220	-0.022
-269.326	-36.451	0.115	0.080
-268.311	-45.817	-0.186	0.119
-267.297	-117.559	0.152	-0.035
-266.282	130.236	-0.202	0.336
-265.267	-38.873	-0.489	-0.334
-264.253	86.426	-0.086	-0.123
-263.238	-200.000	0.053	0.514
-262.224	-200.000	-0.068	-0.393
-261.209	42.398	-0.043	0.051
-260.195	-77.329	0.130	-0.058
-259.180	-200.000	0.010	0.569
-258.165	342.629	-0.071	-0.180
-257.151	687.713	0.039	0.132
-256.136	-8.779	0.073	-0.063
-255.122	-77.089	-0.075	0.034
-254.107	-130.222	0.354	0.062
-253.092	-200.000	-0.002	-0.241
-252.078	-200.000	0.107	-0.001
-251.063	-127.581	0.463	-0.086
-250.049	-151.205	0.283	-0.027
-249.034	-50.875	-0.239	0.145
-248.019	-141.896	-0.300	-0.038
-247.005	-97.317	-0.291	0.098
-245.990	-22.257	-0.220	-0.173
-244.976	366.503	0.154	0.405
-243.961	3.946	-0.273	0.258
-242.946	-7.575	-0.029	0.025
-241.932	-178.400	0.419	0.012
-240.917	-58.542	-0.279	0.156
-239.903	-200.000	0.027	-0.418
-238.888	437.689	0.099	0.283
-237.873	-189.147	0.213	-0.003
-236.859	-13.540	0.157	-0.132
-235.844	800.000	0.085	-0.426
-234.830	-200.000	-0.016	-0.432
-233.815	-200.000	-0.028	-0.420
-232.800	-14.631	-0.337	0.280
-231.786	473.863	0.105	-0.308
-230.771	436.989	0.102	0.289
-229.757	-73.962	0.063	0.030
-228.742	-19.274	-0.363	0.291
-227.727	800.000	0.155	-0.613
-226.713	261.544	-0.075	-0.169
-225.698	57.395	0.414	-0.524
-224.684	481.623	-0.069	-0.204
-223.669	-200.000	-0.250	0.001
-222.655	-139.567	0.612	-0.084
-221.640	-90.662	-0.416	-0.155
-220.625	576.697	-0.027	-0.086
-219.611	800.000	-0.097	0.452
-218.596	-115.101	-0.541	-0.132
-217.582	243.789	-0.056	-0.123
-216.567	-200.000	0.077	0.472
-215.552	800.000	0.067	-0.249
-214.538	-117.659	-0.434	0.100
-213.523	-92.870	-0.072	0.026
-212.509	239.701	0.072	-0.156
-211.494	-109.644	0.160	0.043
-210.479	-64.856	-0.171	0.089
-209.465	86.966	-0.186	-0.266
-208.450	-200.000	-0.111	0.837
-207.436	-84.796	0.558	0.226
-206.421	99.244	0.105	0.158
-205.406	-37.647	0.298	0.205
-204.392	-142.371	0.076	0.010
-203.377	-169.615	0.642	0.030
-202.363	-38.574	0.207	0.141
-201.348	800.000	-0.070	0.276
-200.333	384.005	-0.048	0.129
-199.319	-100.215	0.465	-0.149
-198.304	-141.112	0.180	0.024
-197.290	-91.078	0.416	0.154
-196.275	-11.009	0.429	-0.366
-195.260	19.167	-0.257	-0.266
-194.246	71.681	-0.088	-0.119
-193.231	143.122	0.230	0.396
-192.217	800.000	-0.015	0.071
-191.202	178.149	-0.180	-0.341
-190.187	-102.973	-0.357	-0.109
-189.173	800.000	-0.052	0.234
-188.158	-164.588	-0.480	-0.028
-187.144	-181.949	-0.359	-0.009
-186.129	214.739	-0.142	-0.292
-185.114	-97.256	0.562	-0.189
-184.100	-134.049	-0.223	0.035
-183.085	62.185	-0.196	-0.254
-182.071	-124.850	0.394	0.078
-181.056	66.843	-0.182	0.240
-180.042	-29.969	0.214	0.157
-179.027	173.509	0.232	-0.434
-178.012	-122.881	0.140	-0.029
-176.998	-200.000	0.010	-0.170
-175.983	50.938	0.090	-0.110
-174.969	155.457	0.171	-0.305
-173.954	-17.763	0.139	-0.113
-172.939	204.061	-0.104	0.209
-171.925	-115.303	0.703	0.170
-170.910	-38.983	0.040	-0.027
-169.896	358.947	-0.077	0.199
-168.881	167.825	-0.050	0.091
-167.866	-43.213	-0.010	-0.007
-166.852	-19.328	0.335	0.268
-165.837	-200.000	0.015	0.161
-164.823	-200.000	0.011	0.235
-163.808	-124.812	-0.150	-0.030
-162.793	73.735	-0.284	0.385
-161.779	-105.092	-0.070	-0.021
-160.764	0.488	-0.321	0.297
-159.750	211.541	0.139	-0.284
-158.735	-122.355	0.185	0.039
-157.720	-67.730	0.216	0.109
-156.706	3.581	-0.273	0.257
-155.691	117.080	0.137	0.218
-154.677	-102.732	-0.226	-0.069
-153.662	90.637	-0.159	0.231
-152.647	124.761	0.148	-0.242
-151.633	-51.152	0.306	0.185
-150.618	-56.048	-0.105	0.060
-149.604	-57.976	-0.299	0.168
-148.589	-8.106	-0.147	-0.128
-147.574	-166.451	0.506	-0.027
-146.560	593.904	0.077	-0.246
-145.545	-173.249	0.151	-0.006
-144.531	-67.978	0.180	0.090
-143.516	218.256	-0.149	0.308
-142.502	-196.147	0.308	0.003
-141.487	800.000	-0.055	0.292
-140.472	-13.613	-0.333	0.278
-139.458	184.406	-0.107	0.206
-138.443	-200.000	-0.043	-0.256
-137.429	-151.034	0.352	-0.034
-136.414	-118.785	-0.260	0.059
-135.399	800.000	0.146	-0.610
-134.385	-173.851	0.186	0.007
-133.370	-60.905	-0.408	0.222
-132.356	171.774	-0.070	0.131
-131.341	-166.312	0.380	0.020
-130.326	-159.883	0.674	0.047
-129.312	-135.205	0.304	-0.047
-128.297	170.801	0.292	-0.542
-127.283	-90.698	0.401	-0.149
-126.268	-21.139	0.421	-0.332
-125.253	-99.269	0.398	-0.129
-124.239	-76.623	-0.208	-0.094
-123.224	200.984	0.193	-0.385
-122.210	-200.000	-0.019	-0.355
