DTS Sentinel unit serial number:	SN409020Multiplexer serial number:	ORYXHardware model number:	OX4-SRSoftware version number:	ORYX F/W v3.00 Oryx Data Collector v3.7.2.0data status	okinstallation	HaddamTimeLapsedifferential loss correction	single-endedforward channel	channel 3reverse channel	N/Adate	2011/06/21time	20:46:17forward acquisition time	30.00reverse acquisition time	0.00gamma	498.7831k internal	0.1772k external	0.1772temperature offset calibration	1.0074default loss term (dB/km)	0.3790temperature slope calibration	1.3530multiplexer offset coefficient	1.0000multiplexer slope coefficient	1.0000fibre end	0.00T internal ref (°C)	28.84T ext. ref 1 (°C)	21.41T ext. ref 2 (°C)	0.03length (m)	temperature (°C)	Stokes	anti-Stokes-747.200	-31.117	0.058	0.043
-746.185	-200.000	0.044	0.498
-745.171	-200.000	0.018	0.632
-744.156	-28.841	0.261	0.197
-743.142	-122.078	-0.277	0.059
-742.127	260.465	0.283	0.645
-741.112	-138.062	-0.478	-0.069
-740.098	63.504	0.130	0.171
-739.083	40.509	0.250	-0.296
-738.069	-200.000	-0.063	0.436
-737.054	-133.390	-0.284	0.047
-736.039	61.141	-0.447	0.584
-735.025	800.000	0.069	-0.358
-734.010	-121.503	-0.375	-0.081
-732.996	-141.790	-0.535	0.070
-731.981	-200.000	0.038	-0.342
-730.966	256.594	0.109	-0.248
-729.952	-53.439	-0.301	-0.180
-728.937	-149.233	-0.475	-0.049
-727.923	-35.239	-0.227	-0.162
-726.908	-200.000	-0.010	0.108
-725.894	-72.007	0.193	-0.094
-724.879	93.619	0.015	0.023
-723.864	-50.055	0.415	-0.257
-722.850	413.319	0.064	-0.180
-721.835	-51.398	-0.409	0.250
-720.821	800.000	-0.171	-0.734
-719.806	5.638	0.152	-0.147
-718.791	-82.758	-0.331	0.140
-717.777	-93.002	-0.056	0.021
-716.762	97.695	0.079	0.119
-715.748	-133.488	-0.308	-0.050
-714.733	-76.804	0.139	0.064
-713.718	-168.937	-0.437	-0.021
-712.704	800.000	0.009	-0.040
-711.689	19.428	-0.059	-0.062
-710.675	571.425	-0.169	-0.542
-709.660	-184.886	-0.180	-0.004
-708.645	74.106	-0.200	0.275
-707.631	415.756	0.049	0.139
-706.616	-107.020	0.156	0.045
-705.602	393.982	0.203	-0.556
-704.587	7.505	0.197	-0.193
-703.572	-200.000	0.022	0.163
-702.558	297.374	0.135	0.327
-701.543	-108.071	0.214	-0.060
-700.529	-41.285	0.255	0.172
-699.514	-99.093	0.257	-0.085
-698.499	-113.549	0.408	0.104
-697.485	169.026	-0.081	0.151
-696.470	460.088	0.140	-0.411
-695.456	9.157	-0.068	0.067
-694.441	314.216	0.049	-0.121
-693.426	-200.000	0.026	-0.547
-692.412	-30.113	0.152	-0.113
-691.397	-200.000	-0.009	-0.185
-690.383	320.606	-0.160	0.399
-689.368	800.000	-0.028	0.151
-688.354	-43.225	0.158	-0.104
-687.339	-200.000	0.031	-0.283
-686.324	-1.173	-0.342	-0.317
-685.310	27.523	0.054	-0.059
-684.295	-132.001	-0.339	-0.057
-683.281	-171.652	-0.511	0.022
-682.266	567.854	0.014	-0.044
-681.251	-80.434	0.423	0.184
-680.237	800.000	-0.175	-0.664
-679.222	29.057	0.111	0.123
-678.208	-92.740	0.648	0.236
-677.193	-175.682	-0.424	-0.015
-676.178	800.000	-0.087	0.320
-675.164	-0.856	0.139	-0.129
-674.149	-164.234	-0.160	-0.009
-673.135	-114.971	-0.101	-0.025
-672.120	-143.821	-0.541	0.066
-671.105	177.151	-0.033	-0.063
-670.091	-172.272	0.074	0.003
-669.076	-80.762	-0.559	0.242
-668.062	55.687	0.093	-0.118
-667.047	-86.076	-0.281	-0.113
-666.032	206.983	0.067	-0.137
-665.018	-117.053	-0.207	-0.049
-664.003	-200.000	0.009	0.150
-662.989	-200.000	0.051	0.390
-661.974	-161.619	-0.285	0.019
-660.959	-200.000	-0.010	0.201
-659.945	-104.476	-0.333	-0.100
-658.930	-80.027	-0.334	0.146
-657.916	-146.982	-0.320	0.035
-656.901	800.000	-0.048	-0.198
-655.886	28.966	0.102	-0.113
-654.872	26.557	-0.043	0.047
-653.857	355.731	0.047	-0.122
-652.843	336.536	-0.078	-0.198
-651.828	-66.289	0.058	0.030
-650.814	413.651	-0.174	-0.486
-649.799	-134.116	-0.507	-0.081
-648.784	24.042	0.165	-0.178
-647.770	109.907	0.216	0.339
-646.755	-127.984	-0.200	0.037
-645.741	-200.000	0.037	0.239
-644.726	-172.851	-0.190	-0.008
-643.711	800.000	0.027	-0.136
-642.697	-200.000	0.046	-0.492
-641.682	-57.951	-0.290	0.165
-640.668	-51.237	-0.238	-0.145
-639.653	-130.616	0.416	-0.073
-638.638	516.422	-0.168	0.515
-637.624	-200.000	-0.001	0.016
-636.609	-88.628	-0.185	0.072
-635.595	45.571	0.320	-0.387
-634.580	-24.852	0.397	0.308
-633.565	-150.552	0.618	-0.061
-632.551	-200.000	-0.050	0.354
-631.536	-200.000	0.018	0.211
-630.522	373.887	0.097	0.258
-629.507	-100.628	0.126	-0.040
-628.492	-103.488	-0.336	0.103
-627.478	273.956	0.043	0.100
-626.463	-200.000	-0.002	-0.142
-625.449	-200.000	-0.098	-0.619
-624.434	-200.000	0.042	0.375
-623.419	-138.320	0.148	-0.021
-622.405	49.258	0.206	-0.253
-621.390	49.210	-0.131	0.161
-620.376	-15.918	0.157	-0.131
-619.361	800.000	-0.052	0.230
-618.346	364.100	-0.081	0.214
-617.332	419.710	0.082	-0.231
-616.317	-200.000	0.053	0.402
-615.303	-143.479	-0.681	0.084
-614.288	338.215	-0.083	0.211
-613.273	800.000	0.109	-0.403
-612.259	548.523	0.076	0.240
-611.244	-99.895	-0.447	-0.145
-610.230	-24.918	0.126	0.097
-609.215	6.680	-0.028	0.027
-608.201	198.787	0.104	0.208
-607.186	31.784	0.168	-0.189
-606.171	114.999	-0.299	-0.477
-605.157	268.590	0.103	0.236
-604.142	800.000	0.145	0.737
-603.128	-118.449	-0.140	-0.032
-602.113	104.085	0.297	0.457
-601.098	137.395	-0.278	0.476
-600.084	317.081	-0.055	-0.137
-599.069	63.217	-0.185	-0.242
-598.055	-17.926	0.147	-0.120
-597.040	-97.072	0.130	0.044
-596.025	70.394	0.362	-0.489
-595.011	478.980	-0.085	-0.253
-593.996	-40.522	0.304	0.206
-592.982	343.778	0.111	-0.286
-591.967	800.000	0.056	0.260
-590.952	-200.000	-0.002	0.157
-589.938	-136.355	-0.311	-0.047
-588.923	-180.931	0.431	-0.011
-587.909	-42.053	0.222	0.148
-586.894	-78.769	0.351	-0.156
-585.879	-138.306	0.140	0.020
-584.865	91.905	0.144	0.212
-583.850	-113.848	0.360	0.091
-582.836	291.867	0.144	0.343
-581.821	-139.752	0.322	0.044
-580.806	215.471	-0.102	-0.212
-579.792	382.338	0.206	-0.555
-578.777	3.348	0.156	-0.148
-577.763	24.762	-0.152	-0.164
-576.748	-144.854	-0.015	-0.002
-575.733	-200.000	0.032	0.455
-574.719	154.868	0.097	-0.174
-573.704	800.000	-0.126	-0.458
-572.690	88.822	0.100	-0.145
-571.675	145.765	-0.218	0.381
-570.661	800.000	-0.057	0.235
-569.646	-112.604	0.188	0.049
-568.631	800.000	-0.062	0.286
-567.617	7.600	-0.051	-0.050
-566.602	511.077	-0.060	0.184
-565.588	-73.563	0.308	0.146
-564.573	-62.775	-0.706	-0.380
-563.558	38.757	-0.121	-0.140
-562.544	-49.509	0.164	-0.102
-561.529	256.194	0.118	-0.264
-560.515	-98.675	-0.049	-0.016
-559.500	192.725	-0.207	-0.409
-558.485	800.000	0.093	-0.350
-557.471	-35.178	0.071	-0.050
-556.456	-200.000	0.017	0.268
-555.442	-71.934	-0.412	0.199
-554.427	173.773	-0.070	-0.132
-553.412	328.730	0.104	-0.261
-552.398	-121.050	-0.436	0.094
-551.383	141.871	-0.177	0.307
-550.369	257.613	-0.159	-0.358
-549.354	-142.157	0.523	0.067
-548.339	-117.054	0.495	-0.117
-547.325	-42.860	0.352	0.233
-546.310	-200.000	0.008	-0.085
-545.296	800.000	0.051	-0.257
-544.281	97.158	-0.115	0.172
-543.266	367.573	-0.061	-0.162
-542.252	-78.343	0.490	0.218
-541.237	-166.416	0.422	0.023
-540.223	28.131	0.266	-0.293
-539.208	-106.224	0.148	0.043
-538.193	-200.000	0.018	-0.124
-537.179	22.262	-0.427	-0.454
-536.164	-61.385	-0.177	0.096
-535.150	7.737	-0.249	0.243
-534.135	-48.834	0.049	-0.030
-533.121	-200.000	0.019	-0.279
-532.106	441.333	-0.160	-0.459
-531.091	-91.442	0.426	0.157
-530.077	-108.000	0.167	0.047
-529.062	355.325	-0.158	-0.411
-528.048	-104.420	-0.179	0.054
-527.033	-49.423	-0.107	0.066
-526.018	-42.694	0.416	-0.275
-525.004	18.179	-0.226	0.235
-523.989	-13.630	-0.111	0.094
-522.975	-25.112	-0.347	-0.267
-521.960	-159.732	0.073	-0.005
-520.945	-95.690	0.507	-0.176
-519.931	72.800	-0.191	0.260
-518.916	-200.000	-0.019	0.109
-517.902	-10.166	0.034	-0.029
-516.887	210.197	0.106	0.217
-515.872	274.294	-0.146	0.338
-514.858	373.883	0.077	0.204
-513.843	-177.693	-0.290	0.009
-512.829	800.000	0.063	0.358
-511.814	146.682	-0.107	-0.188
-510.799	-3.435	-0.353	0.319
-509.785	118.694	0.174	0.279
-508.770	193.721	-0.199	-0.393
-507.756	145.564	-0.105	-0.183
-506.741	-24.839	-0.102	0.079
-505.726	-84.884	0.040	0.016
-504.712	-90.758	0.427	-0.159
-503.697	109.938	-0.234	0.365
-502.683	15.672	0.455	-0.465
-501.668	25.640	-0.102	0.110
-500.653	-131.198	-0.222	-0.038
-499.639	200.104	-0.142	0.284
-498.624	-59.068	0.444	0.248
-497.610	4.855	-0.111	0.106
-496.595	-59.158	0.252	0.141
-495.581	-97.540	0.165	-0.055
-494.566	-117.362	-0.069	0.016
-493.551	116.276	-0.233	0.373
-492.537	-200.000	-0.025	0.406
-491.522	-125.873	0.449	0.087
-490.508	-128.318	-0.255	-0.047
-489.493	150.020	-0.301	-0.531
-488.478	-28.514	-0.114	0.086
-487.464	-104.360	0.461	-0.138
-486.449	103.226	-0.278	0.424
-485.435	493.852	-0.034	0.103
-484.420	-116.577	-0.340	-0.081
-483.405	-13.517	0.070	-0.059
-482.391	64.255	0.142	-0.186
-481.376	102.528	-0.125	-0.191
-480.362	-200.000	0.056	0.338
-479.347	4.688	-0.324	-0.309
-478.332	-73.855	-0.403	-0.190
-477.318	31.325	-0.296	0.330
-476.303	244.958	-0.042	0.091
-475.289	157.205	-0.128	-0.231
-474.274	-117.214	-0.461	0.108
-473.259	800.000	-0.137	0.649
-472.245	-45.284	0.234	0.150
-471.230	-131.103	0.172	-0.029
-470.216	800.000	0.059	0.284
-469.201	-50.201	0.281	-0.172
-468.186	128.402	0.278	0.460
-467.172	193.173	-0.147	0.290
-466.157	10.637	0.151	0.149
-465.143	-200.000	-0.022	0.139
-464.128	-17.067	0.456	0.373
-463.113	-86.314	-0.183	0.073
-462.099	-64.345	-0.380	-0.200
-461.084	-16.182	-0.080	0.066
-460.070	-200.000	0.052	0.349
-459.055	-63.773	-0.407	-0.216
-458.040	182.230	0.211	-0.405
-457.026	-117.177	0.139	0.033
-456.011	36.377	0.111	0.127
-454.997	337.075	-0.186	-0.470
-453.982	-46.516	-0.314	-0.199
-452.968	110.946	0.450	0.704
-451.953	300.239	0.110	-0.264
-450.938	-54.023	0.216	-0.127
-449.924	372.389	0.075	-0.199
-448.909	-101.890	0.310	-0.097
-447.895	426.312	-0.122	0.344
-446.880	800.000	0.092	0.349
-445.865	285.874	0.022	-0.052
-444.851	-137.455	-0.555	0.081
-443.836	115.644	-0.295	-0.470
-442.822	-125.715	0.274	0.053
-441.807	-200.000	0.021	-0.273
-440.792	-110.432	-0.252	0.067
-439.778	-123.164	-0.539	0.111
-438.763	-139.286	-0.090	0.012
-437.749	320.202	0.096	0.236
-436.734	-119.680	-0.083	-0.019
-435.719	-31.710	0.269	-0.195
-434.705	800.000	-0.070	-0.340
-433.690	-71.695	-0.089	0.043
-432.676	800.000	0.028	-0.114
-431.661	800.000	-0.026	0.100
-430.646	89.296	-0.182	0.264
-429.632	313.767	0.027	0.067
-428.617	-125.262	0.633	-0.124
-427.603	-119.627	0.172	-0.038
-426.588	-200.000	-0.009	0.300
-425.573	-55.753	-0.476	0.275
-424.559	-56.799	-0.187	0.107
-423.544	800.000	-0.055	0.258
-422.530	-150.574	0.169	-0.017
-421.515	-84.249	0.052	0.021
-420.500	-22.499	-0.180	-0.141
-419.486	676.346	-0.186	-0.630
-418.471	-5.234	-0.272	0.242
-417.457	128.709	-0.203	0.335
-416.442	-200.000	0.043	0.633
-415.428	447.046	-0.290	-0.830
-414.413	712.602	-0.071	0.246
-413.398	-44.088	-0.416	0.270
-412.384	68.072	-0.096	-0.128
-411.369	295.233	0.059	0.142
-410.355	240.928	-0.040	0.088
-409.340	102.218	-0.147	0.223
-408.325	39.298	0.164	0.190
-407.311	-200.000	0.003	-0.773
-406.296	79.275	0.059	0.082
-405.282	158.181	0.117	0.211
-404.267	231.514	0.099	0.212
-403.252	-200.000	-0.007	-0.369
-402.238	70.332	-0.443	0.593
-401.223	311.735	0.152	-0.372
-400.209	248.140	0.420	-0.923
-399.194	-67.233	0.317	-0.161
-398.179	-141.523	-0.302	-0.039
-397.165	-0.964	-0.372	-0.341
-396.150	-133.902	0.189	0.030
-395.136	369.607	0.017	-0.046
-394.121	209.501	-0.221	0.450
-393.106	330.072	-0.127	0.319
-392.092	83.428	0.153	0.216
-391.077	-112.718	-0.464	-0.118
-390.063	489.025	0.075	0.223
-389.048	-200.000	-0.003	0.577
-388.033	800.000	-0.114	0.454
-387.019	162.236	0.019	0.035
-386.004	10.203	-0.184	-0.181
-384.990	90.735	0.092	-0.133
-383.975	107.306	-0.074	0.114
-382.960	231.849	0.163	0.348
-381.946	23.970	-0.264	-0.282
-380.931	-57.213	-0.506	-0.287
-379.917	-134.523	-0.239	0.037
-378.902	-51.613	-0.329	-0.198
-377.888	-124.722	-0.437	-0.087
-376.873	800.000	-0.059	0.292
-375.858	800.000	-0.082	-0.419
-374.844	-71.667	0.255	-0.123
-373.829	783.962	0.132	-0.472
-372.815	288.084	0.060	-0.140
-371.800	-71.016	0.134	-0.065
-370.785	-28.776	0.365	-0.271
-369.771	-193.255	0.230	-0.003
-368.756	-119.546	-0.375	-0.083
-367.742	-158.360	0.288	0.021
-366.727	208.822	0.099	0.200
-365.712	-84.197	-0.198	0.081
-364.698	-200.000	-0.002	-0.278
-363.683	-111.022	0.253	0.067
-362.669	466.021	0.116	0.337
-361.654	-6.735	-0.274	0.241
-360.639	-1.414	-0.261	-0.238
-359.625	-115.417	0.921	-0.223
-358.610	65.020	0.142	-0.186
-357.596	539.297	-0.260	-0.806
-356.581	-46.383	0.301	-0.190
-355.566	47.772	-0.041	-0.050
-354.552	-160.840	-0.396	0.027
-353.537	-97.159	0.452	0.152
-352.523	71.273	0.297	-0.399
-351.508	-144.631	-0.126	0.015
-350.493	-6.869	0.242	-0.213
-349.479	531.394	0.106	0.325
-348.464	105.255	0.275	0.421
-347.450	403.518	-0.076	-0.209
-346.435	-23.635	-0.418	-0.324
-345.420	17.560	0.318	0.327
-344.406	-125.481	0.263	0.051
-343.391	173.828	0.264	-0.494
-342.377	800.000	-0.044	0.161
-341.362	-142.915	0.153	-0.019
-340.348	-200.000	0.026	-0.170
-339.333	-107.199	-0.030	-0.008
-338.318	-65.784	0.255	0.131
-337.304	-45.770	0.125	0.080
-336.289	-133.622	0.109	-0.018
-335.275	-37.085	0.188	0.130
-334.260	-45.180	-0.074	-0.047
-333.245	800.000	-0.009	-0.039
-332.231	-85.655	0.294	0.117
-331.216	595.175	-0.116	-0.374
-330.202	800.000	0.050	0.189
-329.187	0.577	-0.331	0.306
-328.172	-148.597	-0.381	0.040
-327.158	-44.487	-0.236	0.152
-326.143	-72.057	0.147	0.070
-325.129	127.984	0.312	0.513
-324.114	-200.000	0.051	-0.490
-323.099	-23.731	-0.421	-0.325
-322.085	800.000	0.059	0.240
-321.070	-173.033	-0.031	0.001
-320.056	-95.927	-0.689	-0.236
-319.041	-153.055	-0.150	0.013
-318.026	63.650	0.163	-0.211
-317.012	-200.000	-0.018	0.233
-315.997	800.000	0.052	-0.195
-314.983	-200.000	0.052	-0.384
-313.968	-200.000	0.039	0.257
-312.953	-47.250	-0.409	0.257
-311.939	7.451	-0.307	0.296
-310.924	-31.674	0.124	0.090
-309.910	112.657	-0.111	0.173
-308.895	-130.301	-0.226	-0.039
-307.880	-49.170	0.604	-0.372
-306.866	-141.739	0.245	-0.031
-305.851	-179.960	0.297	0.008
-304.837	800.000	0.059	0.275
-303.822	-76.332	-0.423	-0.191
-302.807	-131.964	0.496	0.083
-301.793	-200.000	0.059	0.460
-300.778	-190.254	-0.315	-0.004
-299.764	259.391	0.133	-0.298
-298.749	-174.930	0.591	-0.021
-297.735	800.000	0.209	-0.835
-296.720	-99.079	-0.186	0.060
-295.705	-200.000	-0.022	0.158
-294.691	83.897	0.231	-0.326
-293.676	235.780	0.238	0.509
-292.662	26.493	-0.151	-0.162
-291.647	-105.245	-0.823	-0.241
-290.632	-200.000	0.007	-0.273
-289.618	-90.367	0.096	-0.036
-288.603	-28.172	0.048	-0.036
-287.589	0.708	0.375	-0.346
-286.574	-200.000	0.033	0.594
-285.559	800.000	0.045	-0.189
-284.545	123.190	-0.071	0.114
-283.530	-200.000	0.003	0.242
-282.516	58.761	0.153	0.195
-281.501	213.882	0.081	0.165
-280.486	521.724	0.075	0.228
-279.472	-21.358	0.140	0.110
-278.457	-200.000	-0.029	0.267
-277.443	-152.480	-0.517	0.047
-276.428	-38.671	-0.222	0.151
-275.413	695.731	-0.186	0.634
-274.399	172.354	-0.019	-0.035
-273.384	-17.794	0.318	0.257
-272.370	-107.087	-0.690	0.195
-271.355	-62.679	0.335	-0.178
-270.340	-197.389	0.344	0.003
-269.326	7.282	0.051	-0.049
-268.311	-81.439	0.271	-0.114
-267.297	8.212	-0.272	-0.263
-266.282	-153.334	-0.625	-0.055
-265.267	-138.661	0.185	0.026
-264.253	-79.961	0.272	-0.117
-263.238	207.686	-0.089	0.179
-262.224	150.578	-0.102	0.178
-261.209	-65.338	-0.238	-0.123
-260.195	-10.101	-0.382	0.327
-259.180	-55.745	-0.068	-0.039
-258.165	783.425	0.113	-0.403
-257.151	279.273	-0.074	-0.171
-256.136	-122.099	-0.242	0.051
-255.122	-200.000	0.023	0.273
-254.107	81.710	0.017	-0.024
-253.092	490.802	-0.057	-0.168
-252.078	40.203	-0.278	-0.323
-251.063	119.632	-0.150	0.240
-250.049	-174.533	0.475	0.017
-249.034	-141.024	-0.297	0.039
-248.019	800.000	0.098	-0.422
-247.005	-185.398	-0.475	0.009
-245.990	-71.874	0.196	-0.093
-244.976	-200.000	0.013	0.147
-243.961	-152.969	0.568	0.051
-242.946	-32.308	-0.269	0.193
-241.932	-35.160	0.116	0.081
-240.917	-135.970	0.269	0.040
-239.903	-200.000	-0.045	-0.345
-238.888	565.916	0.107	0.336
-237.873	-61.146	-0.208	0.112
-236.859	-51.999	-0.192	0.114
-235.844	58.928	0.161	0.204
-234.830	-8.597	-0.183	-0.158
-233.815	-84.349	-0.273	0.111
-232.800	3.334	0.372	-0.349
-231.786	77.193	0.178	0.243
-230.771	-120.283	0.440	-0.096
-229.757	-31.842	-0.344	-0.248
-228.742	719.810	0.158	-0.542
-227.727	-199.184	-0.308	-0.002
-226.713	-165.202	-0.405	0.023
-225.698	-81.000	-0.367	0.156
-224.684	-156.987	0.443	0.034
-223.669	368.382	-0.158	-0.413
-222.655	42.866	0.249	0.292
-221.640	-200.000	-0.065	-0.479
-220.625	-112.815	-0.544	-0.138
-219.611	800.000	0.155	-0.586
-218.596	800.000	0.056	0.285
-217.582	419.605	0.108	0.298
-216.567	14.611	-0.237	-0.238
-215.552	-122.139	0.077	-0.016
-214.538	-146.335	-0.270	0.030
-213.523	-200.000	0.021	-0.227
-212.509	-66.822	0.217	-0.110
-211.494	-86.816	0.129	-0.050
-210.479	-78.189	0.266	0.117
-209.465	-6.271	-0.457	-0.400
-208.450	-147.798	0.358	-0.038
-207.436	-97.599	0.406	-0.134
-206.421	-122.697	0.156	-0.032
-205.406	-200.000	-0.011	-0.523
-204.392	-84.529	-0.528	0.213
-203.377	305.582	0.090	0.216
-202.363	-200.000	0.168	0.000
-201.348	-147.482	-0.151	-0.016
-200.333	597.526	0.012	-0.040
-199.319	-54.415	-0.108	0.062
-198.304	266.842	-0.220	-0.495
-197.290	-134.562	0.165	0.026
-196.275	391.615	-0.039	-0.104
-195.260	-1.654	0.131	-0.119
-194.246	-190.353	0.392	0.005
-193.231	135.753	-0.242	-0.406
-192.217	-110.694	-0.271	-0.071
-191.202	-200.000	0.044	0.537
-190.187	520.333	0.149	0.452
-189.173	800.000	0.117	-0.417
-188.158	-105.182	-0.724	-0.211
-187.144	-200.000	0.032	0.355
-186.129	-71.760	-0.256	0.122
-185.114	447.423	-0.116	-0.328
-184.100	-71.542	-0.464	0.222
-183.085	-68.067	0.114	0.057
-182.071	-200.000	-0.038	0.520
-181.056	-134.541	0.218	0.034
-180.042	-182.734	-0.096	-0.002
-179.027	24.525	-0.130	-0.138
-178.012	223.399	0.155	0.321
-176.998	-44.690	-0.154	0.098
-175.983	24.716	0.198	-0.210
-174.969	111.864	0.117	0.181
-173.954	-121.518	0.304	-0.064
-172.939	302.443	-0.080	0.191
-171.925	800.000	-0.046	-0.204
-170.910	-30.535	0.344	-0.249
-169.896	-200.000	-0.022	-0.381
-168.881	-41.359	-0.250	-0.165
-167.866	271.082	0.190	-0.431
-166.852	-53.580	0.232	0.136
-165.837	91.101	0.233	0.335
-164.823	-129.186	-0.043	-0.008
-163.808	-20.301	-0.384	-0.303
-162.793	-80.048	-0.283	0.121
-161.779	800.000	0.099	-0.379
-160.764	-53.324	0.451	-0.265
-159.750	-200.000	0.022	0.660
-158.735	-200.000	0.009	0.442
-157.720	52.369	0.088	-0.108
-156.706	-158.224	0.536	0.040
-155.691	-152.733	0.503	-0.045
-154.677	72.624	-0.091	0.121
-153.662	-200.000	-0.024	-0.247
-152.647	-200.000	0.002	0.041
-151.633	8.926	0.358	-0.346
-150.618	-43.403	0.198	0.128
-149.604	-157.559	0.327	-0.025
-148.589	800.000	0.042	-0.225
-147.574	-138.601	0.186	-0.026
-146.560	-63.121	-0.283	-0.149
-145.545	-109.523	-0.614	0.165
-144.531	800.000	0.027	-0.109
-143.516	297.363	0.172	0.406
-142.502	-121.980	-0.200	-0.042
-141.487	-115.150	0.238	-0.058
-140.472	-83.363	0.083	-0.034
-139.458	213.761	0.147	0.298
-138.443	-200.000	0.053	-0.400
-137.429	-21.180	-0.175	-0.137
-136.414	-104.808	0.445	-0.130
-135.399	-82.445	0.151	0.062
-134.385	72.718	0.155	0.208
-133.370	380.070	-0.118	-0.313
-132.356	-183.512	0.223	0.005
-131.341	127.558	-0.239	0.390
-130.326	-25.826	0.414	0.312
-129.312	-31.268	0.381	0.274
-128.297	154.703	0.082	0.145
-127.283	-108.727	0.129	-0.035
-126.268	-108.316	-0.405	0.111
-125.253	363.756	0.384	-0.995
-124.239	179.118	0.030	0.057
-123.224	-46.019	0.266	0.168
-122.210	400.738	-0.058	0.157
-121.195	-200.000	0.002	-0.421
