DTS Sentinel unit serial number:	SN409020Multiplexer serial number:	ORYXHardware model number:	OX4-SRSoftware version number:	ORYX F/W v3.00 Oryx Data Collector v3.7.2.0data status	okinstallation	HaddamTimeLapsedifferential loss correction	single-endedforward channel	channel 3reverse channel	N/Adate	2011/06/22time	04:26:17forward acquisition time	30.00reverse acquisition time	0.00gamma	498.7831k internal	0.1752k external	0.1752temperature offset calibration	1.0074default loss term (dB/km)	0.3790temperature slope calibration	1.3530multiplexer offset coefficient	1.0000multiplexer slope coefficient	1.0000fibre end	0.00T internal ref (°C)	22.69T ext. ref 1 (°C)	18.19T ext. ref 2 (°C)	0.12length (m)	temperature (°C)	Stokes	anti-Stokes-747.200	-107.174	-0.038	0.011
-746.185	224.424	0.202	0.435
-745.171	-116.601	0.152	-0.037
-744.156	449.343	0.145	0.427
-743.142	-200.000	-0.023	0.319
-742.127	-75.902	0.900	0.421
-741.112	-69.240	0.237	0.121
-740.098	-200.000	0.016	0.585
-739.083	-76.334	0.431	-0.200
-738.069	-200.000	0.012	0.186
-737.054	-75.037	-0.182	-0.086
-736.039	431.997	-0.070	-0.203
-735.025	-119.830	0.263	0.060
-734.010	408.213	0.276	-0.779
-732.996	113.017	0.231	0.373
-731.981	19.717	0.110	-0.118
-730.966	271.881	0.215	0.504
-729.952	-25.484	0.148	-0.116
-728.937	726.513	0.097	0.344
-727.923	-60.780	-0.427	0.239
-726.908	113.805	-0.257	0.415
-725.894	119.563	0.120	0.197
-724.879	800.000	0.082	0.318
-723.864	65.563	0.187	0.252
-722.850	-92.028	0.073	0.027
-721.835	-3.349	0.109	0.101
-720.821	-200.000	-0.064	-0.474
-719.806	-117.401	0.452	-0.108
-718.791	151.119	-0.119	-0.214
-717.777	-0.572	-0.256	-0.241
-716.762	50.096	-0.134	-0.167
-715.748	269.213	0.055	0.128
-714.733	-6.274	-0.434	0.393
-713.718	66.182	0.182	0.245
-712.704	243.341	-0.188	-0.419
-711.689	-106.831	-0.482	0.141
-710.675	775.733	0.151	-0.549
-709.660	-111.290	-0.232	-0.062
-708.645	-77.530	-0.490	0.224
-707.631	501.324	-0.091	-0.281
-706.616	-200.000	0.016	-0.173
-705.602	189.880	-0.167	0.334
-704.587	773.490	-0.053	0.194
-703.572	800.000	0.067	-0.258
-702.558	-87.748	-0.246	-0.098
-701.543	267.503	0.097	0.225
-700.529	50.180	0.293	-0.367
-699.514	-93.070	-0.263	-0.096
-698.499	-182.592	-0.378	-0.009
-697.485	-65.379	-0.154	0.082
-696.470	-200.000	-0.166	0.000
-695.456	-126.973	-0.242	-0.047
-694.441	188.289	-0.117	-0.233
-693.426	229.125	0.244	-0.529
-692.412	-23.176	-0.186	0.148
-691.397	499.915	0.110	0.338
-690.383	-90.147	0.128	-0.049
-689.368	-200.000	0.042	-0.355
-688.354	63.050	-0.195	-0.259
-687.339	-77.202	-0.317	0.145
-686.324	17.845	-0.185	0.195
-685.310	-73.145	0.202	0.098
-684.295	-65.256	0.185	-0.098
-683.281	-120.924	0.264	-0.058
-682.266	-129.353	0.584	0.106
-681.251	98.198	0.139	-0.213
-680.237	-200.000	0.023	0.162
-679.222	358.515	0.119	0.317
-678.208	149.919	-0.149	-0.268
-677.193	-120.190	-0.473	-0.106
-676.178	-200.000	0.046	-0.440
-675.164	53.157	0.429	-0.545
-674.149	-157.903	-0.466	-0.036
-673.135	-88.380	0.428	-0.168
-672.120	169.914	0.298	-0.565
-671.105	61.271	0.140	-0.184
-670.091	-16.303	-0.160	0.134
-669.076	267.867	0.083	0.193
-668.062	-97.938	-0.124	-0.042
-667.047	-200.000	-0.026	-0.195
-666.032	-82.786	0.113	-0.048
-665.018	-200.000	0.007	-0.187
-664.003	-46.389	-0.168	0.109
-662.989	-158.843	-0.259	0.019
-661.974	270.007	-0.254	0.593
-660.959	-200.000	0.005	-0.254
-659.945	800.000	0.091	-0.342
-658.930	-79.489	0.440	-0.196
-657.916	-147.177	0.512	0.057
-656.901	19.446	0.274	0.291
-655.886	97.478	0.356	-0.541
-654.872	459.533	-0.226	-0.669
-653.857	-200.000	0.015	-0.250
-652.843	401.468	-0.225	0.629
-651.828	-72.123	0.055	0.027
-650.814	84.927	-0.139	0.202
-649.799	114.633	0.127	-0.205
-648.784	37.923	-0.136	0.160
-647.770	-97.619	0.513	0.175
-646.755	-150.074	0.322	0.033
-645.741	-86.835	-0.516	-0.207
-644.726	-158.429	-0.432	0.033
-643.711	33.955	-0.221	-0.255
-642.697	-32.245	-0.525	-0.387
-641.682	-45.996	-0.307	0.200
-640.668	-137.631	0.294	0.043
-639.653	-200.000	-0.019	0.228
-638.638	-79.894	-0.397	0.176
-637.624	95.619	0.041	-0.062
-636.609	255.995	0.163	0.372
-635.595	-100.190	0.073	0.024
-634.580	800.000	0.033	0.165
-633.565	282.891	-0.092	0.218
-632.551	19.774	0.293	0.312
-631.536	-3.573	0.153	0.140
-630.522	-103.420	0.326	0.101
-629.507	-51.065	-0.143	-0.089
-628.492	7.779	0.310	0.306
-627.478	168.837	-0.185	0.350
-626.463	-82.910	-0.220	0.093
-625.449	-11.433	0.270	-0.235
-624.434	-30.886	-0.129	-0.096
-623.419	-108.654	0.671	-0.189
-622.405	478.941	0.159	-0.478
-621.390	-16.031	-0.238	-0.199
-620.376	-140.689	-0.416	-0.056
-619.361	107.478	0.106	-0.167
-618.346	5.073	-0.459	-0.447
-617.332	-200.000	-0.041	0.300
-616.317	-43.141	-0.183	-0.122
-615.303	46.585	0.063	-0.077
-614.288	-161.248	0.216	-0.015
-613.273	-174.420	0.382	0.014
-612.259	-80.616	0.266	0.116
-611.244	-120.988	0.238	-0.052
-610.230	13.677	0.418	-0.428
-609.215	800.000	0.049	0.193
-608.201	-76.155	-0.588	-0.273
-607.186	341.759	-0.040	0.103
-606.171	254.118	0.028	0.063
-605.157	-10.816	-0.312	0.272
-604.142	111.817	0.197	-0.315
-603.128	-50.145	0.129	-0.080
-602.113	187.524	0.060	-0.119
-601.098	-35.456	0.343	0.246
-600.084	-52.936	-0.104	0.063
-599.069	-40.213	-0.200	-0.137
-598.055	-176.628	0.251	-0.008
-597.040	-130.712	0.231	-0.041
-596.025	18.885	-0.398	-0.421
-595.011	397.217	-0.060	-0.166
-593.996	-144.860	-0.189	0.023
-592.982	-87.682	0.300	-0.119
-591.967	-27.923	-0.433	-0.330
-590.952	800.000	-0.111	-0.426
-589.938	213.170	-0.040	-0.084
-588.923	24.498	-0.086	-0.094
-587.909	59.731	-0.278	-0.362
-586.894	-68.180	-0.432	0.221
-585.879	171.662	-0.148	0.282
-584.865	110.941	0.124	0.198
-583.850	-200.000	-0.002	0.349
-582.836	58.410	-0.220	0.286
-581.821	800.000	-0.097	0.483
-580.806	115.450	-0.033	0.053
-579.792	3.645	0.286	-0.275
-578.777	-57.043	0.397	-0.230
-577.763	-153.891	0.648	0.058
-576.748	-165.169	-0.417	-0.024
-575.733	-108.017	-0.368	-0.105
-574.719	-102.396	0.127	0.040
-573.704	-21.749	-0.195	0.157
-572.690	330.911	-0.129	0.330
-571.675	-93.103	-0.403	0.147
-570.661	-133.664	-0.217	0.035
-569.646	471.647	0.260	0.777
-568.631	-8.881	-0.241	0.213
-567.617	455.480	0.151	0.444
-566.602	-70.455	0.610	0.304
-565.588	-168.789	-0.425	0.021
-564.573	-23.948	-0.239	-0.188
-563.558	17.507	-0.105	-0.109
-562.544	-182.597	0.324	-0.008
-561.529	336.819	-0.163	0.418
-560.515	-87.556	0.120	0.048
-559.500	359.407	0.142	-0.376
-558.485	800.000	0.119	-0.448
-557.471	-51.183	0.117	0.072
-556.456	-87.493	0.296	-0.118
-555.442	800.000	-0.089	-0.332
-554.427	84.314	-0.110	0.158
-553.412	267.037	-0.087	0.201
-552.398	60.498	0.195	-0.255
-551.383	164.954	0.056	-0.104
-550.369	-38.296	0.281	-0.196
-549.354	96.340	0.275	-0.416
-548.339	-86.875	-0.371	-0.149
-547.325	111.480	-0.066	0.105
-546.310	174.041	-0.080	-0.153
-545.296	42.012	0.200	-0.240
-544.281	150.462	0.131	0.235
-543.266	-200.000	0.047	0.697
-542.252	-200.000	0.012	-0.319
-541.237	144.974	-0.087	-0.153
-540.223	-179.033	-0.246	-0.007
-539.208	15.703	0.310	0.320
-538.193	-153.995	0.213	0.019
-537.179	-200.000	-0.075	-1.012
-536.164	25.254	-0.362	-0.396
-535.150	-200.000	0.060	-0.589
-534.135	99.373	-0.051	0.078
-533.121	126.238	-0.280	-0.468
-532.106	-200.000	0.009	-0.256
-531.091	-85.344	-0.111	-0.045
-530.077	552.819	-0.068	0.215
-529.062	-144.277	0.392	-0.048
-528.048	-43.262	-0.375	0.249
-527.033	26.045	-0.225	-0.247
-526.018	58.681	0.113	0.147
-525.004	-163.868	0.279	-0.017
-523.989	-102.706	0.112	-0.035
-522.975	-0.991	-0.221	0.206
-521.960	416.622	0.108	-0.306
-520.945	452.989	0.126	0.369
-519.931	-0.187	-0.288	0.269
-518.916	-90.089	-0.313	-0.119
-517.902	752.240	-0.106	-0.378
-516.887	-130.867	0.143	0.025
-515.872	0.117	0.215	-0.202
-514.858	-69.733	0.249	-0.125
-513.843	1.806	-0.161	-0.152
-512.829	21.619	-0.338	0.361
-511.814	-163.228	0.261	-0.016
-510.799	-117.570	0.306	-0.072
-509.785	122.641	0.101	-0.167
-508.770	-149.329	-0.332	-0.034
-507.756	-46.869	0.468	-0.300
-506.741	-200.000	-0.047	0.417
-505.726	800.000	0.050	0.188
-504.712	794.262	-0.029	-0.106
-503.697	105.801	-0.091	0.142
-502.683	-143.134	0.199	-0.025
-501.668	-200.000	0.015	0.635
-500.653	44.864	-0.322	-0.390
-499.639	-96.420	-0.149	0.051
-498.624	-200.000	-0.036	-0.694
-497.610	-92.344	0.317	-0.117
-496.595	226.779	0.105	0.225
-495.581	417.121	-0.099	-0.280
-494.566	-200.000	-0.002	-0.629
-493.551	800.000	0.125	-0.604
-492.537	800.000	0.087	-0.469
-491.522	-5.812	0.305	0.274
-490.508	-47.671	0.351	0.223
-489.493	-200.000	0.044	-0.328
-488.478	-52.394	0.127	-0.077
-487.464	-39.017	0.274	-0.189
-486.449	-139.168	-0.326	-0.046
-485.435	800.000	0.065	0.248
-484.420	-200.000	-0.037	-0.455
-483.405	-92.528	-0.363	-0.133
-482.391	-8.765	0.433	-0.381
-481.376	-200.000	0.017	-0.136
-480.362	-19.704	0.025	-0.020
-479.347	-135.125	0.418	0.065
-478.332	726.125	0.119	0.421
-477.318	-104.287	-0.108	-0.033
-476.303	-70.099	0.177	-0.088
-475.289	-77.904	-0.312	-0.141
-474.274	-5.696	-0.183	-0.165
-473.259	-40.493	-0.126	-0.086
-472.245	207.591	0.108	-0.222
-471.230	800.000	0.087	-0.506
-470.216	68.485	0.089	0.120
-469.201	800.000	0.089	-0.328
-468.186	-200.000	-0.115	0.000
-467.172	-200.000	-0.020	0.145
-466.157	16.790	0.322	0.335
-465.143	8.507	-0.147	-0.145
-464.128	-65.457	0.698	-0.367
-463.113	-109.649	0.357	-0.098
-462.099	74.624	0.083	0.115
-461.084	-25.584	-0.355	0.275
-460.070	-138.420	0.072	-0.010
-459.055	-117.796	0.286	0.067
-458.040	7.087	0.115	0.112
-457.026	-91.465	-0.249	-0.093
-456.011	-48.755	-0.271	-0.170
-454.997	-40.173	0.402	-0.274
-453.982	800.000	-0.062	0.268
-452.968	27.487	-0.217	-0.240
-451.953	-200.000	-0.084	0.542
-450.938	-59.567	-0.202	0.114
-449.924	-200.000	-0.031	-0.264
-448.909	38.405	-0.152	-0.178
-447.895	141.962	0.231	-0.403
-446.880	24.770	0.280	-0.304
-445.865	800.000	0.135	-0.535
-444.851	-131.447	0.304	-0.052
-443.836	-25.196	0.132	-0.102
-442.822	40.952	-0.114	-0.135
-441.807	-46.793	0.233	0.149
-440.792	15.323	-0.338	0.348
-439.778	-95.136	-0.391	0.138
-438.763	93.426	-0.159	0.237
-437.749	-200.000	0.010	0.801
-436.734	24.001	0.125	0.135
-435.719	-170.840	0.323	-0.014
-434.705	-200.000	0.046	0.501
-433.690	-121.617	0.460	-0.099
-432.676	188.180	0.210	0.412
-431.661	-200.000	-0.010	-0.139
-430.646	-76.757	0.672	-0.307
-429.632	-156.067	0.385	0.032
-428.617	800.000	-0.089	-0.335
-427.603	71.143	0.022	-0.030
-426.588	-134.644	-0.612	0.097
-425.573	-125.481	-0.218	-0.043
-424.559	65.351	-0.209	0.278
-423.544	-200.000	-0.019	-0.562
-422.530	800.000	0.027	0.130
-421.515	-200.000	-0.063	-0.401
-420.500	-57.680	-0.417	-0.238
-419.486	-53.328	-0.120	-0.072
-418.471	-190.425	-0.267	0.004
-417.457	-132.977	-0.496	0.082
-416.442	-102.589	-0.839	0.261
-415.428	-26.097	0.149	-0.114
-414.413	800.000	0.019	-0.108
-413.398	252.120	0.060	-0.134
-412.384	82.340	-0.105	0.149
-411.369	-159.121	-0.374	-0.027
-410.355	800.000	-0.044	-0.243
-409.340	93.074	-0.195	0.289
-408.325	800.000	0.085	0.315
-407.311	-112.206	-0.098	0.026
-406.296	-163.219	0.164	0.010
-405.282	-200.000	0.010	0.318
-404.267	-137.755	0.185	0.027
-403.252	800.000	0.050	0.221
-402.238	-124.697	-0.140	-0.028
-401.223	0.531	0.233	0.218
-400.209	195.626	-0.159	-0.318
-399.194	143.728	-0.098	-0.172
-398.179	-87.049	0.162	-0.064
-397.165	-162.973	0.339	-0.021
-396.150	-143.253	-0.350	-0.044
-395.136	536.588	0.209	0.653
-394.121	93.419	-0.211	0.314
-393.106	800.000	-0.046	0.212
-392.092	48.098	-0.085	-0.104
-391.077	-154.766	0.213	-0.018
-390.063	145.287	0.127	0.223
-389.048	-106.797	0.222	-0.064
-388.033	15.621	-0.047	0.048
-387.019	-89.486	-0.728	-0.279
-386.004	-200.000	-0.002	0.622
-384.990	279.542	-0.107	-0.251
-383.975	800.000	0.085	0.384
-382.960	-73.423	0.312	0.149
-381.946	243.005	-0.158	0.348
-380.931	88.462	0.209	0.304
-379.917	-44.307	0.468	0.306
-378.902	800.000	0.065	0.341
-377.888	-113.449	0.486	0.124
-376.873	-0.445	-0.130	0.121
-375.858	-93.770	0.180	-0.065
-374.844	35.581	0.136	-0.156
-373.829	-23.222	0.068	0.054
-372.815	-92.884	0.073	-0.026
-371.800	16.657	0.222	0.229
-370.785	93.969	-0.244	0.363
-369.771	-124.270	-0.193	0.039
-368.756	402.443	0.105	0.289
-367.742	-73.227	0.120	-0.057
-366.727	-116.789	-0.112	0.027
-365.712	240.973	-0.227	0.498
-364.698	582.010	0.136	-0.437
-363.683	-47.907	0.042	0.027
-362.669	-2.637	-0.454	-0.415
-361.654	800.000	-0.135	-0.496
-360.639	16.639	-0.071	0.074
-359.625	-37.297	0.513	-0.358
-358.610	18.869	0.308	-0.323
-357.596	800.000	0.139	-0.536
-356.581	148.856	0.152	-0.270
-355.566	33.316	0.163	-0.186
-354.552	-200.000	0.008	0.446
-353.537	-200.000	-0.036	-0.312
-352.523	-28.207	-0.306	0.231
-351.508	-55.398	0.207	-0.121
-350.493	-123.493	-0.468	-0.096
-349.479	-34.189	0.222	-0.159
-348.464	-53.348	-0.334	0.200
-347.450	-61.746	-0.374	0.204
-346.435	-32.494	-0.201	0.146
-345.420	-27.081	0.031	-0.024
-344.406	243.147	-0.184	0.405
-343.391	-118.348	0.206	-0.048
-342.377	26.611	0.263	0.288
-341.362	-200.000	0.009	-0.089
-340.348	39.288	-0.052	0.061
-339.333	-131.913	-0.133	-0.022
-338.318	-24.063	0.200	0.156
-337.304	-155.821	-0.055	-0.005
-336.289	-70.484	-0.230	-0.113
-335.275	-96.322	-0.063	0.022
-334.260	-98.963	-0.407	-0.134
-333.245	-71.438	-0.092	-0.045
-332.231	800.000	0.216	-0.881
-331.216	-200.000	-0.053	-0.443
-330.202	53.566	0.215	-0.269
-329.187	800.000	0.056	0.287
-328.172	800.000	0.046	0.201
-327.158	-14.565	0.313	-0.262
-326.143	562.315	-0.203	-0.646
-325.129	-93.809	0.458	-0.164
-324.114	-71.746	0.202	-0.098
-323.099	285.969	-0.054	0.129
-322.085	120.452	-0.141	0.229
-321.070	3.058	0.124	0.118
-320.056	171.828	-0.289	-0.543
-319.041	-200.000	-0.411	0.000
-318.026	395.679	-0.089	0.243
-317.012	-78.434	-0.385	-0.171
-315.997	-53.581	-0.310	-0.184
-314.983	-136.621	-0.309	-0.046
-313.968	-200.000	-0.042	-0.367
-312.953	-28.047	-0.426	0.321
-311.939	-91.318	0.575	-0.214
-310.924	407.479	-0.071	0.198
-309.910	140.066	-0.279	0.481
-308.895	346.776	0.169	0.436
-307.880	-154.363	-0.780	-0.067
-306.866	-200.000	0.054	0.383
-305.851	4.857	0.152	0.146
-304.837	13.512	-0.015	0.015
-303.822	-36.908	0.106	-0.074
-302.807	-61.313	-0.553	-0.303
-301.793	-61.258	-0.469	0.257
-300.778	800.000	-0.055	-0.234
-299.764	-200.000	0.114	0.693
-298.749	-82.004	-0.336	0.143
-297.735	-195.500	0.330	-0.003
-296.720	-75.924	-0.340	0.156
-295.705	-45.078	0.432	0.280
-294.691	-58.383	0.190	-0.107
-293.676	146.174	0.185	0.324
-292.662	91.175	-0.380	-0.557
-291.647	-125.747	-0.132	-0.026
-290.632	-89.330	0.706	-0.270
-289.618	-200.000	0.028	-0.384
-288.603	-60.073	-0.321	-0.178
-287.589	-116.398	-0.086	0.021
-286.574	264.952	-0.153	0.349
-285.559	-200.000	0.420	0.002
-284.545	-200.000	0.012	-0.128
-283.530	359.323	-0.150	0.392
-282.516	800.000	0.010	-0.050
-281.501	-22.143	-0.072	-0.057
-280.486	60.012	0.083	-0.107
-279.472	-58.375	-0.100	0.057
-278.457	-13.508	0.177	0.149
-277.443	72.291	0.095	-0.129
-276.428	308.623	-0.169	-0.412
-275.413	-160.859	0.437	-0.030
-274.399	-95.960	-0.160	0.055
-273.384	90.646	-0.373	-0.545
-272.370	-108.150	0.194	-0.054
-271.355	6.346	-0.211	0.204
-270.340	-200.000	0.036	0.307
-269.326	-91.381	0.168	-0.062
-268.311	-82.385	0.032	0.013
-267.297	-101.317	-0.340	-0.108
-266.282	-200.000	-0.006	0.164
-265.267	-25.468	0.209	-0.161
-264.253	-82.817	-0.321	-0.134
-263.238	-92.199	-0.328	0.120
-262.224	489.787	-0.054	0.161
-261.209	-200.000	-0.001	0.054
-260.195	71.575	0.039	-0.053
-259.180	-169.876	0.542	0.025
-258.165	680.464	-0.075	-0.257
-257.151	-92.430	0.348	0.127
-256.136	81.608	0.123	-0.173
-255.122	800.000	0.029	-0.135
-254.107	-156.152	0.109	-0.009
-253.092	-1.788	-0.214	0.196
-252.078	-95.753	-0.170	-0.059
-251.063	85.801	0.292	0.419
-250.049	-200.000	-0.008	-0.133
-249.034	-142.914	-0.296	-0.037
-248.019	-200.000	-0.030	-0.612
-247.005	-100.710	0.543	-0.173
-245.990	-133.115	0.264	0.043
-244.976	60.460	-0.345	0.445
-243.961	-22.467	-0.172	-0.135
-242.946	69.332	0.205	-0.275
-241.932	396.966	-0.194	0.530
-240.917	-106.775	-0.402	-0.115
-239.903	-200.000	-0.018	0.303
-238.888	-194.700	-0.161	-0.002
-237.873	-200.000	-0.004	0.243
-236.859	-56.990	0.329	0.188
-235.844	-106.694	0.346	-0.100
-234.830	800.000	-0.082	-0.421
-233.815	-2.631	0.188	-0.171
-232.800	129.800	0.096	-0.160
-231.786	-200.000	0.015	-0.184
-230.771	-106.201	0.321	0.093
-229.757	-51.768	0.328	-0.198
-228.742	-200.000	-0.099	0.596
-227.727	321.814	-0.348	0.865
-226.713	55.872	-0.340	-0.429
-225.698	117.737	0.179	-0.288
-224.684	-200.000	0.060	0.565
-223.669	-200.000	0.024	0.443
-222.655	86.008	-0.263	0.378
-221.640	-200.000	0.170	-0.001
-220.625	5.798	0.229	-0.220
-219.611	-148.307	-0.357	0.038
-218.596	-69.620	-0.137	-0.068
-217.582	-7.048	-0.339	-0.299
-216.567	-107.581	0.162	0.046
-215.552	114.843	-0.307	0.488
-214.538	-91.692	0.357	0.131
-213.523	-200.000	0.004	0.345
-212.509	5.716	0.176	0.169
-211.494	-118.207	0.383	0.088
-210.479	496.679	-0.074	-0.221
-209.465	235.985	-0.025	-0.053
-208.450	-160.776	0.401	0.027
-207.436	68.417	-0.287	-0.383
-206.421	-91.136	0.401	-0.149
-205.406	-45.118	-0.299	0.193
-204.392	41.959	-0.068	-0.080
-203.377	292.533	0.078	0.186
-202.363	355.931	-0.037	-0.097
-201.348	740.843	0.135	0.473
-200.333	-200.000	0.176	0.001
-199.319	-157.698	-0.297	0.023
-198.304	-66.772	0.163	0.083
-197.290	-130.828	-0.347	-0.060
-196.275	-200.000	0.003	0.359
-195.260	52.395	0.176	-0.219
-194.246	-123.839	-0.398	0.081
-193.231	426.357	-0.049	0.137
-192.217	455.904	-0.126	0.364
-191.202	222.799	0.286	-0.600
-190.187	-90.850	-0.612	-0.228
-189.173	485.427	0.046	-0.136
-188.158	-137.865	-0.236	-0.034
-187.144	800.000	0.095	0.456
-186.129	175.413	0.327	0.617
-185.114	-84.466	0.370	0.151
-184.100	261.909	0.269	0.607
-183.085	-5.161	-0.451	0.403
-182.071	-141.041	-0.214	0.028
-181.056	-112.104	-0.165	-0.043
-180.042	-101.605	-0.550	0.172
-179.027	-200.000	0.010	0.615
-178.012	-107.957	0.122	0.034
-176.998	237.086	0.148	0.319
-175.983	-72.156	0.243	0.116
-174.969	800.000	-0.073	-0.354
-173.954	-35.605	0.500	-0.351
-172.939	101.716	0.157	-0.237
-171.925	800.000	0.015	-0.074
-170.910	-104.750	-0.420	-0.125
-169.896	-145.799	-0.436	0.050
-168.881	-62.059	0.311	-0.168
-167.866	36.697	-0.256	0.294
-166.852	-149.863	0.268	-0.027
-165.837	212.153	0.215	-0.442
-164.823	132.143	0.116	0.194
-163.808	-71.555	0.573	-0.277
-162.793	-62.795	0.417	0.223
-161.779	-200.000	0.005	0.357
-160.764	70.180	0.100	0.134
-159.750	753.022	0.104	0.366
-158.735	34.806	0.207	0.235
-157.720	-38.831	0.264	0.180
-156.706	-33.879	-0.173	0.123
-155.691	-33.253	-0.020	0.014
-154.677	800.000	0.048	-0.212
-153.662	-120.372	-0.413	0.090
-152.647	-88.001	-0.061	-0.023
-151.633	-10.020	-0.343	-0.295
-150.618	71.234	0.241	-0.325
-149.604	-200.000	-0.011	-0.260
-148.589	-19.815	-0.036	-0.029
-147.574	-40.105	-0.377	0.254
-146.560	65.030	0.220	0.289
-145.545	-38.285	0.262	0.180
-144.531	800.000	-0.049	-0.216
-143.516	12.917	0.372	0.372
-142.502	86.291	0.206	0.294
-141.487	-119.593	-0.459	0.102
-140.472	62.511	-0.091	-0.117
-139.458	800.000	-0.077	-0.362
-138.443	-200.000	0.014	0.160
-137.429	-154.818	-0.256	-0.022
-136.414	124.986	0.217	0.354
-135.399	-4.531	-0.171	0.153
-134.385	178.929	0.276	0.524
-133.370	134.080	-0.212	0.357
-132.356	-200.000	-0.014	0.569
-131.341	31.143	0.321	0.356
-130.326	-90.100	0.559	-0.210
-129.312	65.864	-0.159	-0.210
-128.297	176.029	-0.082	-0.155
-127.283	-72.332	-0.675	0.323
-126.268	-56.883	0.104	-0.060
-125.253	66.981	0.152	0.201
-124.239	319.448	0.104	0.256
-123.224	228.109	-0.239	0.507
-122.210	122.833	0.268	0.436
-121.195	-72.086	-0.190	0.091
-120.180	301.586	0.093	0.223
